year    month   day   hour  minute  B_enl V_enl   n_enl       T_enl
[year] [month] [day] [hour][minute] [nT]  [km/s]  [cm-3]      [kK]
2015    7       25     0   3    5.4500   462.2    5.820      42.419
2015    7       25     0   9    5.4473   462.2    5.818      42.401
2015    7       25     0  14    5.4446   462.2    5.816      42.384
2015    7       25     0  20    5.4419   462.1    5.814      42.366
2015    7       25     0  26    5.4392   462.1    5.812      42.348
2015    7       25     0  31    5.4365   462.0    5.811      42.331
2015    7       25     0  37    5.4337   462.0    5.809      42.313
2015    7       25     0  42    5.4310   462.0    5.807      42.295
2015    7       25     0  48    5.4283   461.9    5.805      42.278
2015    7       25     0  53    5.4256   461.9    5.803      42.260
2015    7       25     0  59    5.4228   461.9    5.802      42.242
2015    7       25     1   5    5.4201   461.8    5.800      42.225
2015    7       25     1  10    5.4173   461.8    5.798      42.208
2015    7       25     1  16    5.4146   461.7    5.797      42.190
2015    7       25     1  21    5.4119   461.7    5.795      42.173
2015    7       25     1  27    5.4092   461.7    5.793      42.156
2015    7       25     1  32    5.4064   461.6    5.792      42.138
2015    7       25     1  38    5.4037   461.6    5.790      42.121
2015    7       25     1  44    5.4010   461.5    5.789      42.104
2015    7       25     1  49    5.3983   461.5    5.787      42.087
2015    7       25     1  55    5.3955   461.5    5.786      42.070
2015    7       25     2   0    5.3928   461.4    5.784      42.054
2015    7       25     2   6    5.3901   461.4    5.783      42.037
2015    7       25     2  12    5.3874   461.3    5.781      42.020
2015    7       25     2  17    5.3847   461.3    5.780      42.004
2015    7       25     2  23    5.3820   461.2    5.778      41.987
2015    7       25     2  28    5.3793   461.2    5.777      41.970
2015    7       25     2  34    5.3766   461.1    5.775      41.954
2015    7       25     2  39    5.3739   461.1    5.774      41.937
2015    7       25     2  45    5.3713   461.0    5.773      41.921
2015    7       25     2  51    5.3686   461.0    5.771      41.905
2015    7       25     2  56    5.3659   460.9    5.770      41.888
2015    7       25     3   2    5.3632   460.9    5.768      41.872
2015    7       25     3   7    5.3606   460.8    5.766      41.855
2015    7       25     3  13    5.3579   460.8    5.765      41.839
2015    7       25     3  18    5.3553   460.7    5.763      41.822
2015    7       25     3  24    5.3526   460.7    5.762      41.806
2015    7       25     3  30    5.3500   460.6    5.760      41.789
2015    7       25     3  35    5.3473   460.6    5.759      41.772
2015    7       25     3  41    5.3447   460.5    5.757      41.756
2015    7       25     3  46    5.3421   460.5    5.755      41.739
2015    7       25     3  52    5.3394   460.4    5.754      41.722
2015    7       25     3  57    5.3368   460.4    5.752      41.705
2015    7       25     4   3    5.3342   460.3    5.750      41.688
2015    7       25     4   9    5.3315   460.3    5.749      41.670
2015    7       25     4  14    5.3289   460.2    5.747      41.653
2015    7       25     4  20    5.3262   460.2    5.745      41.635
2015    7       25     4  25    5.3235   460.1    5.743      41.617
2015    7       25     4  31    5.3209   460.0    5.742      41.599
2015    7       25     4  36    5.3182   460.0    5.740      41.581
2015    7       25     4  42    5.3155   459.9    5.738      41.563
2015    7       25     4  48    5.3128   459.9    5.736      41.545
2015    7       25     4  53    5.3101   459.8    5.735      41.526
2015    7       25     4  59    5.3074   459.8    5.733      41.508
2015    7       25     5   4    5.3047   459.7    5.731      41.489
2015    7       25     5  10    5.3020   459.6    5.729      41.470
2015    7       25     5  15    5.2992   459.6    5.727      41.450
2015    7       25     5  21    5.2965   459.5    5.726      41.431
2015    7       25     5  27    5.2937   459.5    5.724      41.411
2015    7       25     5  32    5.2910   459.4    5.722      41.392
2015    7       25     5  38    5.2882   459.3    5.720      41.372
2015    7       25     5  43    5.2854   459.3    5.718      41.352
2015    7       25     5  49    5.2826   459.2    5.717      41.332
2015    7       25     5  54    5.2799   459.1    5.715      41.311
2015    7       25     6   0    5.2771   459.1    5.713      41.291
2015    7       25     6   6    5.2743   459.0    5.711      41.270
2015    7       25     6  11    5.2714   458.9    5.710      41.249
2015    7       25     6  17    5.2686   458.9    5.708      41.229
2015    7       25     6  22    5.2658   458.8    5.706      41.207
2015    7       25     6  28    5.2630   458.7    5.704      41.186
2015    7       25     6  34    5.2601   458.7    5.703      41.165
2015    7       25     6  39    5.2573   458.6    5.701      41.144
2015    7       25     6  45    5.2545   458.5    5.699      41.122
2015    7       25     6  50    5.2516   458.5    5.698      41.101
2015    7       25     6  56    5.2488   458.4    5.696      41.079
2015    7       25     7   1    5.2459   458.3    5.695      41.058
2015    7       25     7   7    5.2431   458.3    5.693      41.036
2015    7       25     7  13    5.2402   458.2    5.692      41.014
2015    7       25     7  18    5.2374   458.1    5.690      40.992
2015    7       25     7  24    5.2345   458.0    5.689      40.971
2015    7       25     7  29    5.2316   458.0    5.687      40.949
2015    7       25     7  35    5.2288   457.9    5.686      40.927
2015    7       25     7  40    5.2259   457.8    5.684      40.905
2015    7       25     7  46    5.2230   457.7    5.683      40.883
2015    7       25     7  52    5.2202   457.7    5.682      40.861
2015    7       25     7  57    5.2173   457.6    5.680      40.840
2015    7       25     8   3    5.2145   457.5    5.679      40.818
2015    7       25     8   8    5.2116   457.4    5.678      40.796
2015    7       25     8  14    5.2088   457.3    5.677      40.774
2015    7       25     8  20    5.2059   457.3    5.676      40.753
2015    7       25     8  25    5.2031   457.2    5.674      40.731
2015    7       25     8  31    5.2002   457.1    5.673      40.710
2015    7       25     8  36    5.1974   457.0    5.672      40.688
2015    7       25     8  42    5.1946   456.9    5.671      40.667
2015    7       25     8  47    5.1917   456.9    5.670      40.645
2015    7       25     8  53    5.1890   456.8    5.669      40.624
2015    7       25     8  59    5.1861   456.7    5.668      40.602
2015    7       25     9   4    5.1834   456.6    5.667      40.581
2015    7       25     9  10    5.1806   456.5    5.666      40.560
2015    7       25     9  15    5.1778   456.4    5.665      40.538
2015    7       25     9  21    5.1750   456.4    5.664      40.517
2015    7       25     9  26    5.1723   456.3    5.664      40.496
2015    7       25     9  32    5.1696   456.2    5.663      40.475
2015    7       25     9  38    5.1669   456.1    5.662      40.454
2015    7       25     9  43    5.1641   456.0    5.661      40.433
2015    7       25     9  49    5.1615   455.9    5.660      40.412
2015    7       25     9  54    5.1588   455.8    5.659      40.391
2015    7       25    10   0    5.1561   455.8    5.658      40.370
2015    7       25    10   6    5.1535   455.7    5.657      40.349
2015    7       25    10  11    5.1508   455.6    5.657      40.328
2015    7       25    10  17    5.1482   455.5    5.656      40.307
2015    7       25    10  22    5.1456   455.4    5.655      40.287
2015    7       25    10  28    5.1430   455.3    5.654      40.266
2015    7       25    10  33    5.1404   455.2    5.654      40.245
2015    7       25    10  39    5.1379   455.1    5.653      40.225
2015    7       25    10  45    5.1353   455.0    5.652      40.204
2015    7       25    10  50    5.1328   454.9    5.651      40.184
2015    7       25    10  56    5.1303   454.8    5.651      40.163
2015    7       25    11   1    5.1278   454.8    5.650      40.143
2015    7       25    11   7    5.1253   454.7    5.649      40.122
2015    7       25    11  12    5.1228   454.6    5.648      40.102
2015    7       25    11  18    5.1204   454.5    5.648      40.082
2015    7       25    11  24    5.1179   454.4    5.647      40.061
2015    7       25    11  29    5.1155   454.3    5.647      40.041
2015    7       25    11  35    5.1130   454.2    5.646      40.021
2015    7       25    11  40    5.1105   454.1    5.645      40.001
2015    7       25    11  46    5.1081   454.0    5.645      39.980
2015    7       25    11  51    5.1056   453.9    5.644      39.960
2015    7       25    11  57    5.1031   453.8    5.644      39.940
2015    7       25    12   3    5.1007   453.7    5.643      39.920
2015    7       25    12   8    5.0982   453.6    5.643      39.900
2015    7       25    12  14    5.0957   453.6    5.642      39.879
2015    7       25    12  19    5.0932   453.5    5.641      39.859
2015    7       25    12  25    5.0907   453.4    5.641      39.839
2015    7       25    12  30    5.0882   453.3    5.640      39.818
2015    7       25    12  36    5.0857   453.2    5.640      39.797
2015    7       25    12  42    5.0832   453.1    5.639      39.776
2015    7       25    12  47    5.0807   453.0    5.639      39.755
2015    7       25    12  53    5.0781   452.9    5.638      39.734
2015    7       25    12  58    5.0756   452.8    5.638      39.713
2015    7       25    13   4    5.0731   452.7    5.637      39.692
2015    7       25    13   9    5.0705   452.6    5.636      39.670
2015    7       25    13  15    5.0680   452.5    5.636      39.648
2015    7       25    13  21    5.0655   452.4    5.635      39.627
2015    7       25    13  26    5.0629   452.3    5.635      39.604
2015    7       25    13  32    5.0604   452.2    5.634      39.582
2015    7       25    13  37    5.0578   452.1    5.633      39.560
2015    7       25    13  43    5.0553   452.0    5.633      39.537
2015    7       25    13  48    5.0527   451.9    5.632      39.515
2015    7       25    13  54    5.0502   451.8    5.631      39.492
2015    7       25    14   0    5.0476   451.7    5.631      39.469
2015    7       25    14   5    5.0451   451.6    5.630      39.446
2015    7       25    14  11    5.0425   451.5    5.629      39.423
2015    7       25    14  16    5.0400   451.4    5.629      39.400
2015    7       25    14  22    5.0374   451.3    5.628      39.376
2015    7       25    14  28    5.0349   451.2    5.627      39.353
2015    7       25    14  33    5.0324   451.1    5.627      39.329
2015    7       25    14  39    5.0298   451.0    5.626      39.306
2015    7       25    14  44    5.0273   450.9    5.625      39.282
2015    7       25    14  50    5.0248   450.8    5.624      39.258
2015    7       25    14  55    5.0222   450.7    5.624      39.234
2015    7       25    15   1    5.0197   450.6    5.623      39.210
2015    7       25    15   7    5.0172   450.5    5.622      39.186
2015    7       25    15  12    5.0147   450.4    5.622      39.162
2015    7       25    15  18    5.0122   450.3    5.621      39.138
2015    7       25    15  23    5.0097   450.2    5.620      39.114
2015    7       25    15  29    5.0072   450.1    5.620      39.089
2015    7       25    15  34    5.0047   450.0    5.619      39.065
2015    7       25    15  40    5.0022   449.8    5.618      39.041
2015    7       25    15  46    4.9997   449.7    5.618      39.016
2015    7       25    15  51    4.9973   449.6    5.617      38.992
2015    7       25    15  57    4.9948   449.5    5.616      38.967
2015    7       25    16   2    4.9924   449.4    5.616      38.943
2015    7       25    16   8    4.9900   449.3    5.615      38.918
2015    7       25    16  14    4.9875   449.2    5.615      38.894
2015    7       25    16  19    4.9852   449.1    5.614      38.869
2015    7       25    16  25    4.9828   449.0    5.613      38.845
2015    7       25    16  30    4.9804   448.9    5.613      38.820
2015    7       25    16  36    4.9780   448.7    5.612      38.796
2015    7       25    16  41    4.9757   448.6    5.611      38.771
2015    7       25    16  47    4.9733   448.5    5.611      38.747
2015    7       25    16  53    4.9710   448.4    5.610      38.722
2015    7       25    16  58    4.9687   448.3    5.610      38.698
2015    7       25    17   4    4.9665   448.2    5.609      38.673
2015    7       25    17   9    4.9642   448.1    5.609      38.649
2015    7       25    17  15    4.9619   447.9    5.608      38.624
2015    7       25    17  20    4.9597   447.8    5.608      38.600
2015    7       25    17  26    4.9575   447.7    5.607      38.575
2015    7       25    17  32    4.9553   447.6    5.607      38.551
2015    7       25    17  37    4.9531   447.5    5.606      38.527
2015    7       25    17  43    4.9509   447.4    5.606      38.502
2015    7       25    17  48    4.9487   447.2    5.605      38.478
2015    7       25    17  54    4.9466   447.1    5.605      38.454
2015    7       25    17  59    4.9445   447.0    5.605      38.430
2015    7       25    18   5    4.9424   446.9    5.604      38.406
2015    7       25    18  11    4.9403   446.8    5.604      38.382
2015    7       25    18  16    4.9382   446.6    5.604      38.358
2015    7       25    18  22    4.9362   446.5    5.604      38.334
2015    7       25    18  27    4.9341   446.4    5.604      38.311
2015    7       25    18  33    4.9321   446.3    5.603      38.288
2015    7       25    18  39    4.9301   446.2    5.603      38.264
2015    7       25    18  44    4.9281   446.0    5.603      38.242
2015    7       25    18  50    4.9262   445.9    5.603      38.218
2015    7       25    18  55    4.9242   445.8    5.604      38.196
2015    7       25    19   1    4.9223   445.7    5.604      38.173
2015    7       25    19   6    4.9203   445.6    5.604      38.151
2015    7       25    19  12    4.9184   445.4    5.604      38.129
2015    7       25    19  17    4.9165   445.3    5.605      38.107
2015    7       25    19  23    4.9146   445.2    5.605      38.085
2015    7       25    19  29    4.9127   445.1    5.605      38.064
2015    7       25    19  34    4.9108   444.9    5.606      38.042
2015    7       25    19  40    4.9090   444.8    5.606      38.022
2015    7       25    19  45    4.9071   444.7    5.607      38.000
2015    7       25    19  51    4.9053   444.6    5.608      37.980
2015    7       25    19  57    4.9035   444.4    5.608      37.959
2015    7       25    20   2    4.9016   444.3    5.609      37.938
2015    7       25    20   8    4.8998   444.2    5.610      37.917
2015    7       25    20  13    4.8980   444.1    5.611      37.897
2015    7       25    20  19    4.8962   443.9    5.612      37.877
2015    7       25    20  24    4.8945   443.8    5.613      37.856
2015    7       25    20  30    4.8927   443.7    5.614      37.836
2015    7       25    20  36    4.8910   443.6    5.615      37.816
2015    7       25    20  41    4.8892   443.4    5.616      37.796
2015    7       25    20  47    4.8875   443.3    5.617      37.776
2015    7       25    20  52    4.8858   443.2    5.618      37.755
2015    7       25    20  58    4.8841   443.1    5.619      37.735
2015    7       25    21   3    4.8823   442.9    5.620      37.715
2015    7       25    21   9    4.8807   442.8    5.621      37.695
2015    7       25    21  15    4.8790   442.7    5.622      37.675
2015    7       25    21  20    4.8773   442.5    5.623      37.655
2015    7       25    21  26    4.8756   442.4    5.624      37.635
2015    7       25    21  31    4.8740   442.3    5.626      37.614
2015    7       25    21  37    4.8723   442.2    5.627      37.594
2015    7       25    21  42    4.8706   442.0    5.628      37.574
2015    7       25    21  48    4.8690   441.9    5.629      37.553
2015    7       25    21  54    4.8673   441.8    5.630      37.532
2015    7       25    21  59    4.8657   441.6    5.631      37.511
2015    7       25    22   5    4.8640   441.5    5.632      37.491
2015    7       25    22  10    4.8624   441.4    5.634      37.469
2015    7       25    22  16    4.8607   441.2    5.635      37.449
2015    7       25    22  22    4.8591   441.1    5.636      37.427
2015    7       25    22  27    4.8574   441.0    5.637      37.406
2015    7       25    22  33    4.8558   440.8    5.638      37.384
2015    7       25    22  38    4.8541   440.7    5.639      37.362
2015    7       25    22  44    4.8525   440.6    5.640      37.340
2015    7       25    22  49    4.8509   440.4    5.641      37.318
2015    7       25    22  55    4.8492   440.3    5.642      37.296
2015    7       25    23   1    4.8476   440.2    5.643      37.274
2015    7       25    23   6    4.8460   440.0    5.644      37.251
2015    7       25    23  12    4.8444   439.9    5.644      37.228
2015    7       25    23  17    4.8427   439.8    5.645      37.206
2015    7       25    23  23    4.8411   439.6    5.646      37.183
2015    7       25    23  29    4.8395   439.5    5.647      37.160
2015    7       25    23  34    4.8379   439.3    5.648      37.137
2015    7       25    23  40    4.8363   439.2    5.648      37.113
2015    7       25    23  45    4.8348   439.1    5.649      37.090
2015    7       25    23  51    4.8332   438.9    5.650      37.067
2015    7       25    23  56    4.8316   438.8    5.651      37.043
2015    7       26     0   2    4.8300   438.7    5.651      37.019
2015    7       26     0   8    4.8285   438.5    5.652      36.996
2015    7       26     0  13    4.8269   438.4    5.653      36.972
2015    7       26     0  19    4.8254   438.2    5.653      36.948
2015    7       26     0  24    4.8239   438.1    5.654      36.924
2015    7       26     0  30    4.8224   438.0    5.655      36.900
2015    7       26     0  35    4.8208   437.8    5.655      36.876
2015    7       26     0  41    4.8193   437.7    5.656      36.852
2015    7       26     0  47    4.8178   437.5    5.656      36.827
2015    7       26     0  52    4.8164   437.4    5.657      36.803
2015    7       26     0  58    4.8149   437.3    5.658      36.779
2015    7       26     1   3    4.8134   437.1    5.658      36.754
2015    7       26     1   9    4.8120   437.0    5.659      36.730
2015    7       26     1  14    4.8106   436.8    5.659      36.706
2015    7       26     1  20    4.8091   436.7    5.660      36.681
2015    7       26     1  26    4.8078   436.5    5.661      36.657
2015    7       26     1  31    4.8064   436.4    5.661      36.632
2015    7       26     1  37    4.8050   436.2    5.662      36.608
2015    7       26     1  42    4.8036   436.1    5.663      36.584
2015    7       26     1  48    4.8023   435.9    5.663      36.560
2015    7       26     1  53    4.8010   435.8    5.664      36.536
2015    7       26     1  59    4.7997   435.6    5.665      36.512
2015    7       26     2   5    4.7984   435.5    5.666      36.488
2015    7       26     2  10    4.7972   435.3    5.667      36.465
2015    7       26     2  16    4.7960   435.2    5.668      36.441
2015    7       26     2  21    4.7947   435.0    5.669      36.418
2015    7       26     2  27    4.7936   434.9    5.670      36.395
2015    7       26     2  32    4.7924   434.7    5.671      36.373
2015    7       26     2  38    4.7913   434.5    5.673      36.350
2015    7       26     2  44    4.7902   434.4    5.674      36.328
2015    7       26     2  49    4.7892   434.2    5.676      36.306
2015    7       26     2  55    4.7881   434.1    5.677      36.284
2015    7       26     3   0    4.7871   433.9    5.679      36.263
2015    7       26     3   6    4.7862   433.7    5.681      36.242
2015    7       26     3  11    4.7853   433.6    5.682      36.221
2015    7       26     3  17    4.7844   433.4    5.684      36.201
2015    7       26     3  23    4.7835   433.3    5.686      36.181
2015    7       26     3  28    4.7827   433.1    5.689      36.161
2015    7       26     3  34    4.7819   432.9    5.691      36.142
2015    7       26     3  39    4.7811   432.8    5.693      36.123
2015    7       26     3  45    4.7804   432.6    5.696      36.104
2015    7       26     3  50    4.7797   432.5    5.698      36.085
2015    7       26     3  56    4.7790   432.3    5.701      36.067
2015    7       26     4   2    4.7784   432.1    5.704      36.049
2015    7       26     4   7    4.7778   432.0    5.707      36.031
2015    7       26     4  13    4.7772   431.8    5.710      36.014
2015    7       26     4  18    4.7766   431.6    5.713      35.997
2015    7       26     4  24    4.7761   431.5    5.716      35.980
2015    7       26     4  29    4.7756   431.3    5.719      35.963
2015    7       26     4  35    4.7751   431.2    5.722      35.947
2015    7       26     4  41    4.7747   431.0    5.726      35.930
2015    7       26     4  46    4.7742   430.8    5.729      35.914
2015    7       26     4  52    4.7738   430.7    5.733      35.898
2015    7       26     4  57    4.7734   430.5    5.736      35.883
2015    7       26     5   3    4.7731   430.3    5.740      35.867
2015    7       26     5   8    4.7727   430.2    5.744      35.852
2015    7       26     5  14    4.7724   430.0    5.748      35.836
2015    7       26     5  20    4.7720   429.8    5.751      35.821
2015    7       26     5  25    4.7717   429.7    5.755      35.805
2015    7       26     5  31    4.7715   429.5    5.759      35.790
2015    7       26     5  36    4.7712   429.3    5.763      35.775
2015    7       26     5  42    4.7710   429.2    5.767      35.760
2015    7       26     5  48    4.7707   429.0    5.771      35.745
2015    7       26     5  53    4.7705   428.8    5.776      35.730
2015    7       26     5  59    4.7704   428.7    5.780      35.715
2015    7       26     6   4    4.7702   428.5    5.784      35.701
2015    7       26     6  10    4.7701   428.3    5.788      35.686
2015    7       26     6  15    4.7699   428.1    5.792      35.671
2015    7       26     6  21    4.7699   428.0    5.797      35.656
2015    7       26     6  26    4.7698   427.8    5.801      35.642
2015    7       26     6  32    4.7698   427.6    5.805      35.627
2015    7       26     6  38    4.7697   427.5    5.810      35.613
2015    7       26     6  43    4.7697   427.3    5.814      35.598
2015    7       26     6  49    4.7697   427.1    5.819      35.584
2015    7       26     6  54    4.7698   427.0    5.823      35.569
2015    7       26     7   0    4.7699   426.8    5.827      35.555
2015    7       26     7   6    4.7700   426.6    5.832      35.541
2015    7       26     7  11    4.7701   426.5    5.836      35.526
2015    7       26     7  17    4.7702   426.3    5.840      35.512
2015    7       26     7  22    4.7704   426.1    5.845      35.498
2015    7       26     7  28    4.7706   426.0    5.849      35.483
2015    7       26     7  33    4.7708   425.8    5.853      35.469
2015    7       26     7  39    4.7711   425.6    5.858      35.455
2015    7       26     7  44    4.7713   425.5    5.862      35.441
2015    7       26     7  50    4.7716   425.3    5.866      35.426
2015    7       26     7  56    4.7719   425.1    5.871      35.412
2015    7       26     8   1    4.7723   425.0    5.875      35.398
2015    7       26     8   7    4.7727   424.8    5.879      35.384
2015    7       26     8  12    4.7731   424.6    5.883      35.370
2015    7       26     8  18    4.7735   424.5    5.887      35.355
2015    7       26     8  23    4.7740   424.3    5.891      35.341
2015    7       26     8  29    4.7745   424.1    5.895      35.327
2015    7       26     8  35    4.7750   424.0    5.899      35.313
2015    7       26     8  40    4.7756   423.8    5.903      35.299
2015    7       26     8  46    4.7762   423.6    5.907      35.284
2015    7       26     8  51    4.7768   423.5    5.911      35.270
2015    7       26     8  57    4.7775   423.3    5.915      35.256
2015    7       26     9   2    4.7782   423.1    5.919      35.242
2015    7       26     9   8    4.7790   423.0    5.923      35.228
2015    7       26     9  14    4.7797   422.8    5.927      35.214
2015    7       26     9  19    4.7806   422.6    5.931      35.199
2015    7       26     9  25    4.7814   422.5    5.935      35.185
2015    7       26     9  30    4.7824   422.3    5.938      35.171
2015    7       26     9  36    4.7833   422.1    5.942      35.157
2015    7       26     9  41    4.7843   422.0    5.946      35.143
2015    7       26     9  47    4.7853   421.8    5.950      35.129
2015    7       26     9  53    4.7864   421.6    5.954      35.115
2015    7       26     9  58    4.7875   421.5    5.957      35.101
2015    7       26    10   4    4.7887   421.3    5.961      35.087
2015    7       26    10   9    4.7899   421.1    5.965      35.073
2015    7       26    10  15    4.7912   421.0    5.969      35.059
2015    7       26    10  20    4.7925   420.8    5.973      35.046
2015    7       26    10  26    4.7938   420.6    5.977      35.032
2015    7       26    10  32    4.7952   420.5    5.981      35.018
2015    7       26    10  37    4.7967   420.3    5.985      35.004
2015    7       26    10  43    4.7981   420.2    5.989      34.991
2015    7       26    10  48    4.7997   420.0    5.993      34.977
2015    7       26    10  54    4.8013   419.8    5.997      34.964
2015    7       26    10  59    4.8029   419.7    6.001      34.950
2015    7       26    11   5    4.8046   419.5    6.005      34.937
2015    7       26    11  11    4.8064   419.3    6.010      34.924
2015    7       26    11  16    4.8081   419.2    6.014      34.911
2015    7       26    11  22    4.8100   419.0    6.018      34.898
2015    7       26    11  27    4.8118   418.8    6.023      34.885
2015    7       26    11  33    4.8138   418.7    6.027      34.872
2015    7       26    11  38    4.8157   418.5    6.032      34.860
2015    7       26    11  44    4.8178   418.3    6.036      34.847
2015    7       26    11  50    4.8198   418.2    6.041      34.835
2015    7       26    11  55    4.8220   418.0    6.046      34.823
2015    7       26    12   1    4.8242   417.8    6.051      34.811
2015    7       26    12   6    4.8264   417.7    6.056      34.799
2015    7       26    12  12    4.8286   417.5    6.061      34.788
2015    7       26    12  18    4.8310   417.3    6.066      34.776
2015    7       26    12  23    4.8334   417.2    6.071      34.765
2015    7       26    12  29    4.8358   417.0    6.077      34.754
2015    7       26    12  34    4.8383   416.9    6.082      34.744
2015    7       26    12  40    4.8408   416.7    6.088      34.733
2015    7       26    12  45    4.8434   416.5    6.094      34.724
2015    7       26    12  51    4.8460   416.4    6.100      34.714
2015    7       26    12  57    4.8487   416.2    6.105      34.704
2015    7       26    13   2    4.8514   416.0    6.112      34.695
2015    7       26    13   8    4.8542   415.9    6.118      34.686
2015    7       26    13  13    4.8570   415.7    6.124      34.678
2015    7       26    13  19    4.8599   415.5    6.131      34.670
2015    7       26    13  25    4.8628   415.4    6.137      34.662
2015    7       26    13  30    4.8658   415.2    6.144      34.655
2015    7       26    13  36    4.8688   415.1    6.151      34.648
2015    7       26    13  41    4.8718   414.9    6.158      34.642
2015    7       26    13  47    4.8750   414.7    6.165      34.636
2015    7       26    13  52    4.8781   414.6    6.172      34.631
2015    7       26    13  58    4.8813   414.4    6.179      34.626
2015    7       26    14   4    4.8846   414.3    6.187      34.622
2015    7       26    14   9    4.8879   414.1    6.194      34.618
2015    7       26    14  15    4.8912   413.9    6.202      34.615
2015    7       26    14  20    4.8946   413.8    6.210      34.612
2015    7       26    14  26    4.8981   413.6    6.218      34.610
2015    7       26    14  31    4.9016   413.5    6.226      34.608
2015    7       26    14  37    4.9051   413.3    6.234      34.607
2015    7       26    14  43    4.9088   413.2    6.242      34.607
2015    7       26    14  48    4.9125   413.0    6.250      34.607
2015    7       26    14  54    4.9162   412.9    6.258      34.607
2015    7       26    14  59    4.9200   412.7    6.267      34.608
2015    7       26    15   5    4.9239   412.6    6.275      34.609
2015    7       26    15  10    4.9278   412.4    6.284      34.611
2015    7       26    15  16    4.9319   412.3    6.293      34.614
2015    7       26    15  22    4.9359   412.1    6.302      34.616
2015    7       26    15  27    4.9401   412.0    6.311      34.620
2015    7       26    15  33    4.9443   411.8    6.320      34.623
2015    7       26    15  38    4.9486   411.7    6.329      34.628
2015    7       26    15  44    4.9529   411.5    6.338      34.633
2015    7       26    15  49    4.9573   411.4    6.347      34.639
2015    7       26    15  55    4.9617   411.3    6.356      34.645
2015    7       26    16   1    4.9663   411.1    6.365      34.652
2015    7       26    16   6    4.9708   411.0    6.374      34.660
2015    7       26    16  12    4.9755   410.9    6.382      34.668
2015    7       26    16  17    4.9801   410.7    6.391      34.676
2015    7       26    16  23    4.9849   410.6    6.400      34.685
2015    7       26    16  28    4.9896   410.5    6.409      34.694
2015    7       26    16  34    4.9945   410.4    6.418      34.704
2015    7       26    16  40    4.9993   410.2    6.426      34.713
2015    7       26    16  45    5.0042   410.1    6.435      34.723
2015    7       26    16  51    5.0092   410.0    6.443      34.733
2015    7       26    16  56    5.0142   409.9    6.451      34.743
2015    7       26    17   2    5.0192   409.8    6.460      34.753
2015    7       26    17   7    5.0243   409.6    6.468      34.763
2015    7       26    17  13    5.0294   409.5    6.476      34.772
2015    7       26    17  19    5.0345   409.4    6.484      34.782
2015    7       26    17  24    5.0397   409.3    6.492      34.791
2015    7       26    17  30    5.0449   409.2    6.500      34.800
2015    7       26    17  35    5.0502   409.0    6.508      34.809
2015    7       26    17  41    5.0555   408.9    6.516      34.818
2015    7       26    17  46    5.0608   408.8    6.523      34.826
2015    7       26    17  52    5.0662   408.7    6.531      34.834
2015    7       26    17  58    5.0716   408.6    6.539      34.842
2015    7       26    18   3    5.0771   408.5    6.547      34.850
2015    7       26    18   9    5.0826   408.4    6.554      34.858
2015    7       26    18  14    5.0882   408.3    6.562      34.866
2015    7       26    18  20    5.0938   408.2    6.570      34.873
2015    7       26    18  26    5.0995   408.0    6.577      34.881
2015    7       26    18  31    5.1052   407.9    6.585      34.889
2015    7       26    18  37    5.1110   407.8    6.593      34.896
2015    7       26    18  42    5.1167   407.7    6.601      34.904
2015    7       26    18  48    5.1227   407.6    6.608      34.912
2015    7       26    18  53    5.1286   407.5    6.616      34.919
2015    7       26    18  59    5.1346   407.4    6.624      34.927
2015    7       26    19   5    5.1406   407.3    6.632      34.936
2015    7       26    19  10    5.1467   407.2    6.640      34.944
2015    7       26    19  16    5.1529   407.1    6.648      34.953
2015    7       26    19  21    5.1591   407.0    6.657      34.961
2015    7       26    19  27    5.1654   406.9    6.665      34.970
2015    7       26    19  32    5.1718   406.8    6.673      34.980
2015    7       26    19  38    5.1781   406.7    6.682      34.990
2015    7       26    19  44    5.1846   406.6    6.691      35.000
2015    7       26    19  49    5.1911   406.5    6.699      35.010
2015    7       26    19  55    5.1977   406.4    6.708      35.021
2015    7       26    20   0    5.2043   406.3    6.717      35.032
2015    7       26    20   6    5.2110   406.3    6.727      35.044
2015    7       26    20  11    5.2176   406.2    6.736      35.056
2015    7       26    20  17    5.2244   406.1    6.746      35.069
2015    7       26    20  23    5.2311   406.0    6.756      35.082
2015    7       26    20  28    5.2379   405.9    6.766      35.096
2015    7       26    20  34    5.2446   405.8    6.776      35.110
2015    7       26    20  39    5.2515   405.7    6.786      35.124
2015    7       26    20  45    5.2583   405.7    6.797      35.140
2015    7       26    20  51    5.2651   405.6    6.807      35.156
2015    7       26    20  56    5.2719   405.5    6.818      35.172
2015    7       26    21   2    5.2788   405.4    6.829      35.190
2015    7       26    21   7    5.2856   405.4    6.841      35.208
2015    7       26    21  13    5.2925   405.3    6.852      35.227
2015    7       26    21  18    5.2993   405.2    6.864      35.248
2015    7       26    21  24    5.3062   405.1    6.875      35.270
2015    7       26    21  30    5.3130   405.1    6.887      35.293
2015    7       26    21  35    5.3199   405.0    6.898      35.316
2015    7       26    21  41    5.3267   404.9    6.910      35.341
2015    7       26    21  46    5.3336   404.9    6.922      35.367
2015    7       26    21  52    5.3405   404.8    6.934      35.393
2015    7       26    21  57    5.3474   404.7    6.946      35.420
2015    7       26    22   3    5.3542   404.7    6.957      35.447
2015    7       26    22   9    5.3611   404.6    6.969      35.476
2015    7       26    22  14    5.3680   404.5    6.981      35.505
2015    7       26    22  20    5.3749   404.5    6.992      35.534
2015    7       26    22  25    5.3818   404.4    7.004      35.563
2015    7       26    22  31    5.3888   404.4    7.016      35.593
2015    7       26    22  36    5.3957   404.3    7.027      35.623
2015    7       26    22  42    5.4027   404.2    7.039      35.653
2015    7       26    22  48    5.4097   404.2    7.050      35.682
2015    7       26    22  53    5.4167   404.1    7.061      35.712
2015    7       26    22  59    5.4237   404.1    7.073      35.742
2015    7       26    23   4    5.4307   404.0    7.084      35.772
2015    7       26    23  10    5.4377   404.0    7.095      35.802
2015    7       26    23  15    5.4447   403.9    7.106      35.832
2015    7       26    23  21    5.4517   403.9    7.116      35.862
2015    7       26    23  27    5.4588   403.8    7.127      35.892
2015    7       26    23  32    5.4657   403.8    7.138      35.922
2015    7       26    23  38    5.4728   403.8    7.148      35.952
2015    7       26    23  43    5.4798   403.7    7.158      35.981
2015    7       26    23  49    5.4868   403.7    7.168      36.011
2015    7       26    23  54    5.4938   403.6    7.178      36.040
2015    7       27     0   0    5.5008   403.6    7.188      36.069
2015    7       27     0   6    5.5077   403.6    7.198      36.098
2015    7       27     0  11    5.5147   403.5    7.207      36.127
2015    7       27     0  17    5.5216   403.5    7.216      36.155
2015    7       27     0  22    5.5286   403.5    7.226      36.183
2015    7       27     0  28    5.5355   403.4    7.235      36.211
2015    7       27     0  33    5.5424   403.4    7.244      36.238
2015    7       27     0  39    5.5493   403.4    7.253      36.265
2015    7       27     0  45    5.5563   403.3    7.262      36.292
2015    7       27     0  50    5.5632   403.3    7.270      36.318
2015    7       27     0  56    5.5701   403.3    7.279      36.343
2015    7       27     1   1    5.5770   403.3    7.288      36.369
2015    7       27     1   7    5.5839   403.2    7.297      36.394
2015    7       27     1  12    5.5908   403.2    7.305      36.419
2015    7       27     1  18    5.5978   403.2    7.314      36.443
2015    7       27     1  24    5.6047   403.2    7.322      36.468
2015    7       27     1  29    5.6117   403.1    7.331      36.492
2015    7       27     1  35    5.6186   403.1    7.339      36.516
2015    7       27     1  40    5.6256   403.1    7.348      36.540
2015    7       27     1  46    5.6326   403.1    7.356      36.564
2015    7       27     1  52    5.6397   403.0    7.365      36.587
2015    7       27     1  57    5.6467   403.0    7.373      36.611
2015    7       27     2   3    5.6539   403.0    7.382      36.635
2015    7       27     2   8    5.6610   403.0    7.390      36.659
2015    7       27     2  14    5.6682   403.0    7.399      36.684
2015    7       27     2  19    5.6754   402.9    7.408      36.708
2015    7       27     2  25    5.6827   402.9    7.417      36.733
2015    7       27     2  31    5.6900   402.9    7.426      36.758
2015    7       27     2  36    5.6974   402.9    7.435      36.783
2015    7       27     2  42    5.7048   402.9    7.444      36.809
2015    7       27     2  47    5.7123   402.9    7.453      36.835
2015    7       27     2  53    5.7198   402.9    7.463      36.862
2015    7       27     2  58    5.7274   402.9    7.473      36.889
2015    7       27     3   4    5.7350   402.9    7.483      36.917
2015    7       27     3  10    5.7427   402.9    7.493      36.945
2015    7       27     3  15    5.7504   402.9    7.503      36.974
2015    7       27     3  21    5.7582   402.9    7.514      37.005
2015    7       27     3  26    5.7660   402.9    7.525      37.035
2015    7       27     3  32    5.7740   402.9    7.536      37.067
2015    7       27     3  37    5.7819   402.9    7.548      37.099
2015    7       27     3  43    5.7900   402.9    7.559      37.132
2015    7       27     3  49    5.7980   402.9    7.572      37.166
2015    7       27     3  54    5.8061   403.0    7.584      37.201
2015    7       27     4   0    5.8141   403.0    7.597      37.237
2015    7       27     4   5    5.8223   403.0    7.610      37.273
2015    7       27     4  11    5.8303   403.0    7.624      37.311
2015    7       27     4  17    5.8384   403.1    7.638      37.350
2015    7       27     4  22    5.8465   403.1    7.652      37.392
2015    7       27     4  28    5.8546   403.1    7.667      37.435
2015    7       27     4  33    5.8625   403.1    7.681      37.479
2015    7       27     4  39    5.8705   403.2    7.696      37.526
2015    7       27     4  44    5.8784   403.2    7.711      37.573
2015    7       27     4  50    5.8863   403.3    7.726      37.622
2015    7       27     4  56    5.8940   403.3    7.741      37.672
2015    7       27     5   1    5.9016   403.3    7.755      37.722
2015    7       27     5   7    5.9091   403.4    7.770      37.773
2015    7       27     5  12    5.9166   403.4    7.785      37.825
2015    7       27     5  18    5.9239   403.5    7.799      37.877
2015    7       27     5  23    5.9311   403.5    7.812      37.930
2015    7       27     5  29    5.9382   403.6    7.826      37.982
2015    7       27     5  35    5.9452   403.6    7.839      38.034
2015    7       27     5  40    5.9520   403.7    7.851      38.085
2015    7       27     5  46    5.9588   403.7    7.863      38.134
2015    7       27     5  51    5.9653   403.8    7.875      38.182
2015    7       27     5  57    5.9718   403.8    7.886      38.229
2015    7       27     6   2    5.9782   403.9    7.897      38.274
2015    7       27     6   8    5.9845   403.9    7.907      38.318
2015    7       27     6  14    5.9906   404.0    7.917      38.361
2015    7       27     6  19    5.9967   404.0    7.926      38.401
2015    7       27     6  25    6.0027   404.0    7.935      38.440
2015    7       27     6  30    6.0086   404.1    7.943      38.478
2015    7       27     6  36    6.0143   404.1    7.951      38.514
2015    7       27     6  41    6.0201   404.2    7.959      38.549
2015    7       27     6  47    6.0257   404.2    7.966      38.582
2015    7       27     6  53    6.0313   404.3    7.973      38.614
2015    7       27     6  58    6.0368   404.3    7.980      38.645
2015    7       27     7   4    6.0422   404.3    7.986      38.674
2015    7       27     7   9    6.0476   404.4    7.992      38.702
2015    7       27     7  15    6.0530   404.4    7.997      38.730
2015    7       27     7  20    6.0582   404.5    8.003      38.756
2015    7       27     7  26    6.0635   404.5    8.008      38.781
2015    7       27     7  32    6.0687   404.5    8.013      38.805
2015    7       27     7  37    6.0739   404.6    8.018      38.828
2015    7       27     7  43    6.0791   404.6    8.022      38.851
2015    7       27     7  48    6.0842   404.7    8.026      38.872
2015    7       27     7  54    6.0893   404.7    8.031      38.893
2015    7       27     7  59    6.0944   404.7    8.035      38.914
2015    7       27     8   5    6.0995   404.8    8.039      38.933
2015    7       27     8  11    6.1046   404.8    8.042      38.953
2015    7       27     8  16    6.1096   404.8    8.046      38.971
2015    7       27     8  22    6.1147   404.9    8.050      38.989
2015    7       27     8  27    6.1197   404.9    8.053      39.007
2015    7       27     8  33    6.1247   404.9    8.056      39.024
2015    7       27     8  38    6.1297   405.0    8.060      39.041
2015    7       27     8  44    6.1347   405.0    8.063      39.058
2015    7       27     8  50    6.1398   405.0    8.066      39.074
2015    7       27     8  55    6.1448   405.1    8.069      39.090
2015    7       27     9   1    6.1498   405.1    8.073      39.106
2015    7       27     9   6    6.1548   405.2    8.076      39.122
2015    7       27     9  12    6.1599   405.2    8.079      39.138
2015    7       27     9  17    6.1649   405.2    8.082      39.153
2015    7       27     9  23    6.1700   405.3    8.085      39.169
2015    7       27     9  29    6.1751   405.3    8.088      39.184
2015    7       27     9  34    6.1802   405.4    8.092      39.200
2015    7       27     9  40    6.1854   405.4    8.095      39.216
2015    7       27     9  45    6.1905   405.4    8.098      39.231
2015    7       27     9  51    6.1957   405.5    8.102      39.247
2015    7       27     9  56    6.2010   405.5    8.105      39.264
2015    7       27    10   2    6.2063   405.6    8.109      39.280
2015    7       27    10   8    6.2116   405.6    8.113      39.297
2015    7       27    10  13    6.2170   405.7    8.116      39.314
2015    7       27    10  19    6.2224   405.7    8.121      39.332
2015    7       27    10  24    6.2279   405.8    8.125      39.350
2015    7       27    10  30    6.2334   405.8    8.129      39.369
2015    7       27    10  36    6.2390   405.9    8.134      39.388
2015    7       27    10  41    6.2447   405.9    8.139      39.408
2015    7       27    10  47    6.2505   406.0    8.144      39.429
2015    7       27    10  52    6.2563   406.1    8.150      39.450
2015    7       27    10  58    6.2623   406.1    8.155      39.473
2015    7       27    11   3    6.2683   406.2    8.162      39.496
2015    7       27    11   9    6.2743   406.2    8.168      39.521
2015    7       27    11  15    6.2804   406.3    8.175      39.546
2015    7       27    11  20    6.2866   406.4    8.182      39.571
2015    7       27    11  26    6.2928   406.4    8.190      39.599
2015    7       27    11  31    6.2992   406.5    8.198      39.628
2015    7       27    11  37    6.3055   406.6    8.207      39.658
2015    7       27    11  42    6.3119   406.7    8.216      39.690
2015    7       27    11  48    6.3183   406.8    8.225      39.724
2015    7       27    11  54    6.3247   406.8    8.235      39.759
2015    7       27    11  59    6.3312   406.9    8.245      39.795
2015    7       27    12   5    6.3376   407.0    8.255      39.833
2015    7       27    12  10    6.3439   407.1    8.266      39.871
2015    7       27    12  16    6.3502   407.2    8.276      39.912
2015    7       27    12  21    6.3565   407.3    8.287      39.953
2015    7       27    12  27    6.3627   407.4    8.299      39.995
2015    7       27    12  33    6.3687   407.5    8.310      40.037
2015    7       27    12  38    6.3747   407.6    8.321      40.081
2015    7       27    12  44    6.3806   407.7    8.332      40.126
2015    7       27    12  49    6.3864   407.8    8.344      40.170
2015    7       27    12  55    6.3920   407.9    8.355      40.215
2015    7       27    13   1    6.3975   408.0    8.367      40.261
2015    7       27    13   6    6.4028   408.1    8.378      40.306
2015    7       27    13  12    6.4080   408.2    8.389      40.352
2015    7       27    13  17    6.4130   408.4    8.400      40.397
2015    7       27    13  23    6.4180   408.5    8.411      40.443
2015    7       27    13  28    6.4227   408.6    8.422      40.488
2015    7       27    13  34    6.4273   408.7    8.432      40.532
2015    7       27    13  39    6.4318   408.8    8.442      40.576
2015    7       27    13  45    6.4361   408.9    8.452      40.619
2015    7       27    13  51    6.4403   409.1    8.462      40.660
2015    7       27    13  56    6.4444   409.2    8.471      40.701
2015    7       27    14   2    6.4484   409.3    8.480      40.741
2015    7       27    14   7    6.4523   409.4    8.488      40.781
2015    7       27    14  13    6.4560   409.5    8.496      40.818
2015    7       27    14  19    6.4597   409.6    8.504      40.855
2015    7       27    14  24    6.4633   409.7    8.510      40.889
2015    7       27    14  30    6.4668   409.9    8.517      40.922
2015    7       27    14  35    6.4703   410.0    8.523      40.954
2015    7       27    14  41    6.4737   410.1    8.529      40.984
2015    7       27    14  46    6.4770   410.2    8.534      41.012
2015    7       27    14  52    6.4803   410.3    8.538      41.039
2015    7       27    14  57    6.4835   410.4    8.543      41.065
2015    7       27    15   3    6.4867   410.5    8.546      41.089
2015    7       27    15   9    6.4899   410.6    8.550      41.112
2015    7       27    15  14    6.4930   410.7    8.553      41.133
2015    7       27    15  20    6.4961   410.8    8.555      41.153
2015    7       27    15  25    6.4993   410.9    8.558      41.172
2015    7       27    15  31    6.5023   411.0    8.559      41.189
2015    7       27    15  37    6.5054   411.1    8.561      41.205
2015    7       27    15  42    6.5084   411.2    8.562      41.219
2015    7       27    15  48    6.5115   411.3    8.563      41.233
2015    7       27    15  53    6.5145   411.4    8.564      41.246
2015    7       27    15  59    6.5176   411.5    8.564      41.257
2015    7       27    16   4    6.5206   411.6    8.564      41.267
2015    7       27    16  10    6.5236   411.7    8.564      41.277
2015    7       27    16  15    6.5266   411.7    8.563      41.285
2015    7       27    16  21    6.5296   411.8    8.563      41.293
2015    7       27    16  27    6.5326   411.9    8.562      41.299
2015    7       27    16  32    6.5356   412.0    8.561      41.305
2015    7       27    16  38    6.5386   412.1    8.559      41.310
2015    7       27    16  43    6.5417   412.2    8.558      41.315
2015    7       27    16  49    6.5447   412.3    8.556      41.319
2015    7       27    16  55    6.5477   412.4    8.555      41.322
2015    7       27    17   0    6.5507   412.5    8.553      41.324
2015    7       27    17   6    6.5538   412.5    8.551      41.326
2015    7       27    17  11    6.5568   412.6    8.548      41.328
2015    7       27    17  17    6.5599   412.7    8.546      41.329
2015    7       27    17  22    6.5630   412.8    8.544      41.330
2015    7       27    17  28    6.5661   412.9    8.542      41.331
2015    7       27    17  34    6.5692   413.0    8.539      41.331
2015    7       27    17  39    6.5724   413.1    8.537      41.331
2015    7       27    17  45    6.5755   413.2    8.535      41.331
2015    7       27    17  50    6.5787   413.3    8.532      41.331
2015    7       27    17  56    6.5820   413.3    8.530      41.331
2015    7       27    18   1    6.5852   413.4    8.528      41.331
2015    7       27    18   7    6.5885   413.5    8.525      41.331
2015    7       27    18  13    6.5918   413.6    8.523      41.331
2015    7       27    18  18    6.5951   413.7    8.521      41.331
2015    7       27    18  24    6.5985   413.8    8.520      41.332
2015    7       27    18  29    6.6019   413.9    8.518      41.333
2015    7       27    18  35    6.6054   414.0    8.516      41.334
2015    7       27    18  40    6.6089   414.1    8.515      41.336
2015    7       27    18  46    6.6124   414.2    8.514      41.338
2015    7       27    18  52    6.6160   414.3    8.512      41.340
2015    7       27    18  57    6.6197   414.4    8.512      41.343
2015    7       27    19   3    6.6234   414.5    8.511      41.347
2015    7       27    19   8    6.6271   414.6    8.511      41.351
2015    7       27    19  14    6.6309   414.7    8.510      41.356
2015    7       27    19  20    6.6347   414.8    8.511      41.362
2015    7       27    19  25    6.6385   414.9    8.511      41.368
2015    7       27    19  31    6.6424   415.0    8.512      41.376
2015    7       27    19  36    6.6463   415.1    8.513      41.383
2015    7       27    19  42    6.6501   415.2    8.514      41.392
2015    7       27    19  47    6.6540   415.3    8.516      41.403
2015    7       27    19  53    6.6579   415.4    8.518      41.413
2015    7       27    19  59    6.6617   415.5    8.520      41.425
2015    7       27    20   4    6.6655   415.6    8.523      41.438
2015    7       27    20  10    6.6693   415.7    8.527      41.453
2015    7       27    20  15    6.6731   415.9    8.531      41.468
2015    7       27    20  21    6.6768   416.0    8.535      41.486
2015    7       27    20  26    6.6804   416.1    8.539      41.504
2015    7       27    20  32    6.6840   416.2    8.544      41.524
2015    7       27    20  38    6.6875   416.3    8.550      41.545
2015    7       27    20  43    6.6910   416.5    8.555      41.567
2015    7       27    20  49    6.6945   416.6    8.561      41.590
2015    7       27    20  54    6.6979   416.7    8.567      41.614
2015    7       27    21   0    6.7012   416.9    8.573      41.638
2015    7       27    21   5    6.7045   417.0    8.579      41.663
2015    7       27    21  11    6.7077   417.1    8.586      41.688
2015    7       27    21  17    6.7109   417.3    8.593      41.715
2015    7       27    21  22    6.7141   417.4    8.600      41.742
2015    7       27    21  28    6.7172   417.5    8.607      41.769
2015    7       27    21  33    6.7204   417.7    8.614      41.796
2015    7       27    21  39    6.7235   417.8    8.621      41.824
2015    7       27    21  44    6.7265   417.9    8.628      41.852
2015    7       27    21  50    6.7296   418.1    8.635      41.880
2015    7       27    21  56    6.7326   418.2    8.642      41.907
2015    7       27    22   1    6.7356   418.3    8.650      41.935
2015    7       27    22   7    6.7386   418.5    8.658      41.964
2015    7       27    22  12    6.7415   418.6    8.666      41.994
2015    7       27    22  18    6.7445   418.8    8.674      42.024
2015    7       27    22  23    6.7473   418.9    8.682      42.055
2015    7       27    22  29    6.7502   419.0    8.690      42.087
2015    7       27    22  35    6.7530   419.2    8.697      42.119
2015    7       27    22  40    6.7558   419.3    8.705      42.152
2015    7       27    22  46    6.7585   419.5    8.713      42.184
2015    7       27    22  51    6.7612   419.6    8.720      42.217
2015    7       27    22  57    6.7638   419.8    8.727      42.249
2015    7       27    23   2    6.7664   419.9    8.734      42.280
2015    7       27    23   8    6.7689   420.1    8.740      42.311
2015    7       27    23  14    6.7713   420.2    8.745      42.340
2015    7       27    23  19    6.7737   420.4    8.751      42.369
2015    7       27    23  25    6.7760   420.5    8.755      42.398
2015    7       27    23  30    6.7783   420.7    8.759      42.424
2015    7       27    23  36    6.7805   420.8    8.763      42.448
2015    7       27    23  41    6.7826   421.0    8.765      42.470
2015    7       27    23  47    6.7847   421.1    8.768      42.491
2015    7       27    23  53    6.7868   421.3    8.769      42.509
2015    7       27    23  58    6.7888   421.4    8.770      42.525
2015    7       28     0   4    6.7907   421.6    8.770      42.540
2015    7       28     0   9    6.7927   421.7    8.770      42.553
2015    7       28     0  15    6.7946   421.8    8.770      42.563
2015    7       28     0  20    6.7965   422.0    8.769      42.572
2015    7       28     0  26    6.7984   422.1    8.767      42.580
2015    7       28     0  32    6.8002   422.3    8.765      42.586
2015    7       28     0  37    6.8021   422.4    8.763      42.590
2015    7       28     0  43    6.8039   422.5    8.760      42.593
2015    7       28     0  48    6.8057   422.7    8.757      42.594
2015    7       28     0  54    6.8076   422.8    8.753      42.594
2015    7       28     0  59    6.8094   422.9    8.750      42.593
2015    7       28     1   5    6.8112   423.1    8.745      42.590
2015    7       28     1  11    6.8130   423.2    8.741      42.587
2015    7       28     1  16    6.8148   423.3    8.737      42.583
2015    7       28     1  22    6.8166   423.5    8.732      42.577
2015    7       28     1  27    6.8185   423.6    8.727      42.571
2015    7       28     1  33    6.8203   423.7    8.721      42.563
2015    7       28     1  39    6.8221   423.9    8.716      42.555
2015    7       28     1  44    6.8239   424.0    8.710      42.546
2015    7       28     1  50    6.8257   424.1    8.705      42.537
2015    7       28     1  55    6.8275   424.3    8.699      42.527
2015    7       28     2   1    6.8293   424.4    8.693      42.516
2015    7       28     2   6    6.8312   424.5    8.687      42.505
2015    7       28     2  12    6.8330   424.6    8.681      42.493
2015    7       28     2  18    6.8348   424.8    8.674      42.481
2015    7       28     2  23    6.8366   424.9    8.668      42.469
2015    7       28     2  29    6.8385   425.0    8.662      42.456
2015    7       28     2  34    6.8403   425.2    8.655      42.443
2015    7       28     2  40    6.8422   425.3    8.649      42.430
2015    7       28     2  45    6.8440   425.4    8.643      42.417
2015    7       28     2  51    6.8459   425.5    8.637      42.404
2015    7       28     2  57    6.8478   425.7    8.630      42.390
2015    7       28     3   2    6.8496   425.8    8.624      42.377
2015    7       28     3   8    6.8515   425.9    8.618      42.363
2015    7       28     3  13    6.8534   426.0    8.612      42.350
2015    7       28     3  19    6.8553   426.2    8.606      42.337
2015    7       28     3  24    6.8573   426.3    8.600      42.324
2015    7       28     3  30    6.8592   426.4    8.594      42.312
2015    7       28     3  36    6.8611   426.6    8.589      42.299
2015    7       28     3  41    6.8631   426.7    8.583      42.287
2015    7       28     3  47    6.8650   426.8    8.578      42.275
2015    7       28     3  52    6.8670   426.9    8.573      42.264
2015    7       28     3  58    6.8690   427.1    8.568      42.253
2015    7       28     4   3    6.8709   427.2    8.564      42.242
2015    7       28     4   9    6.8730   427.3    8.559      42.233
2015    7       28     4  15    6.8750   427.4    8.555      42.223
2015    7       28     4  20    6.8770   427.6    8.552      42.215
2015    7       28     4  26    6.8791   427.7    8.548      42.206
2015    7       28     4  31    6.8811   427.8    8.545      42.199
2015    7       28     4  37    6.8833   428.0    8.542      42.193
2015    7       28     4  42    6.8854   428.1    8.540      42.187
2015    7       28     4  48    6.8876   428.2    8.538      42.183
2015    7       28     4  54    6.8898   428.3    8.537      42.180
2015    7       28     4  59    6.8920   428.5    8.536      42.178
2015    7       28     5   5    6.8942   428.6    8.535      42.177
2015    7       28     5  10    6.8965   428.7    8.536      42.177
2015    7       28     5  16    6.8988   428.8    8.536      42.178
2015    7       28     5  21    6.9010   429.0    8.538      42.182
2015    7       28     5  27    6.9033   429.1    8.540      42.188
2015    7       28     5  33    6.9056   429.2    8.542      42.196
2015    7       28     5  38    6.9079   429.4    8.545      42.206
2015    7       28     5  44    6.9102   429.5    8.549      42.218
2015    7       28     5  49    6.9125   429.6    8.553      42.231
2015    7       28     5  55    6.9148   429.8    8.557      42.247
2015    7       28     6   0    6.9170   429.9    8.561      42.264
2015    7       28     6   6    6.9193   430.0    8.566      42.282
2015    7       28     6  12    6.9215   430.2    8.571      42.301
2015    7       28     6  17    6.9236   430.3    8.577      42.321
2015    7       28     6  23    6.9257   430.5    8.582      42.342
2015    7       28     6  28    6.9279   430.6    8.587      42.363
2015    7       28     6  34    6.9300   430.8    8.593      42.386
2015    7       28     6  39    6.9321   430.9    8.598      42.409
2015    7       28     6  45    6.9342   431.1    8.603      42.431
2015    7       28     6  51    6.9362   431.2    8.609      42.453
2015    7       28     6  56    6.9383   431.3    8.614      42.473
2015    7       28     7   2    6.9404   431.5    8.620      42.494
2015    7       28     7   7    6.9425   431.6    8.625      42.515
2015    7       28     7  13    6.9447   431.8    8.630      42.537
2015    7       28     7  18    6.9468   431.9    8.635      42.559
2015    7       28     7  24    6.9490   432.1    8.640      42.582
2015    7       28     7  30    6.9513   432.2    8.644      42.604
2015    7       28     7  35    6.9535   432.4    8.648      42.627
2015    7       28     7  41    6.9558   432.6    8.653      42.649
2015    7       28     7  46    6.9581   432.7    8.656      42.672
2015    7       28     7  52    6.9604   432.9    8.660      42.695
2015    7       28     7  57    6.9627   433.0    8.663      42.717
2015    7       28     8   3    6.9651   433.2    8.665      42.739
2015    7       28     8   9    6.9674   433.4    8.667      42.760
2015    7       28     8  14    6.9697   433.5    8.669      42.781
2015    7       28     8  20    6.9720   433.7    8.670      42.802
2015    7       28     8  25    6.9743   433.9    8.670      42.822
2015    7       28     8  31    6.9766   434.0    8.670      42.841
2015    7       28     8  36    6.9787   434.2    8.669      42.857
2015    7       28     8  42    6.9809   434.4    8.668      42.873
2015    7       28     8  48    6.9831   434.5    8.666      42.886
2015    7       28     8  53    6.9852   434.7    8.664      42.898
2015    7       28     8  59    6.9872   434.8    8.661      42.909
2015    7       28     9   4    6.9892   435.0    8.658      42.918
2015    7       28     9  10    6.9912   435.2    8.654      42.926
2015    7       28     9  15    6.9932   435.3    8.650      42.932
2015    7       28     9  21    6.9951   435.5    8.646      42.937
2015    7       28     9  27    6.9970   435.7    8.641      42.940
2015    7       28     9  32    6.9988   435.8    8.636      42.942
2015    7       28     9  38    7.0007   436.0    8.630      42.943
2015    7       28     9  43    7.0025   436.2    8.624      42.942
2015    7       28     9  49    7.0043   436.3    8.618      42.941
2015    7       28     9  54    7.0060   436.5    8.612      42.938
2015    7       28    10   0    7.0078   436.6    8.605      42.934
2015    7       28    10   6    7.0095   436.8    8.598      42.930
2015    7       28    10  11    7.0112   437.0    8.591      42.925
2015    7       28    10  17    7.0129   437.1    8.584      42.918
2015    7       28    10  22    7.0146   437.3    8.576      42.911
2015    7       28    10  28    7.0162   437.4    8.568      42.903
2015    7       28    10  34    7.0178   437.6    8.561      42.895
2015    7       28    10  39    7.0194   437.8    8.553      42.886
2015    7       28    10  45    7.0210   437.9    8.544      42.876
2015    7       28    10  50    7.0226   438.1    8.536      42.865
2015    7       28    10  56    7.0241   438.2    8.528      42.854
2015    7       28    11   1    7.0256   438.4    8.520      42.843
2015    7       28    11   7    7.0271   438.6    8.511      42.831
2015    7       28    11  12    7.0286   438.7    8.503      42.819
2015    7       28    11  18    7.0301   438.9    8.494      42.807
2015    7       28    11  24    7.0316   439.0    8.485      42.794
2015    7       28    11  29    7.0330   439.2    8.477      42.781
2015    7       28    11  35    7.0344   439.3    8.468      42.768
2015    7       28    11  40    7.0358   439.5    8.460      42.754
2015    7       28    11  46    7.0373   439.7    8.451      42.741
2015    7       28    11  52    7.0386   439.8    8.443      42.727
2015    7       28    11  57    7.0400   440.0    8.434      42.714
2015    7       28    12   3    7.0414   440.1    8.426      42.700
2015    7       28    12   8    7.0428   440.3    8.417      42.686
2015    7       28    12  14    7.0441   440.4    8.409      42.673
2015    7       28    12  19    7.0455   440.6    8.401      42.660
2015    7       28    12  25    7.0468   440.8    8.393      42.646
2015    7       28    12  30    7.0481   440.9    8.385      42.633
2015    7       28    12  36    7.0495   441.1    8.378      42.621
2015    7       28    12  42    7.0508   441.2    8.370      42.608
2015    7       28    12  47    7.0522   441.4    8.363      42.596
2015    7       28    12  53    7.0535   441.5    8.356      42.584
2015    7       28    12  58    7.0549   441.7    8.349      42.573
2015    7       28    13   4    7.0562   441.8    8.342      42.562
2015    7       28    13   9    7.0576   442.0    8.336      42.551
2015    7       28    13  15    7.0589   442.1    8.330      42.541
2015    7       28    13  21    7.0603   442.3    8.324      42.532
2015    7       28    13  26    7.0617   442.4    8.319      42.523
2015    7       28    13  32    7.0632   442.6    8.313      42.515
2015    7       28    13  37    7.0647   442.7    8.309      42.508
2015    7       28    13  43    7.0662   442.9    8.305      42.502
2015    7       28    13  48    7.0677   443.0    8.301      42.497
2015    7       28    13  54    7.0693   443.2    8.298      42.494
2015    7       28    14   0    7.0710   443.3    8.295      42.491
2015    7       28    14   5    7.0727   443.4    8.293      42.490
2015    7       28    14  11    7.0745   443.6    8.291      42.489
2015    7       28    14  16    7.0764   443.7    8.291      42.491
2015    7       28    14  22    7.0783   443.9    8.290      42.495
2015    7       28    14  28    7.0803   444.0    8.290      42.503
2015    7       28    14  33    7.0824   444.2    8.291      42.512
2015    7       28    14  39    7.0846   444.3    8.292      42.524
2015    7       28    14  44    7.0868   444.5    8.293      42.539
2015    7       28    14  50    7.0891   444.7    8.295      42.556
2015    7       28    14  55    7.0914   444.8    8.297      42.574
2015    7       28    15   1    7.0938   445.0    8.299      42.596
2015    7       28    15   7    7.0962   445.2    8.301      42.619
2015    7       28    15  12    7.0987   445.3    8.303      42.645
2015    7       28    15  18    7.1011   445.5    8.306      42.673
2015    7       28    15  23    7.1036   445.7    8.308      42.703
2015    7       28    15  29    7.1060   445.9    8.310      42.737
2015    7       28    15  34    7.1085   446.0    8.311      42.773
2015    7       28    15  40    7.1109   446.2    8.313      42.810
2015    7       28    15  46    7.1133   446.4    8.313      42.847
2015    7       28    15  51    7.1157   446.6    8.314      42.885
2015    7       28    15  57    7.1180   446.8    8.314      42.924
2015    7       28    16   2    7.1203   446.9    8.314      42.962
2015    7       28    16   8    7.1225   447.1    8.313      43.001
2015    7       28    16  13    7.1247   447.3    8.311      43.039
2015    7       28    16  19    7.1269   447.5    8.309      43.078
2015    7       28    16  25    7.1289   447.7    8.307      43.115
2015    7       28    16  30    7.1310   447.9    8.304      43.153
2015    7       28    16  36    7.1330   448.1    8.301      43.188
2015    7       28    16  41    7.1350   448.2    8.297      43.224
2015    7       28    16  47    7.1369   448.4    8.293      43.257
2015    7       28    16  52    7.1389   448.6    8.288      43.289
2015    7       28    16  58    7.1407   448.8    8.283      43.319
2015    7       28    17   4    7.1426   449.0    8.278      43.349
2015    7       28    17   9    7.1444   449.2    8.273      43.377
2015    7       28    17  15    7.1462   449.4    8.267      43.403
2015    7       28    17  20    7.1479   449.6    8.260      43.429
2015    7       28    17  26    7.1497   449.7    8.254      43.453
2015    7       28    17  31    7.1514   449.9    8.247      43.476
2015    7       28    17  37    7.1531   450.1    8.240      43.498
2015    7       28    17  43    7.1548   450.3    8.233      43.519
2015    7       28    17  48    7.1564   450.5    8.225      43.539
2015    7       28    17  54    7.1580   450.7    8.217      43.557
2015    7       28    17  59    7.1596   450.9    8.209      43.575
2015    7       28    18   5    7.1612   451.1    8.201      43.592
2015    7       28    18  10    7.1627   451.3    8.192      43.608
2015    7       28    18  16    7.1642   451.5    8.183      43.624
2015    7       28    18  22    7.1656   451.7    8.174      43.638
2015    7       28    18  27    7.1670   451.9    8.165      43.652
2015    7       28    18  33    7.1684   452.1    8.156      43.665
2015    7       28    18  38    7.1698   452.3    8.147      43.677
2015    7       28    18  44    7.1711   452.5    8.137      43.689
2015    7       28    18  49    7.1723   452.7    8.127      43.700
2015    7       28    18  55    7.1736   452.9    8.117      43.711
2015    7       28    19   1    7.1748   453.1    8.108      43.721
2015    7       28    19   6    7.1759   453.3    8.098      43.730
2015    7       28    19  12    7.1771   453.5    8.088      43.740
2015    7       28    19  17    7.1782   453.7    8.078      43.749
2015    7       28    19  23    7.1792   453.9    8.067      43.758
2015    7       28    19  28    7.1803   454.1    8.057      43.767
2015    7       28    19  34    7.1813   454.3    8.047      43.775
2015    7       28    19  40    7.1822   454.5    8.037      43.783
2015    7       28    19  45    7.1832   454.7    8.026      43.791
2015    7       28    19  51    7.1841   454.9    8.016      43.799
2015    7       28    19  56    7.1850   455.1    8.006      43.807
2015    7       28    20   2    7.1859   455.3    7.995      43.815
2015    7       28    20   7    7.1867   455.5    7.985      43.822
2015    7       28    20  13    7.1876   455.7    7.975      43.830
2015    7       28    20  19    7.1884   455.9    7.964      43.838
2015    7       28    20  24    7.1892   456.1    7.954      43.846
2015    7       28    20  30    7.1899   456.4    7.944      43.853
2015    7       28    20  35    7.1907   456.6    7.933      43.861
2015    7       28    20  41    7.1914   456.8    7.923      43.869
2015    7       28    20  46    7.1922   457.0    7.913      43.877
2015    7       28    20  52    7.1929   457.2    7.903      43.886
2015    7       28    20  58    7.1936   457.4    7.894      43.894
2015    7       28    21   3    7.1943   457.6    7.884      43.903
2015    7       28    21   9    7.1951   457.8    7.875      43.912
2015    7       28    21  14    7.1958   458.0    7.865      43.922
2015    7       28    21  20    7.1965   458.2    7.856      43.933
2015    7       28    21  25    7.1972   458.4    7.847      43.944
2015    7       28    21  31    7.1979   458.6    7.838      43.955
2015    7       28    21  37    7.1987   458.8    7.830      43.968
2015    7       28    21  42    7.1994   459.0    7.821      43.981
2015    7       28    21  48    7.2001   459.2    7.813      43.995
2015    7       28    21  53    7.2008   459.4    7.806      44.010
2015    7       28    21  59    7.2016   459.6    7.798      44.026
2015    7       28    22   4    7.2023   459.9    7.791      44.043
2015    7       28    22  10    7.2031   460.1    7.784      44.061
2015    7       28    22  16    7.2038   460.3    7.777      44.081
2015    7       28    22  21    7.2045   460.5    7.770      44.102
2015    7       28    22  27    7.2053   460.7    7.764      44.124
2015    7       28    22  32    7.2060   460.9    7.758      44.149
2015    7       28    22  38    7.2067   461.1    7.751      44.177
2015    7       28    22  43    7.2074   461.3    7.745      44.206
2015    7       28    22  49    7.2081   461.6    7.739      44.238
2015    7       28    22  55    7.2088   461.8    7.733      44.271
2015    7       28    23   0    7.2094   462.0    7.727      44.306
2015    7       28    23   6    7.2100   462.2    7.721      44.343
2015    7       28    23  11    7.2106   462.4    7.715      44.381
2015    7       28    23  17    7.2112   462.6    7.709      44.420
2015    7       28    23  22    7.2118   462.8    7.702      44.461
2015    7       28    23  28    7.2123   463.0    7.696      44.502
2015    7       28    23  34    7.2128   463.3    7.689      44.545
2015    7       28    23  39    7.2133   463.5    7.682      44.588
2015    7       28    23  45    7.2137   463.7    7.676      44.633
2015    7       28    23  50    7.2142   463.9    7.669      44.677
2015    7       28    23  56    7.2146   464.1    7.662      44.722
2015    7       29     0   1    7.2150   464.3    7.655      44.767
2015    7       29     0   7    7.2154   464.5    7.648      44.811
2015    7       29     0  13    7.2159   464.7    7.641      44.855
2015    7       29     0  18    7.2163   464.9    7.634      44.900
2015    7       29     0  24    7.2167   465.1    7.627      44.945
2015    7       29     0  29    7.2172   465.4    7.620      44.990
2015    7       29     0  35    7.2176   465.6    7.613      45.036
2015    7       29     0  41    7.2181   465.8    7.606      45.081
2015    7       29     0  46    7.2185   466.0    7.599      45.127
2015    7       29     0  52    7.2190   466.2    7.591      45.173
2015    7       29     0  57    7.2194   466.4    7.584      45.218
2015    7       29     1   3    7.2198   466.6    7.576      45.264
2015    7       29     1   8    7.2202   466.8    7.569      45.309
2015    7       29     1  14    7.2206   467.1    7.561      45.354
2015    7       29     1  19    7.2209   467.3    7.553      45.398
2015    7       29     1  25    7.2212   467.5    7.545      45.443
2015    7       29     1  31    7.2214   467.7    7.536      45.486
2015    7       29     1  36    7.2216   468.0    7.528      45.530
2015    7       29     1  42    7.2218   468.2    7.519      45.572
2015    7       29     1  47    7.2218   468.4    7.510      45.614
2015    7       29     1  53    7.2218   468.6    7.501      45.655
2015    7       29     1  58    7.2218   468.9    7.492      45.695
2015    7       29     2   4    7.2217   469.1    7.483      45.735
2015    7       29     2  10    7.2215   469.3    7.473      45.773
2015    7       29     2  15    7.2213   469.5    7.463      45.811
2015    7       29     2  21    7.2210   469.8    7.453      45.849
2015    7       29     2  26    7.2207   470.0    7.443      45.885
2015    7       29     2  32    7.2203   470.2    7.433      45.921
2015    7       29     2  37    7.2199   470.5    7.423      45.957
2015    7       29     2  43    7.2193   470.7    7.413      45.992
2015    7       29     2  49    7.2188   470.9    7.402      46.026
2015    7       29     2  54    7.2182   471.2    7.392      46.060
2015    7       29     3   0    7.2175   471.4    7.381      46.093
2015    7       29     3   5    7.2168   471.6    7.370      46.126
2015    7       29     3  11    7.2160   471.9    7.359      46.158
2015    7       29     3  16    7.2152   472.1    7.349      46.190
2015    7       29     3  22    7.2143   472.3    7.338      46.221
2015    7       29     3  28    7.2134   472.6    7.327      46.253
2015    7       29     3  33    7.2125   472.8    7.316      46.284
2015    7       29     3  39    7.2115   473.0    7.304      46.314
2015    7       29     3  44    7.2104   473.3    7.293      46.344
2015    7       29     3  50    7.2093   473.5    7.282      46.374
2015    7       29     3  55    7.2082   473.7    7.271      46.404
2015    7       29     4   1    7.2070   474.0    7.260      46.433
2015    7       29     4   7    7.2059   474.2    7.248      46.462
2015    7       29     4  12    7.2046   474.4    7.237      46.491
2015    7       29     4  18    7.2034   474.6    7.226      46.519
2015    7       29     4  23    7.2021   474.9    7.215      46.547
2015    7       29     4  29    7.2008   475.1    7.204      46.575
2015    7       29     4  34    7.1995   475.3    7.192      46.603
2015    7       29     4  40    7.1982   475.6    7.181      46.631
2015    7       29     4  46    7.1968   475.8    7.170      46.659
2015    7       29     4  51    7.1955   476.0    7.159      46.687
2015    7       29     4  57    7.1941   476.3    7.148      46.715
2015    7       29     5   2    7.1927   476.5    7.137      46.743
2015    7       29     5   8    7.1913   476.7    7.126      46.771
2015    7       29     5  13    7.1899   476.9    7.115      46.799
2015    7       29     5  19    7.1885   477.2    7.104      46.828
2015    7       29     5  25    7.1870   477.4    7.093      46.856
2015    7       29     5  30    7.1856   477.6    7.082      46.885
2015    7       29     5  36    7.1841   477.9    7.072      46.914
2015    7       29     5  41    7.1826   478.1    7.061      46.943
2015    7       29     5  47    7.1811   478.3    7.050      46.972
2015    7       29     5  52    7.1796   478.6    7.039      47.001
2015    7       29     5  58    7.1781   478.8    7.029      47.029
2015    7       29     6   4    7.1765   479.0    7.018      47.059
2015    7       29     6   9    7.1750   479.2    7.008      47.087
2015    7       29     6  15    7.1734   479.5    6.997      47.117
2015    7       29     6  20    7.1718   479.7    6.987      47.145
2015    7       29     6  26    7.1702   479.9    6.977      47.175
2015    7       29     6  31    7.1686   480.2    6.966      47.204
2015    7       29     6  37    7.1670   480.4    6.956      47.233
2015    7       29     6  43    7.1654   480.6    6.946      47.263
2015    7       29     6  48    7.1637   480.8    6.936      47.293
2015    7       29     6  54    7.1621   481.1    6.926      47.323
2015    7       29     6  59    7.1604   481.3    6.916      47.354
2015    7       29     7   5    7.1588   481.5    6.907      47.384
2015    7       29     7  11    7.1572   481.7    6.897      47.416
2015    7       29     7  16    7.1556   481.9    6.888      47.447
2015    7       29     7  22    7.1540   482.2    6.878      47.480
2015    7       29     7  27    7.1524   482.4    6.869      47.513
2015    7       29     7  33    7.1508   482.6    6.860      47.548
2015    7       29     7  38    7.1492   482.8    6.851      47.582
2015    7       29     7  44    7.1476   483.0    6.842      47.617
2015    7       29     7  50    7.1460   483.2    6.833      47.653
2015    7       29     7  55    7.1444   483.5    6.824      47.689
2015    7       29     8   1    7.1428   483.7    6.815      47.726
2015    7       29     8   6    7.1411   483.9    6.806      47.763
2015    7       29     8  12    7.1395   484.1    6.797      47.800
2015    7       29     8  17    7.1377   484.3    6.788      47.837
2015    7       29     8  23    7.1360   484.5    6.779      47.874
2015    7       29     8  29    7.1343   484.8    6.770      47.912
2015    7       29     8  34    7.1325   485.0    6.761      47.949
2015    7       29     8  40    7.1307   485.2    6.751      47.987
2015    7       29     8  45    7.1288   485.4    6.742      48.024
2015    7       29     8  51    7.1269   485.6    6.733      48.061
2015    7       29     8  56    7.1250   485.8    6.723      48.097
2015    7       29     9   2    7.1230   486.1    6.714      48.133
2015    7       29     9   7    7.1210   486.3    6.704      48.169
2015    7       29     9  13    7.1189   486.5    6.695      48.205
2015    7       29     9  19    7.1167   486.7    6.685      48.240
2015    7       29     9  24    7.1145   486.9    6.676      48.275
2015    7       29     9  30    7.1123   487.1    6.666      48.309
2015    7       29     9  35    7.1100   487.4    6.656      48.342
2015    7       29     9  41    7.1077   487.6    6.646      48.376
2015    7       29     9  46    7.1054   487.8    6.636      48.408
2015    7       29     9  52    7.1030   488.0    6.627      48.441
2015    7       29     9  58    7.1005   488.2    6.617      48.473
2015    7       29    10   3    7.0981   488.4    6.607      48.504
2015    7       29    10   9    7.0955   488.6    6.597      48.535
2015    7       29    10  14    7.0930   488.9    6.587      48.566
2015    7       29    10  20    7.0904   489.1    6.577      48.597
2015    7       29    10  25    7.0878   489.3    6.568      48.627
2015    7       29    10  31    7.0851   489.5    6.558      48.657
2015    7       29    10  37    7.0825   489.7    6.548      48.686
2015    7       29    10  42    7.0797   489.9    6.538      48.715
2015    7       29    10  48    7.0770   490.1    6.529      48.744
2015    7       29    10  53    7.0742   490.3    6.519      48.773
2015    7       29    10  59    7.0714   490.5    6.510      48.802
2015    7       29    11   4    7.0686   490.7    6.500      48.830
2015    7       29    11  10    7.0658   490.9    6.491      48.858
2015    7       29    11  16    7.0629   491.1    6.481      48.886
2015    7       29    11  21    7.0601   491.4    6.472      48.913
2015    7       29    11  27    7.0572   491.6    6.463      48.941
2015    7       29    11  32    7.0543   491.8    6.454      48.968
2015    7       29    11  38    7.0514   492.0    6.445      48.996
2015    7       29    11  43    7.0485   492.2    6.437      49.023
2015    7       29    11  49    7.0455   492.4    6.428      49.051
2015    7       29    11  55    7.0426   492.5    6.420      49.079
2015    7       29    12   0    7.0397   492.7    6.411      49.108
2015    7       29    12   6    7.0367   492.9    6.403      49.136
2015    7       29    12  11    7.0338   493.1    6.396      49.165
2015    7       29    12  17    7.0309   493.3    6.388      49.194
2015    7       29    12  22    7.0279   493.5    6.381      49.224
2015    7       29    12  28    7.0251   493.7    6.373      49.254
2015    7       29    12  34    7.0221   493.9    6.366      49.285
2015    7       29    12  39    7.0193   494.1    6.360      49.316
2015    7       29    12  45    7.0164   494.3    6.353      49.347
2015    7       29    12  50    7.0136   494.5    6.347      49.380
2015    7       29    12  56    7.0108   494.7    6.341      49.414
2015    7       29    13   1    7.0080   494.9    6.336      49.449
2015    7       29    13   7    7.0052   495.1    6.330      49.485
2015    7       29    13  13    7.0025   495.3    6.325      49.521
2015    7       29    13  18    6.9997   495.5    6.320      49.559
2015    7       29    13  24    6.9970   495.7    6.315      49.597
2015    7       29    13  29    6.9943   495.9    6.311      49.637
2015    7       29    13  35    6.9916   496.1    6.306      49.676
2015    7       29    13  40    6.9889   496.3    6.302      49.717
2015    7       29    13  46    6.9861   496.5    6.298      49.757
2015    7       29    13  52    6.9834   496.7    6.294      49.798
2015    7       29    13  57    6.9806   496.9    6.290      49.839
2015    7       29    14   3    6.9779   497.1    6.286      49.881
2015    7       29    14   8    6.9751   497.4    6.282      49.924
2015    7       29    14  14    6.9723   497.6    6.278      49.967
2015    7       29    14  19    6.9695   497.8    6.274      50.011
2015    7       29    14  25    6.9666   498.0    6.269      50.055
2015    7       29    14  31    6.9637   498.2    6.265      50.099
2015    7       29    14  36    6.9608   498.4    6.261      50.143
2015    7       29    14  42    6.9579   498.6    6.256      50.187
2015    7       29    14  47    6.9549   498.8    6.252      50.230
2015    7       29    14  53    6.9519   499.1    6.247      50.273
2015    7       29    14  59    6.9488   499.3    6.241      50.316
2015    7       29    15   4    6.9458   499.5    6.236      50.357
2015    7       29    15  10    6.9426   499.7    6.230      50.399
2015    7       29    15  15    6.9395   499.9    6.224      50.440
2015    7       29    15  21    6.9363   500.1    6.218      50.479
2015    7       29    15  26    6.9331   500.3    6.212      50.517
2015    7       29    15  32    6.9299   500.5    6.205      50.553
2015    7       29    15  37    6.9267   500.8    6.198      50.589
2015    7       29    15  43    6.9234   501.0    6.191      50.622
2015    7       29    15  49    6.9201   501.2    6.184      50.655
2015    7       29    15  54    6.9168   501.4    6.176      50.686
2015    7       29    16   0    6.9135   501.6    6.169      50.716
2015    7       29    16   5    6.9102   501.8    6.161      50.745
2015    7       29    16  11    6.9069   502.0    6.153      50.773
2015    7       29    16  16    6.9036   502.2    6.145      50.800
2015    7       29    16  22    6.9003   502.4    6.137      50.826
2015    7       29    16  28    6.8970   502.6    6.129      50.851
2015    7       29    16  33    6.8937   502.8    6.121      50.875
2015    7       29    16  39    6.8905   503.0    6.112      50.899
2015    7       29    16  44    6.8872   503.2    6.104      50.921
2015    7       29    16  50    6.8839   503.4    6.096      50.943
2015    7       29    16  55    6.8807   503.6    6.087      50.964
2015    7       29    17   1    6.8774   503.8    6.078      50.985
2015    7       29    17   7    6.8742   504.0    6.070      51.005
2015    7       29    17  12    6.8709   504.2    6.061      51.024
2015    7       29    17  18    6.8677   504.4    6.053      51.043
2015    7       29    17  23    6.8644   504.6    6.044      51.061
2015    7       29    17  29    6.8611   504.8    6.035      51.079
2015    7       29    17  34    6.8578   505.0    6.027      51.096
2015    7       29    17  40    6.8545   505.2    6.018      51.113
2015    7       29    17  46    6.8512   505.4    6.009      51.129
2015    7       29    17  51    6.8479   505.6    6.001      51.145
2015    7       29    17  57    6.8445   505.8    5.992      51.161
2015    7       29    18   2    6.8411   506.0    5.983      51.176
2015    7       29    18   8    6.8377   506.2    5.975      51.191
2015    7       29    18  13    6.8343   506.4    5.966      51.206
2015    7       29    18  19    6.8309   506.5    5.958      51.220
2015    7       29    18  25    6.8274   506.7    5.949      51.234
2015    7       29    18  30    6.8239   506.9    5.940      51.248
2015    7       29    18  36    6.8204   507.1    5.932      51.261
2015    7       29    18  41    6.8169   507.3    5.924      51.274
2015    7       29    18  47    6.8133   507.5    5.915      51.287
2015    7       29    18  52    6.8098   507.7    5.907      51.300
2015    7       29    18  58    6.8062   507.9    5.899      51.313
2015    7       29    19   4    6.8026   508.0    5.891      51.325
2015    7       29    19   9    6.7990   508.2    5.883      51.337
2015    7       29    19  15    6.7954   508.4    5.875      51.349
2015    7       29    19  20    6.7917   508.6    5.867      51.361
2015    7       29    19  26    6.7881   508.8    5.859      51.373
2015    7       29    19  31    6.7844   509.0    5.851      51.385
2015    7       29    19  37    6.7807   509.1    5.844      51.396
2015    7       29    19  43    6.7771   509.3    5.837      51.408
2015    7       29    19  48    6.7734   509.5    5.829      51.420
2015    7       29    19  54    6.7697   509.7    5.822      51.432
2015    7       29    19  59    6.7660   509.8    5.815      51.444
2015    7       29    20   5    6.7623   510.0    5.809      51.456
2015    7       29    20  10    6.7586   510.2    5.802      51.468
2015    7       29    20  16    6.7549   510.3    5.796      51.481
2015    7       29    20  22    6.7512   510.5    5.789      51.494
2015    7       29    20  27    6.7475   510.7    5.783      51.508
2015    7       29    20  33    6.7438   510.8    5.778      51.522
2015    7       29    20  38    6.7402   511.0    5.772      51.536
2015    7       29    20  44    6.7365   511.1    5.767      51.552
2015    7       29    20  49    6.7329   511.3    5.761      51.567
2015    7       29    20  55    6.7293   511.4    5.757      51.584
2015    7       29    21   1    6.7257   511.6    5.752      51.601
2015    7       29    21   6    6.7221   511.8    5.747      51.621
2015    7       29    21  12    6.7185   511.9    5.743      51.641
2015    7       29    21  17    6.7150   512.1    5.738      51.663
2015    7       29    21  23    6.7114   512.2    5.734      51.686
2015    7       29    21  28    6.7079   512.4    5.730      51.709
2015    7       29    21  34    6.7043   512.6    5.726      51.734
2015    7       29    21  40    6.7008   512.7    5.721      51.760
2015    7       29    21  45    6.6972   512.9    5.717      51.785
2015    7       29    21  51    6.6937   513.0    5.713      51.811
2015    7       29    21  56    6.6901   513.2    5.708      51.837
2015    7       29    22   2    6.6866   513.4    5.704      51.863
2015    7       29    22   7    6.6830   513.5    5.699      51.889
2015    7       29    22  13    6.6794   513.7    5.694      51.915
2015    7       29    22  19    6.6759   513.9    5.689      51.940
2015    7       29    22  24    6.6723   514.0    5.684      51.964
2015    7       29    22  30    6.6687   514.2    5.679      51.986
2015    7       29    22  35    6.6651   514.4    5.674      52.008
2015    7       29    22  41    6.6616   514.5    5.668      52.029
2015    7       29    22  46    6.6580   514.7    5.663      52.050
2015    7       29    22  52    6.6544   514.9    5.657      52.069
2015    7       29    22  58    6.6509   515.0    5.651      52.088
2015    7       29    23   3    6.6474   515.2    5.646      52.105
2015    7       29    23   9    6.6439   515.3    5.640      52.122
2015    7       29    23  14    6.6404   515.5    5.634      52.139
2015    7       29    23  20    6.6369   515.7    5.628      52.154
2015    7       29    23  25    6.6335   515.8    5.622      52.169
2015    7       29    23  31    6.6300   516.0    5.616      52.184
2015    7       29    23  37    6.6266   516.1    5.610      52.198
2015    7       29    23  42    6.6232   516.3    5.604      52.212
2015    7       29    23  48    6.6198   516.5    5.598      52.225
2015    7       29    23  53    6.6165   516.6    5.591      52.237
2015    7       29    23  59    6.6131   516.8    5.585      52.250
2015    7       30     0   4    6.6098   517.0    5.579      52.261
2015    7       30     0  10    6.6065   517.1    5.573      52.273
2015    7       30     0  16    6.6032   517.3    5.567      52.284
2015    7       30     0  21    6.5999   517.4    5.560      52.295
2015    7       30     0  27    6.5967   517.6    5.554      52.305
2015    7       30     0  32    6.5934   517.7    5.548      52.315
2015    7       30     0  38    6.5902   517.9    5.542      52.325
2015    7       30     0  43    6.5870   518.1    5.535      52.334
2015    7       30     0  49    6.5838   518.2    5.529      52.343
2015    7       30     0  54    6.5806   518.4    5.523      52.352
2015    7       30     1   0    6.5774   518.5    5.517      52.360
2015    7       30     1   6    6.5742   518.7    5.510      52.368
2015    7       30     1  11    6.5710   518.8    5.504      52.376
2015    7       30     1  17    6.5679   519.0    5.498      52.384
2015    7       30     1  22    6.5647   519.2    5.492      52.391
2015    7       30     1  28    6.5616   519.3    5.485      52.398
2015    7       30     1  34    6.5584   519.5    5.479      52.405
2015    7       30     1  39    6.5553   519.6    5.473      52.412
2015    7       30     1  45    6.5522   519.8    5.467      52.418
2015    7       30     1  50    6.5491   519.9    5.461      52.425
2015    7       30     1  56    6.5459   520.1    5.455      52.431
2015    7       30     2   1    6.5428   520.2    5.449      52.437
2015    7       30     2   7    6.5396   520.4    5.443      52.443
2015    7       30     2  12    6.5365   520.6    5.437      52.449
2015    7       30     2  18    6.5334   520.7    5.431      52.455
2015    7       30     2  24    6.5302   520.9    5.425      52.461
2015    7       30     2  29    6.5271   521.0    5.420      52.466
2015    7       30     2  35    6.5239   521.2    5.414      52.472
2015    7       30     2  40    6.5207   521.3    5.408      52.478
2015    7       30     2  46    6.5175   521.5    5.403      52.484
2015    7       30     2  52    6.5143   521.6    5.397      52.490
2015    7       30     2  57    6.5111   521.8    5.392      52.496
2015    7       30     3   3    6.5079   521.9    5.386      52.502
2015    7       30     3   8    6.5046   522.1    5.381      52.509
2015    7       30     3  14    6.5013   522.2    5.375      52.515
2015    7       30     3  19    6.4981   522.3    5.370      52.522
2015    7       30     3  25    6.4947   522.5    5.365      52.529
2015    7       30     3  31    6.4915   522.6    5.360      52.536
2015    7       30     3  36    6.4881   522.8    5.355      52.544
2015    7       30     3  42    6.4848   522.9    5.350      52.551
2015    7       30     3  47    6.4814   523.1    5.345      52.559
2015    7       30     3  53    6.4781   523.2    5.340      52.566
2015    7       30     3  58    6.4747   523.4    5.335      52.574
2015    7       30     4   4    6.4713   523.5    5.330      52.582
2015    7       30     4  10    6.4679   523.6    5.325      52.590
2015    7       30     4  15    6.4645   523.8    5.320      52.599
2015    7       30     4  21    6.4611   523.9    5.315      52.607
2015    7       30     4  26    6.4577   524.1    5.310      52.615
2015    7       30     4  32    6.4543   524.2    5.305      52.623
2015    7       30     4  37    6.4508   524.3    5.300      52.632
2015    7       30     4  43    6.4474   524.5    5.295      52.641
2015    7       30     4  49    6.4439   524.6    5.290      52.649
2015    7       30     4  54    6.4405   524.7    5.285      52.657
2015    7       30     5   0    6.4370   524.9    5.280      52.666
2015    7       30     5   5    6.4336   525.0    5.275      52.675
2015    7       30     5  11    6.4301   525.1    5.270      52.683
2015    7       30     5  16    6.4266   525.3    5.265      52.692
2015    7       30     5  22    6.4232   525.4    5.260      52.700
2015    7       30     5  28    6.4197   525.5    5.255      52.709
2015    7       30     5  33    6.4163   525.6    5.250      52.717
2015    7       30     5  39    6.4128   525.8    5.245      52.725
2015    7       30     5  44    6.4094   525.9    5.240      52.733
2015    7       30     5  50    6.4059   526.0    5.235      52.741
2015    7       30     5  55    6.4025   526.2    5.230      52.749
2015    7       30     6   1    6.3991   526.3    5.225      52.757
2015    7       30     6   6    6.3957   526.4    5.220      52.764
2015    7       30     6  12    6.3922   526.5    5.215      52.772
2015    7       30     6  18    6.3889   526.7    5.210      52.779
2015    7       30     6  23    6.3855   526.8    5.205      52.785
2015    7       30     6  29    6.3821   526.9    5.200      52.792
2015    7       30     6  34    6.3787   527.0    5.195      52.798
2015    7       30     6  40    6.3754   527.2    5.190      52.804
2015    7       30     6  45    6.3720   527.3    5.185      52.809
2015    7       30     6  51    6.3687   527.4    5.180      52.815
2015    7       30     6  57    6.3654   527.5    5.175      52.819
2015    7       30     7   2    6.3620   527.6    5.171      52.824
2015    7       30     7   8    6.3587   527.8    5.166      52.828
2015    7       30     7  13    6.3554   527.9    5.161      52.833
2015    7       30     7  19    6.3521   528.0    5.156      52.836
2015    7       30     7  24    6.3489   528.1    5.151      52.840
2015    7       30     7  30    6.3456   528.3    5.146      52.843
2015    7       30     7  36    6.3423   528.4    5.142      52.845
2015    7       30     7  41    6.3390   528.5    5.137      52.848
2015    7       30     7  47    6.3358   528.6    5.132      52.850
2015    7       30     7  52    6.3325   528.7    5.127      52.852
2015    7       30     7  58    6.3293   528.9    5.123      52.854
2015    7       30     8   3    6.3260   529.0    5.118      52.855
2015    7       30     8   9    6.3228   529.1    5.114      52.856
2015    7       30     8  15    6.3195   529.2    5.109      52.857
2015    7       30     8  20    6.3163   529.3    5.104      52.858
2015    7       30     8  26    6.3130   529.5    5.100      52.858
2015    7       30     8  31    6.3098   529.6    5.095      52.858
2015    7       30     8  37    6.3065   529.7    5.091      52.858
2015    7       30     8  42    6.3033   529.8    5.086      52.858
2015    7       30     8  48    6.3000   529.9    5.082      52.858
2015    7       30     8  54    6.2968   530.1    5.077      52.858
2015    7       30     8  59    6.2936   530.2    5.073      52.857
2015    7       30     9   5    6.2904   530.3    5.069      52.857
2015    7       30     9  10    6.2872   530.4    5.064      52.856
2015    7       30     9  16    6.2840   530.5    5.060      52.856
2015    7       30     9  21    6.2807   530.6    5.056      52.855
2015    7       30     9  27    6.2775   530.8    5.051      52.855
2015    7       30     9  33    6.2743   530.9    5.047      52.854
2015    7       30     9  38    6.2712   531.0    5.043      52.853
2015    7       30     9  44    6.2679   531.1    5.039      52.853
2015    7       30     9  49    6.2648   531.2    5.035      52.853
2015    7       30     9  55    6.2616   531.3    5.030      52.852
2015    7       30    10   0    6.2584   531.4    5.026      52.852
2015    7       30    10   6    6.2552   531.6    5.022      52.852
2015    7       30    10  12    6.2521   531.7    5.018      52.852
2015    7       30    10  17    6.2489   531.8    5.014      52.852
2015    7       30    10  23    6.2458   531.9    5.010      52.853
2015    7       30    10  28    6.2427   532.0    5.006      52.853
2015    7       30    10  34    6.2395   532.1    5.001      52.853
2015    7       30    10  39    6.2364   532.2    4.997      52.854
2015    7       30    10  45    6.2333   532.3    4.993      52.855
2015    7       30    10  51    6.2302   532.4    4.989      52.855
2015    7       30    10  56    6.2271   532.6    4.985      52.856
2015    7       30    11   2    6.2240   532.7    4.981      52.857
2015    7       30    11   7    6.2210   532.8    4.977      52.859
2015    7       30    11  13    6.2179   532.9    4.973      52.860
2015    7       30    11  18    6.2149   533.0    4.969      52.861
2015    7       30    11  24    6.2118   533.1    4.965      52.862
2015    7       30    11  30    6.2088   533.2    4.960      52.864
2015    7       30    11  35    6.2057   533.3    4.956      52.865
2015    7       30    11  41    6.2027   533.4    4.952      52.866
2015    7       30    11  46    6.1997   533.5    4.948      52.867
2015    7       30    11  52    6.1967   533.6    4.944      52.869
2015    7       30    11  57    6.1937   533.7    4.940      52.870
2015    7       30    12   3    6.1907   533.8    4.936      52.871
2015    7       30    12   9    6.1877   533.9    4.932      52.872
2015    7       30    12  14    6.1848   534.0    4.927      52.874
2015    7       30    12  20    6.1818   534.1    4.923      52.874
2015    7       30    12  25    6.1788   534.2    4.919      52.876
2015    7       30    12  31    6.1759   534.3    4.915      52.876
2015    7       30    12  36    6.1730   534.4    4.911      52.877
2015    7       30    12  42    6.1700   534.5    4.907      52.878
2015    7       30    12  48    6.1671   534.6    4.903      52.879
2015    7       30    12  53    6.1642   534.7    4.899      52.879
2015    7       30    12  59    6.1613   534.8    4.895      52.880
2015    7       30    13   4    6.1584   534.9    4.891      52.880
2015    7       30    13  10    6.1556   535.0    4.887      52.880
2015    7       30    13  15    6.1527   535.1    4.883      52.880
2015    7       30    13  21    6.1499   535.2    4.879      52.881
2015    7       30    13  27    6.1470   535.3    4.875      52.881
2015    7       30    13  32    6.1442   535.4    4.871      52.881
2015    7       30    13  38    6.1414   535.5    4.867      52.881
2015    7       30    13  43    6.1386   535.6    4.864      52.882
2015    7       30    13  49    6.1358   535.7    4.860      52.882
2015    7       30    13  54    6.1331   535.8    4.856      52.882
2015    7       30    14   0    6.1303   535.9    4.852      52.882
2015    7       30    14   5    6.1276   536.0    4.849      52.882
2015    7       30    14  11    6.1249   536.1    4.845      52.882
2015    7       30    14  17    6.1222   536.1    4.842      52.882
2015    7       30    14  22    6.1195   536.2    4.838      52.882
2015    7       30    14  28    6.1169   536.3    4.835      52.882
2015    7       30    14  33    6.1142   536.4    4.831      52.882
2015    7       30    14  39    6.1116   536.5    4.828      52.882
2015    7       30    14  44    6.1089   536.6    4.824      52.882
2015    7       30    14  50    6.1063   536.7    4.821      52.882
2015    7       30    14  56    6.1037   536.8    4.818      52.882
2015    7       30    15   1    6.1011   536.9    4.814      52.881
2015    7       30    15   7    6.0985   536.9    4.811      52.881
2015    7       30    15  12    6.0960   537.0    4.808      52.881
2015    7       30    15  18    6.0934   537.1    4.804      52.880
2015    7       30    15  23    6.0908   537.2    4.801      52.880
2015    7       30    15  29    6.0883   537.3    4.798      52.879
2015    7       30    15  35    6.0857   537.4    4.795      52.878
2015    7       30    15  40    6.0832   537.5    4.791      52.877
2015    7       30    15  46    6.0807   537.5    4.788      52.877
2015    7       30    15  51    6.0781   537.6    4.785      52.875
2015    7       30    15  57    6.0756   537.7    4.781      52.874
2015    7       30    16   2    6.0731   537.8    4.778      52.873
2015    7       30    16   8    6.0705   537.9    4.775      52.872
2015    7       30    16  14    6.0680   538.0    4.771      52.870
2015    7       30    16  19    6.0655   538.0    4.768      52.868
2015    7       30    16  25    6.0630   538.1    4.765      52.867
2015    7       30    16  30    6.0605   538.2    4.762      52.865
2015    7       30    16  36    6.0580   538.3    4.758      52.863
2015    7       30    16  41    6.0556   538.4    4.755      52.862
2015    7       30    16  47    6.0531   538.4    4.752      52.860
2015    7       30    16  53    6.0506   538.5    4.748      52.858
2015    7       30    16  58    6.0482   538.6    4.745      52.856
2015    7       30    17   4    6.0458   538.7    4.742      52.854
2015    7       30    17   9    6.0434   538.8    4.739      52.853
2015    7       30    17  15    6.0410   538.8    4.735      52.851
2015    7       30    17  20    6.0386   538.9    4.732      52.849
2015    7       30    17  26    6.0362   539.0    4.729      52.848
2015    7       30    17  32    6.0338   539.1    4.726      52.846
2015    7       30    17  37    6.0315   539.1    4.723      52.845
2015    7       30    17  43    6.0292   539.2    4.720      52.844
2015    7       30    17  48    6.0269   539.3    4.716      52.843
2015    7       30    17  54    6.0246   539.3    4.713      52.842
2015    7       30    17  59    6.0223   539.4    4.710      52.841
2015    7       30    18   5    6.0201   539.5    4.707      52.840
2015    7       30    18  11    6.0179   539.6    4.704      52.840
2015    7       30    18  16    6.0156   539.6    4.702      52.839
2015    7       30    18  22    6.0134   539.7    4.699      52.839
2015    7       30    18  27    6.0112   539.8    4.696      52.838
2015    7       30    18  33    6.0091   539.9    4.693      52.838
2015    7       30    18  38    6.0069   539.9    4.690      52.838
2015    7       30    18  44    6.0047   540.0    4.687      52.838
2015    7       30    18  50    6.0026   540.1    4.685      52.838
2015    7       30    18  55    6.0005   540.1    4.682      52.838
2015    7       30    19   1    5.9983   540.2    4.679      52.838
2015    7       30    19   6    5.9962   540.3    4.677      52.838
2015    7       30    19  12    5.9941   540.3    4.674      52.838
2015    7       30    19  17    5.9920   540.4    4.671      52.838
2015    7       30    19  23    5.9900   540.5    4.669      52.838
2015    7       30    19  29    5.9879   540.5    4.666      52.838
2015    7       30    19  34    5.9858   540.6    4.663      52.838
2015    7       30    19  40    5.9838   540.7    4.661      52.838
2015    7       30    19  45    5.9817   540.7    4.658      52.838
2015    7       30    19  51    5.9797   540.8    4.655      52.838
2015    7       30    19  56    5.9776   540.9    4.653      52.838
2015    7       30    20   2    5.9756   540.9    4.650      52.838
2015    7       30    20   8    5.9735   541.0    4.648      52.837
2015    7       30    20  13    5.9715   541.1    4.645      52.837
2015    7       30    20  19    5.9695   541.1    4.642      52.837
2015    7       30    20  24    5.9675   541.2    4.640      52.837
2015    7       30    20  30    5.9654   541.3    4.637      52.837
2015    7       30    20  35    5.9634   541.3    4.635      52.837
2015    7       30    20  41    5.9614   541.4    4.632      52.837
2015    7       30    20  47    5.9594   541.5    4.630      52.837
2015    7       30    20  52    5.9574   541.5    4.627      52.837
2015    7       30    20  58    5.9554   541.6    4.625      52.837
2015    7       30    21   3    5.9534   541.7    4.622      52.836
2015    7       30    21   9    5.9514   541.7    4.620      52.836
2015    7       30    21  14    5.9494   541.8    4.617      52.836
2015    7       30    21  20    5.9474   541.8    4.615      52.836
2015    7       30    21  26    5.9455   541.9    4.612      52.836
2015    7       30    21  31    5.9435   542.0    4.610      52.836
2015    7       30    21  37    5.9415   542.0    4.607      52.836
2015    7       30    21  42    5.9396   542.1    4.605      52.836
2015    7       30    21  48    5.9376   542.2    4.603      52.836
2015    7       30    21  53    5.9357   542.2    4.600      52.836
2015    7       30    21  59    5.9337   542.3    4.598      52.835
2015    7       30    22   4    5.9318   542.3    4.595      52.835
2015    7       30    22  10    5.9299   542.4    4.593      52.835
2015    7       30    22  16    5.9279   542.5    4.591      52.834
2015    7       30    22  21    5.9260   542.5    4.588      52.834
2015    7       30    22  27    5.9241   542.6    4.586      52.833
2015    7       30    22  32    5.9222   542.6    4.583      52.832
2015    7       30    22  38    5.9202   542.7    4.581      52.831
2015    7       30    22  43    5.9183   542.8    4.578      52.831
2015    7       30    22  49    5.9164   542.8    4.576      52.830
2015    7       30    22  55    5.9145   542.9    4.573      52.828
2015    7       30    23   0    5.9126   542.9    4.571      52.827
2015    7       30    23   6    5.9107   543.0    4.569      52.825
2015    7       30    23  11    5.9088   543.1    4.566      52.824
2015    7       30    23  17    5.9068   543.1    4.564      52.822
2015    7       30    23  22    5.9050   543.2    4.561      52.820
2015    7       30    23  28    5.9031   543.2    4.559      52.818
2015    7       30    23  34    5.9012   543.3    4.556      52.816
2015    7       30    23  39    5.8993   543.3    4.554      52.813
2015    7       30    23  45    5.8974   543.4    4.551      52.811
2015    7       30    23  50    5.8955   543.5    4.549      52.809
2015    7       30    23  56    5.8937   543.5    4.546      52.806
2015    7       31     0   1    5.8918   543.6    4.544      52.803
2015    7       31     0   7    5.8900   543.6    4.541      52.801
2015    7       31     0  13    5.8882   543.7    4.539      52.798
2015    7       31     0  18    5.8864   543.7    4.536      52.795
2015    7       31     0  24    5.8846   543.8    4.534      52.792
2015    7       31     0  29    5.8828   543.8    4.531      52.789
2015    7       31     0  35    5.8811   543.9    4.529      52.786
2015    7       31     0  40    5.8793   543.9    4.527      52.783
2015    7       31     0  46    5.8776   544.0    4.524      52.780
2015    7       31     0  52    5.8759   544.0    4.522      52.777
2015    7       31     0  57    5.8742   544.1    4.520      52.773
2015    7       31     1   3    5.8725   544.1    4.517      52.770
2015    7       31     1   8    5.8709   544.2    4.515      52.767
2015    7       31     1  14    5.8692   544.2    4.513      52.764
2015    7       31     1  19    5.8676   544.3    4.510      52.761
2015    7       31     1  25    5.8660   544.3    4.508      52.758
2015    7       31     1  31    5.8644   544.4    4.506      52.755
2015    7       31     1  36    5.8628   544.4    4.504      52.753
2015    7       31     1  42    5.8613   544.5    4.502      52.750
2015    7       31     1  47    5.8597   544.5    4.500      52.747
2015    7       31     1  53    5.8582   544.6    4.498      52.744
2015    7       31     1  58    5.8567   544.6    4.495      52.742
2015    7       31     2   4    5.8552   544.7    4.493      52.739
2015    7       31     2  10    5.8537   544.7    4.491      52.737
2015    7       31     2  15    5.8522   544.7    4.489      52.734
2015    7       31     2  21    5.8508   544.8    4.487      52.732
2015    7       31     2  26    5.8493   544.8    4.485      52.730
2015    7       31     2  32    5.8479   544.9    4.483      52.728
2015    7       31     2  37    5.8465   544.9    4.482      52.725
2015    7       31     2  43    5.8451   545.0    4.480      52.724
2015    7       31     2  49    5.8437   545.0    4.478      52.722
2015    7       31     2  54    5.8423   545.0    4.476      52.720
2015    7       31     3   0    5.8409   545.1    4.474      52.719
2015    7       31     3   5    5.8395   545.1    4.472      52.717
2015    7       31     3  11    5.8381   545.2    4.470      52.716
2015    7       31     3  16    5.8368   545.2    4.469      52.715
2015    7       31     3  22    5.8354   545.3    4.467      52.714
2015    7       31     3  28    5.8340   545.3    4.465      52.713
2015    7       31     3  33    5.8327   545.3    4.463      52.712
2015    7       31     3  39    5.8313   545.4    4.461      52.712
2015    7       31     3  44    5.8299   545.4    4.460      52.711
2015    7       31     3  50    5.8286   545.5    4.458      52.711
2015    7       31     3  55    5.8272   545.5    4.456      52.711
2015    7       31     4   1    5.8259   545.6    4.455      52.711
2015    7       31     4   7    5.8245   545.6    4.453      52.711
2015    7       31     4  12    5.8232   545.6    4.451      52.711
2015    7       31     4  18    5.8218   545.7    4.450      52.711
2015    7       31     4  23    5.8205   545.7    4.448      52.711
2015    7       31     4  29    5.8191   545.8    4.446      52.712
2015    7       31     4  34    5.8178   545.8    4.445      52.712
2015    7       31     4  40    5.8164   545.8    4.443      52.713
2015    7       31     4  45    5.8151   545.9    4.441      52.714
2015    7       31     4  51    5.8137   545.9    4.440      52.714
2015    7       31     4  57    5.8124   546.0    4.438      52.715
2015    7       31     5   2    5.8110   546.0    4.436      52.716
2015    7       31     5   8    5.8097   546.0    4.435      52.717
2015    7       31     5  13    5.8083   546.1    4.433      52.718
2015    7       31     5  19    5.8070   546.1    4.432      52.719
2015    7       31     5  24    5.8057   546.2    4.430      52.720
2015    7       31     5  30    5.8044   546.2    4.428      52.721
2015    7       31     5  36    5.8030   546.2    4.427      52.721
2015    7       31     5  41    5.8017   546.3    4.425      52.722
2015    7       31     5  47    5.8004   546.3    4.424      52.723
2015    7       31     5  52    5.7991   546.4    4.422      52.724
2015    7       31     5  58    5.7977   546.4    4.420      52.724
2015    7       31     6   3    5.7964   546.4    4.419      52.725
2015    7       31     6   9    5.7951   546.5    4.417      52.726
2015    7       31     6  15    5.7938   546.5    4.416      52.726
2015    7       31     6  20    5.7925   546.6    4.414      52.726
2015    7       31     6  26    5.7912   546.6    4.412      52.727
2015    7       31     6  31    5.7899   546.6    4.411      52.727
2015    7       31     6  37    5.7886   546.7    4.409      52.727
2015    7       31     6  42    5.7873   546.7    4.408      52.727
2015    7       31     6  48    5.7861   546.7    4.406      52.727
2015    7       31     6  54    5.7848   546.8    4.404      52.726
2015    7       31     6  59    5.7835   546.8    4.403      52.726
2015    7       31     7   5    5.7822   546.9    4.401      52.725
2015    7       31     7  10    5.7810   546.9    4.400      52.724
2015    7       31     7  16    5.7797   546.9    4.398      52.723
2015    7       31     7  21    5.7785   547.0    4.396      52.722
2015    7       31     7  27    5.7773   547.0    4.395      52.721
2015    7       31     7  33    5.7760   547.0    4.393      52.720
2015    7       31     7  38    5.7748   547.1    4.391      52.718
2015    7       31     7  44    5.7736   547.1    4.390      52.717
2015    7       31     7  49    5.7724   547.1    4.388      52.715
2015    7       31     7  55    5.7713   547.2    4.387      52.713
2015    7       31     8   0    5.7701   547.2    4.385      52.711
2015    7       31     8   6    5.7689   547.2    4.383      52.709
2015    7       31     8  12    5.7678   547.3    4.382      52.707
2015    7       31     8  17    5.7666   547.3    4.380      52.705
2015    7       31     8  23    5.7655   547.3    4.379      52.703
2015    7       31     8  28    5.7644   547.4    4.377      52.700
2015    7       31     8  34    5.7633   547.4    4.375      52.698
2015    7       31     8  39    5.7622   547.4    4.374      52.695
2015    7       31     8  45    5.7611   547.5    4.372      52.693
2015    7       31     8  51    5.7600   547.5    4.371      52.690
2015    7       31     8  56    5.7590   547.5    4.369      52.688
2015    7       31     9   2    5.7579   547.6    4.368      52.685
2015    7       31     9   7    5.7569   547.6    4.366      52.682
2015    7       31     9  13    5.7558   547.6    4.364      52.679
2015    7       31     9  18    5.7548   547.6    4.363      52.677
2015    7       31     9  24    5.7538   547.7    4.361      52.674
2015    7       31     9  30    5.7528   547.7    4.360      52.672
2015    7       31     9  35    5.7518   547.7    4.358      52.669
2015    7       31     9  41    5.7508   547.8    4.357      52.666
2015    7       31     9  46    5.7498   547.8    4.355      52.664
2015    7       31     9  52    5.7488   547.8    4.354      52.662
2015    7       31     9  57    5.7479   547.9    4.352      52.660
2015    7       31    10   3    5.7469   547.9    4.351      52.657
2015    7       31    10   9    5.7460   547.9    4.349      52.655
2015    7       31    10  14    5.7450   547.9    4.348      52.654
2015    7       31    10  20    5.7441   548.0    4.346      52.652
2015    7       31    10  25    5.7432   548.0    4.345      52.650
2015    7       31    10  31    5.7422   548.0    4.343      52.649
2015    7       31    10  36    5.7413   548.1    4.342      52.648
2015    7       31    10  42    5.7404   548.1    4.340      52.646
2015    7       31    10  48    5.7395   548.1    4.339      52.645
2015    7       31    10  53    5.7386   548.1    4.337      52.645
2015    7       31    10  59    5.7377   548.2    4.336      52.644
2015    7       31    11   4    5.7368   548.2    4.335      52.644
2015    7       31    11  10    5.7359   548.2    4.333      52.643
2015    7       31    11  15    5.7350   548.3    4.332      52.643
2015    7       31    11  21    5.7341   548.3    4.331      52.643
2015    7       31    11  27    5.7332   548.3    4.329      52.644
2015    7       31    11  32    5.7323   548.3    4.328      52.644
2015    7       31    11  38    5.7314   548.4    4.327      52.645
2015    7       31    11  43    5.7305   548.4    4.325      52.645
2015    7       31    11  49    5.7296   548.4    4.324      52.646
2015    7       31    11  54    5.7287   548.4    4.323      52.647
2015    7       31    12   0    5.7279   548.5    4.322      52.648
2015    7       31    12   6    5.7270   548.5    4.320      52.649
2015    7       31    12  11    5.7261   548.5    4.319      52.650
2015    7       31    12  17    5.7252   548.6    4.318      52.651
2015    7       31    12  22    5.7243   548.6    4.317      52.653
2015    7       31    12  28    5.7234   548.6    4.316      52.654
2015    7       31    12  33    5.7226   548.6    4.314      52.656
2015    7       31    12  39    5.7217   548.7    4.313      52.657
2015    7       31    12  44    5.7208   548.7    4.312      52.659
2015    7       31    12  50    5.7199   548.7    4.311      52.660
2015    7       31    12  56    5.7191   548.8    4.310      52.662
2015    7       31    13   1    5.7182   548.8    4.309      52.664
2015    7       31    13   7    5.7173   548.8    4.308      52.666
2015    7       31    13  12    5.7165   548.8    4.307      52.668
2015    7       31    13  18    5.7156   548.9    4.305      52.670
2015    7       31    13  23    5.7147   548.9    4.304      52.672
2015    7       31    13  29    5.7139   548.9    4.303      52.674
2015    7       31    13  35    5.7130   548.9    4.302      52.676
2015    7       31    13  40    5.7122   549.0    4.301      52.678
2015    7       31    13  46    5.7113   549.0    4.300      52.680
2015    7       31    13  51    5.7105   549.0    4.299      52.682
2015    7       31    13  57    5.7096   549.1    4.298      52.684
2015    7       31    14   2    5.7088   549.1    4.297      52.687
2015    7       31    14   8    5.7080   549.1    4.297      52.688
2015    7       31    14  14    5.7071   549.1    4.296      52.691
2015    7       31    14  19    5.7063   549.2    4.295      52.693
2015    7       31    14  25    5.7055   549.2    4.294      52.695
2015    7       31    14  30    5.7046   549.2    4.293      52.697
2015    7       31    14  36    5.7038   549.2    4.292      52.699
2015    7       31    14  41    5.7030   549.3    4.291      52.701
2015    7       31    14  47    5.7022   549.3    4.290      52.703
2015    7       31    14  53    5.7014   549.3    4.289      52.705
2015    7       31    14  58    5.7006   549.3    4.288      52.706
2015    7       31    15   4    5.6998   549.4    4.287      52.708
2015    7       31    15   9    5.6990   549.4    4.287      52.710
2015    7       31    15  15    5.6982   549.4    4.286      52.712
2015    7       31    15  20    5.6974   549.4    4.285      52.713
2015    7       31    15  26    5.6966   549.5    4.284      52.715
2015    7       31    15  32    5.6958   549.5    4.283      52.716
2015    7       31    15  37    5.6951   549.5    4.282      52.718
2015    7       31    15  43    5.6943   549.5    4.281      52.719
2015    7       31    15  48    5.6935   549.6    4.280      52.720
2015    7       31    15  54    5.6928   549.6    4.279      52.722
2015    7       31    15  59    5.6920   549.6    4.278      52.723
2015    7       31    16   5    5.6913   549.6    4.277      52.724
2015    7       31    16  11    5.6905   549.7    4.276      52.725
2015    7       31    16  16    5.6898   549.7    4.275      52.726
2015    7       31    16  22    5.6891   549.7    4.274      52.727
2015    7       31    16  27    5.6884   549.7    4.273      52.728
2015    7       31    16  33    5.6876   549.8    4.272      52.729
2015    7       31    16  38    5.6869   549.8    4.271      52.730
2015    7       31    16  44    5.6862   549.8    4.270      52.730
2015    7       31    16  50    5.6855   549.8    4.269      52.731
2015    7       31    16  55    5.6848   549.8    4.268      52.732
2015    7       31    17   1    5.6841   549.9    4.266      52.733
2015    7       31    17   6    5.6834   549.9    4.265      52.733
2015    7       31    17  12    5.6828   549.9    4.264      52.734
2015    7       31    17  17    5.6821   549.9    4.263      52.734
2015    7       31    17  23    5.6814   550.0    4.262      52.735
2015    7       31    17  29    5.6807   550.0    4.261      52.736
2015    7       31    17  34    5.6801   550.0    4.259      52.736
2015    7       31    17  40    5.6794   550.0    4.258      52.737
2015    7       31    17  45    5.6787   550.0    4.257      52.737
2015    7       31    17  51    5.6781   550.1    4.256      52.738
2015    7       31    17  56    5.6774   550.1    4.254      52.739
2015    7       31    18   2    5.6768   550.1    4.253      52.739
2015    7       31    18   8    5.6761   550.1    4.252      52.740
2015    7       31    18  13    5.6755   550.1    4.251      52.740
2015    7       31    18  19    5.6749   550.2    4.249      52.741
2015    7       31    18  24    5.6742   550.2    4.248      52.741
2015    7       31    18  30    5.6736   550.2    4.247      52.742
2015    7       31    18  35    5.6730   550.2    4.246      52.742
2015    7       31    18  41    5.6723   550.3    4.244      52.743
2015    7       31    18  47    5.6717   550.3    4.243      52.743
2015    7       31    18  52    5.6711   550.3    4.242      52.744
2015    7       31    18  58    5.6704   550.3    4.240      52.745
2015    7       31    19   3    5.6698   550.3    4.239      52.746
2015    7       31    19   9    5.6692   550.4    4.238      52.746
2015    7       31    19  14    5.6686   550.4    4.237      52.747
2015    7       31    19  20    5.6679   550.4    4.236      52.748
2015    7       31    19  26    5.6673   550.4    4.234      52.749
2015    7       31    19  31    5.6667   550.5    4.233      52.750
2015    7       31    19  37    5.6661   550.5    4.232      52.752
2015    7       31    19  42    5.6654   550.5    4.231      52.753
2015    7       31    19  48    5.6648   550.5    4.230      52.754
2015    7       31    19  53    5.6642   550.5    4.229      52.756
2015    7       31    19  59    5.6636   550.6    4.228      52.758
2015    7       31    20   5    5.6630   550.6    4.227      52.759
2015    7       31    20  10    5.6623   550.6    4.226      52.761
2015    7       31    20  16    5.6617   550.6    4.225      52.763
2015    7       31    20  21    5.6611   550.7    4.224      52.766
2015    7       31    20  27    5.6605   550.7    4.223      52.768
2015    7       31    20  32    5.6599   550.7    4.222      52.770
2015    7       31    20  38    5.6593   550.7    4.221      52.773
2015    7       31    20  43    5.6587   550.7    4.220      52.776
2015    7       31    20  49    5.6581   550.8    4.220      52.779
2015    7       31    20  55    5.6574   550.8    4.219      52.782
2015    7       31    21   0    5.6568   550.8    4.218      52.785
2015    7       31    21   6    5.6562   550.8    4.217      52.789
2015    7       31    21  11    5.6556   550.9    4.217      52.792
2015    7       31    21  17    5.6550   550.9    4.216      52.796
2015    7       31    21  22    5.6544   550.9    4.215      52.800
2015    7       31    21  28    5.6538   550.9    4.215      52.803
2015    7       31    21  34    5.6532   551.0    4.214      52.807
2015    7       31    21  39    5.6525   551.0    4.213      52.812
2015    7       31    21  45    5.6519   551.0    4.213      52.816
2015    7       31    21  50    5.6513   551.0    4.212      52.820
2015    7       31    21  56    5.6507   551.1    4.212      52.825
2015    7       31    22   1    5.6501   551.1    4.211      52.829
2015    7       31    22   7    5.6495   551.1    4.211      52.834
2015    7       31    22  13    5.6489   551.1    4.210      52.839
2015    7       31    22  18    5.6483   551.1    4.209      52.843
2015    7       31    22  24    5.6477   551.2    4.209      52.848
2015    7       31    22  29    5.6471   551.2    4.208      52.853
2015    7       31    22  35    5.6465   551.2    4.208      52.858
2015    7       31    22  40    5.6459   551.2    4.207      52.863
2015    7       31    22  46    5.6453   551.3    4.207      52.868
2015    7       31    22  52    5.6447   551.3    4.206      52.873
2015    7       31    22  57    5.6441   551.3    4.206      52.878
2015    7       31    23   3    5.6435   551.3    4.205      52.883
2015    7       31    23   8    5.6429   551.4    4.205      52.889
2015    7       31    23  14    5.6423   551.4    4.204      52.894
2015    7       31    23  19    5.6417   551.4    4.204      52.899
2015    7       31    23  25    5.6411   551.4    4.203      52.904
2015    7       31    23  31    5.6406   551.5    4.202      52.909
2015    7       31    23  36    5.6400   551.5    4.202      52.914
2015    7       31    23  42    5.6394   551.5    4.201      52.920
2015    7       31    23  47    5.6388   551.5    4.201      52.925
2015    7       31    23  53    5.6383   551.5    4.200      52.930
2015    7       31    23  58    5.6377   551.6    4.199      52.935
2015    8        1     0   4    5.6374   551.6    4.199      52.942
2015    8        1     0  10    5.6372   551.6    4.198      52.949
2015    8        1     0  15    5.6370   551.6    4.198      52.956
2015    8        1     0  21    5.6368   551.7    4.198      52.963
2015    8        1     0  26    5.6365   551.7    4.197      52.970
2015    8        1     0  32    5.6363   551.7    4.196      52.977
2015    8        1     0  37    5.6361   551.7    4.196      52.983
2015    8        1     0  43    5.6359   551.8    4.195      52.990
2015    8        1     0  49    5.6357   551.8    4.195      52.996
2015    8        1     0  54    5.6355   551.8    4.194      53.003
2015    8        1     1   0    5.6353   551.8    4.193      53.009
2015    8        1     1   5    5.6350   551.8    4.193      53.015
2015    8        1     1  11    5.6348   551.9    4.192      53.021
2015    8        1     1  16    5.6346   551.9    4.191      53.027
2015    8        1     1  22    5.6344   551.9    4.191      53.032
2015    8        1     1  28    5.6342   551.9    4.190      53.038
2015    8        1     1  33    5.6340   552.0    4.189      53.043
2015    8        1     1  39    5.6338   552.0    4.188      53.048
2015    8        1     1  44    5.6336   552.0    4.187      53.053
2015    8        1     1  50    5.6334   552.0    4.186      53.058
2015    8        1     1  55    5.6331   552.1    4.186      53.063
2015    8        1     2   1    5.6329   552.1    4.185      53.067
2015    8        1     2   7    5.6327   552.1    4.184      53.072
2015    8        1     2  12    5.6325   552.1    4.183      53.076
2015    8        1     2  18    5.6323   552.1    4.182      53.080
2015    8        1     2  23    5.6321   552.2    4.181      53.084
2015    8        1     2  29    5.6319   552.2    4.180      53.089
2015    8        1     2  34    5.6317   552.2    4.179      53.093
2015    8        1     2  40    5.6314   552.2    4.178      53.097
2015    8        1     2  46    5.6312   552.3    4.177      53.101
2015    8        1     2  51    5.6310   552.3    4.176      53.106
2015    8        1     2  57    5.6308   552.3    4.175      53.110
2015    8        1     3   2    5.6306   552.3    4.175      53.114
2015    8        1     3   8    5.6304   552.4    4.174      53.119
2015    8        1     3  13    5.6302   552.4    4.173      53.123
2015    8        1     3  19    5.6300   552.4    4.172      53.128
2015    8        1     3  24    5.6297   552.4    4.171      53.133
2015    8        1     3  30    5.6295   552.4    4.170      53.137
2015    8        1     3  36    5.6293   552.5    4.170      53.142
2015    8        1     3  41    5.6291   552.5    4.169      53.148
2015    8        1     3  47    5.6289   552.5    4.168      53.153
2015    8        1     3  52    5.6287   552.5    4.167      53.158
2015    8        1     3  58    5.6285   552.6    4.167      53.164
2015    8        1     4   3    5.6283   552.6    4.166      53.170
2015    8        1     4   9    5.6281   552.6    4.166      53.176
2015    8        1     4  15    5.6278   552.6    4.165      53.182
2015    8        1     4  20    5.6276   552.7    4.164      53.189
2015    8        1     4  26    5.6274   552.7    4.164      53.195
2015    8        1     4  31    5.6272   552.7    4.163      53.202
2015    8        1     4  37    5.6270   552.7    4.163      53.209
2015    8        1     4  42    5.6267   552.8    4.162      53.216
2015    8        1     4  48    5.6265   552.8    4.162      53.223
2015    8        1     4  54    5.6263   552.8    4.161      53.230
2015    8        1     4  59    5.6260   552.8    4.161      53.237
2015    8        1     5   5    5.6258   552.9    4.161      53.245
2015    8        1     5  10    5.6255   552.9    4.160      53.253
2015    8        1     5  16    5.6253   552.9    4.160      53.260
2015    8        1     5  21    5.6250   552.9    4.160      53.268
2015    8        1     5  27    5.6247   553.0    4.159      53.276
2015    8        1     5  33    5.6245   553.0    4.159      53.284
2015    8        1     5  38    5.6242   553.0    4.159      53.292
2015    8        1     5  44    5.6239   553.1    4.158      53.300
2015    8        1     5  49    5.6236   553.1    4.158      53.309
2015    8        1     5  55    5.6234   553.1    4.158      53.317
2015    8        1     6   0    5.6231   553.1    4.158      53.325
2015    8        1     6   6    5.6228   553.2    4.157      53.334
2015    8        1     6  12    5.6225   553.2    4.157      53.342
2015    8        1     6  17    5.6222   553.2    4.157      53.351
2015    8        1     6  23    5.6220   553.2    4.156      53.359
2015    8        1     6  28    5.6217   553.3    4.156      53.368
2015    8        1     6  34    5.6214   553.3    4.156      53.377
2015    8        1     6  39    5.6211   553.3    4.156      53.385
2015    8        1     6  45    5.6208   553.4    4.155      53.394
2015    8        1     6  51    5.6206   553.4    4.155      53.403
2015    8        1     6  56    5.6203   553.4    4.155      53.411
2015    8        1     7   2    5.6200   553.4    4.155      53.420
2015    8        1     7   7    5.6198   553.5    4.154      53.429
2015    8        1     7  13    5.6195   553.5    4.154      53.438
2015    8        1     7  18    5.6193   553.5    4.154      53.446
2015    8        1     7  24    5.6190   553.6    4.153      53.455
2015    8        1     7  30    5.6188   553.6    4.153      53.464
2015    8        1     7  35    5.6185   553.6    4.153      53.472
2015    8        1     7  41    5.6183   553.6    4.152      53.481
2015    8        1     7  46    5.6180   553.7    4.152      53.490
2015    8        1     7  52    5.6178   553.7    4.151      53.498
2015    8        1     7  57    5.6175   553.7    4.151      53.507
2015    8        1     8   3    5.6173   553.8    4.151      53.516
2015    8        1     8   9    5.6171   553.8    4.150      53.524
2015    8        1     8  14    5.6169   553.8    4.150      53.533
2015    8        1     8  20    5.6166   553.8    4.149      53.541
2015    8        1     8  25    5.6164   553.9    4.148      53.549
2015    8        1     8  31    5.6162   553.9    4.148      53.557
2015    8        1     8  36    5.6160   553.9    4.147      53.566
2015    8        1     8  42    5.6158   554.0    4.147      53.574
2015    8        1     8  48    5.6155   554.0    4.146      53.581
2015    8        1     8  53    5.6153   554.0    4.146      53.589
2015    8        1     8  59    5.6151   554.0    4.145      53.597
2015    8        1     9   4    5.6149   554.1    4.144      53.605
2015    8        1     9  10    5.6146   554.1    4.144      53.613
2015    8        1     9  15    5.6144   554.1    4.143      53.620
2015    8        1     9  21    5.6142   554.2    4.142      53.628
2015    8        1     9  27    5.6139   554.2    4.141      53.636
2015    8        1     9  32    5.6137   554.2    4.141      53.644
2015    8        1     9  38    5.6134   554.2    4.140      53.651
2015    8        1     9  43    5.6132   554.3    4.139      53.659
2015    8        1     9  49    5.6129   554.3    4.138      53.666
2015    8        1     9  54    5.6127   554.3    4.138      53.674
2015    8        1    10   0    5.6124   554.4    4.137      53.682
2015    8        1    10   5    5.6122   554.4    4.136      53.690
2015    8        1    10  11    5.6119   554.4    4.135      53.698
2015    8        1    10  17    5.6116   554.4    4.135      53.706
2015    8        1    10  22    5.6113   554.5    4.134      53.714
2015    8        1    10  28    5.6111   554.5    4.133      53.721
2015    8        1    10  33    5.6108   554.5    4.132      53.730
2015    8        1    10  39    5.6105   554.6    4.131      53.738
2015    8        1    10  44    5.6102   554.6    4.131      53.746
2015    8        1    10  50    5.6099   554.6    4.130      53.754
2015    8        1    10  56    5.6096   554.7    4.129      53.763
2015    8        1    11   1    5.6092   554.7    4.128      53.771
2015    8        1    11   7    5.6089   554.7    4.128      53.779
2015    8        1    11  12    5.6086   554.8    4.127      53.788
2015    8        1    11  18    5.6082   554.8    4.126      53.797
2015    8        1    11  23    5.6079   554.8    4.125      53.805
2015    8        1    11  29    5.6075   554.9    4.124      53.814
2015    8        1    11  35    5.6072   554.9    4.124      53.822
2015    8        1    11  40    5.6068   554.9    4.123      53.831
2015    8        1    11  46    5.6064   555.0    4.122      53.839
2015    8        1    11  51    5.6060   555.0    4.122      53.848
2015    8        1    11  57    5.6056   555.0    4.121      53.856
2015    8        1    12   2    5.6052   555.1    4.120      53.865
2015    8        1    12   8    5.6048   555.1    4.119      53.873
2015    8        1    12  14    5.6044   555.1    4.119      53.882
2015    8        1    12  19    5.6039   555.2    4.118      53.890
2015    8        1    12  25    5.6035   555.2    4.117      53.898
2015    8        1    12  30    5.6030   555.2    4.116      53.906
2015    8        1    12  36    5.6026   555.3    4.116      53.914
2015    8        1    12  41    5.6021   555.3    4.115      53.922
2015    8        1    12  47    5.6017   555.3    4.114      53.930
2015    8        1    12  53    5.6012   555.4    4.113      53.938
2015    8        1    12  58    5.6007   555.4    4.113      53.946
2015    8        1    13   4    5.6002   555.4    4.112      53.954
2015    8        1    13   9    5.5998   555.5    4.111      53.962
2015    8        1    13  15    5.5993   555.5    4.110      53.969
2015    8        1    13  20    5.5988   555.5    4.110      53.977
2015    8        1    13  26    5.5983   555.6    4.109      53.984
2015    8        1    13  32    5.5979   555.6    4.108      53.992
2015    8        1    13  37    5.5974   555.6    4.108      53.999
2015    8        1    13  43    5.5969   555.7    4.107      54.006
2015    8        1    13  48    5.5964   555.7    4.106      54.014
2015    8        1    13  54    5.5960   555.7    4.105      54.021
2015    8        1    13  59    5.5955   555.8    4.105      54.028
2015    8        1    14   5    5.5951   555.8    4.104      54.035
2015    8        1    14  11    5.5946   555.8    4.103      54.043
2015    8        1    14  16    5.5942   555.9    4.102      54.050
2015    8        1    14  22    5.5937   555.9    4.102      54.057
2015    8        1    14  27    5.5933   556.0    4.101      54.065
2015    8        1    14  33    5.5929   556.0    4.100      54.072
2015    8        1    14  38    5.5924   556.0    4.100      54.080
2015    8        1    14  44    5.5920   556.1    4.099      54.087
2015    8        1    14  50    5.5916   556.1    4.098      54.095
2015    8        1    14  55    5.5912   556.1    4.098      54.102
2015    8        1    15   1    5.5908   556.2    4.097      54.110
2015    8        1    15   6    5.5903   556.2    4.096      54.118
2015    8        1    15  12    5.5899   556.2    4.096      54.126
2015    8        1    15  17    5.5895   556.3    4.095      54.134
2015    8        1    15  23    5.5891   556.3    4.094      54.142
2015    8        1    15  29    5.5887   556.4    4.094      54.150
2015    8        1    15  34    5.5883   556.4    4.093      54.158
2015    8        1    15  40    5.5879   556.4    4.092      54.166
2015    8        1    15  45    5.5875   556.5    4.092      54.174
2015    8        1    15  51    5.5870   556.5    4.091      54.183
2015    8        1    15  56    5.5866   556.5    4.090      54.191
2015    8        1    16   2    5.5862   556.6    4.089      54.200
2015    8        1    16   8    5.5857   556.6    4.089      54.209
2015    8        1    16  13    5.5853   556.7    4.088      54.217
2015    8        1    16  19    5.5848   556.7    4.087      54.226
2015    8        1    16  24    5.5843   556.7    4.087      54.235
2015    8        1    16  30    5.5838   556.8    4.086      54.244
2015    8        1    16  35    5.5833   556.8    4.085      54.253
2015    8        1    16  41    5.5828   556.9    4.084      54.261
2015    8        1    16  47    5.5823   556.9    4.084      54.271
2015    8        1    16  52    5.5818   556.9    4.083      54.280
2015    8        1    16  58    5.5812   557.0    4.082      54.289
2015    8        1    17   3    5.5807   557.0    4.081      54.298
2015    8        1    17   9    5.5801   557.0    4.081      54.307
2015    8        1    17  14    5.5796   557.1    4.080      54.317
2015    8        1    17  20    5.5790   557.1    4.079      54.327
2015    8        1    17  26    5.5784   557.2    4.078      54.336
2015    8        1    17  31    5.5778   557.2    4.078      54.346
2015    8        1    17  37    5.5772   557.2    4.077      54.355
2015    8        1    17  42    5.5766   557.3    4.076      54.365
2015    8        1    17  48    5.5759   557.3    4.075      54.375
2015    8        1    17  53    5.5753   557.4    4.074      54.385
2015    8        1    17  59    5.5747   557.4    4.074      54.395
2015    8        1    18   4    5.5740   557.4    4.073      54.406
2015    8        1    18  10    5.5734   557.5    4.072      54.416
2015    8        1    18  16    5.5727   557.5    4.071      54.427
2015    8        1    18  21    5.5720   557.6    4.070      54.437
2015    8        1    18  27    5.5713   557.6    4.070      54.448
2015    8        1    18  32    5.5706   557.7    4.069      54.460
2015    8        1    18  38    5.5699   557.7    4.068      54.471
2015    8        1    18  43    5.5692   557.7    4.067      54.482
2015    8        1    18  49    5.5685   557.8    4.066      54.493
2015    8        1    18  55    5.5677   557.8    4.065      54.505
2015    8        1    19   0    5.5669   557.9    4.064      54.516
2015    8        1    19   6    5.5662   557.9    4.063      54.527
2015    8        1    19  11    5.5654   558.0    4.062      54.537
2015    8        1    19  17    5.5646   558.0    4.061      54.548
2015    8        1    19  22    5.5638   558.0    4.060      54.558
2015    8        1    19  28    5.5629   558.1    4.059      54.568
2015    8        1    19  34    5.5621   558.1    4.057      54.577
2015    8        1    19  39    5.5613   558.2    4.056      54.586
2015    8        1    19  45    5.5604   558.2    4.055      54.595
2015    8        1    19  50    5.5596   558.3    4.054      54.603
2015    8        1    19  56    5.5587   558.3    4.053      54.611
2015    8        1    20   1    5.5578   558.3    4.051      54.618
2015    8        1    20   7    5.5570   558.4    4.050      54.625
2015    8        1    20  13    5.5561   558.4    4.049      54.632
2015    8        1    20  18    5.5552   558.5    4.047      54.639
2015    8        1    20  24    5.5543   558.5    4.046      54.645
2015    8        1    20  29    5.5534   558.6    4.045      54.651
2015    8        1    20  35    5.5525   558.6    4.043      54.657
2015    8        1    20  40    5.5516   558.6    4.042      54.662
2015    8        1    20  46    5.5507   558.7    4.041      54.667
2015    8        1    20  52    5.5498   558.7    4.039      54.672
2015    8        1    20  57    5.5489   558.8    4.038      54.677
2015    8        1    21   3    5.5480   558.8    4.037      54.682
2015    8        1    21   8    5.5470   558.8    4.035      54.687
2015    8        1    21  14    5.5461   558.9    4.034      54.691
2015    8        1    21  19    5.5452   558.9    4.033      54.696
2015    8        1    21  25    5.5443   559.0    4.032      54.700
2015    8        1    21  31    5.5434   559.0    4.030      54.705
2015    8        1    21  36    5.5425   559.0    4.029      54.709
2015    8        1    21  42    5.5415   559.1    4.028      54.713
2015    8        1    21  47    5.5406   559.1    4.027      54.718
2015    8        1    21  53    5.5397   559.2    4.025      54.722
2015    8        1    21  58    5.5388   559.2    4.024      54.727
2015    8        1    22   4    5.5379   559.3    4.023      54.732
2015    8        1    22  10    5.5370   559.3    4.022      54.737
2015    8        1    22  15    5.5360   559.3    4.021      54.742
2015    8        1    22  21    5.5351   559.4    4.020      54.747
2015    8        1    22  26    5.5342   559.4    4.019      54.752
2015    8        1    22  32    5.5332   559.5    4.018      54.758
2015    8        1    22  37    5.5323   559.5    4.017      54.763
2015    8        1    22  43    5.5313   559.5    4.016      54.769
2015    8        1    22  49    5.5304   559.6    4.015      54.775
2015    8        1    22  54    5.5294   559.6    4.014      54.781
2015    8        1    23   0    5.5284   559.7    4.014      54.787
2015    8        1    23   5    5.5274   559.7    4.013      54.793
2015    8        1    23  11    5.5264   559.8    4.012      54.799
2015    8        1    23  16    5.5254   559.8    4.011      54.806
2015    8        1    23  22    5.5244   559.8    4.010      54.813
2015    8        1    23  28    5.5233   559.9    4.009      54.819
2015    8        1    23  33    5.5223   559.9    4.009      54.826
2015    8        1    23  39    5.5212   560.0    4.008      54.833
2015    8        1    23  44    5.5201   560.0    4.007      54.840
2015    8        1    23  50    5.5190   560.0    4.006      54.847
2015    8        1    23  55    5.5179   560.1    4.006      54.855
2015    8        2     0   1    5.5167   560.1    4.005      54.862
2015    8        2     0   7    5.5153   560.2    4.004      54.867
2015    8        2     0  12    5.5138   560.2    4.003      54.873
2015    8        2     0  18    5.5124   560.2    4.001      54.879
2015    8        2     0  23    5.5109   560.3    4.000      54.885
2015    8        2     0  29    5.5094   560.3    3.999      54.892
2015    8        2     0  34    5.5080   560.3    3.998      54.899
2015    8        2     0  40    5.5065   560.4    3.997      54.906
2015    8        2     0  45    5.5050   560.4    3.996      54.913
2015    8        2     0  51    5.5034   560.5    3.994      54.921
2015    8        2     0  57    5.5019   560.5    3.993      54.928
2015    8        2     1   2    5.5004   560.5    3.992      54.935
2015    8        2     1   8    5.4989   560.6    3.991      54.942
2015    8        2     1  13    5.4973   560.6    3.989      54.949
2015    8        2     1  19    5.4958   560.6    3.988      54.956
2015    8        2     1  24    5.4942   560.7    3.987      54.962
2015    8        2     1  30    5.4926   560.7    3.985      54.969
2015    8        2     1  36    5.4911   560.7    3.984      54.976
2015    8        2     1  41    5.4895   560.8    3.982      54.982
2015    8        2     1  47    5.4878   560.8    3.981      54.988
2015    8        2     1  52    5.4862   560.9    3.980      54.994
2015    8        2     1  58    5.4846   560.9    3.978      55.000
2015    8        2     2   3    5.4829   560.9    3.976      55.005
2015    8        2     2   9    5.4813   561.0    3.975      55.010
2015    8        2     2  15    5.4796   561.0    3.973      55.015
2015    8        2     2  20    5.4779   561.0    3.971      55.018
2015    8        2     2  26    5.4762   561.1    3.970      55.022
2015    8        2     2  31    5.4745   561.1    3.968      55.025
2015    8        2     2  37    5.4728   561.2    3.966      55.027
2015    8        2     2  42    5.4711   561.2    3.965      55.029
2015    8        2     2  48    5.4694   561.2    3.963      55.030
2015    8        2     2  54    5.4676   561.3    3.961      55.031
2015    8        2     2  59    5.4659   561.3    3.959      55.031
2015    8        2     3   5    5.4641   561.3    3.957      55.031
2015    8        2     3  10    5.4623   561.4    3.955      55.031
2015    8        2     3  16    5.4605   561.4    3.953      55.030
2015    8        2     3  21    5.4588   561.4    3.952      55.029
2015    8        2     3  27    5.4570   561.5    3.950      55.027
2015    8        2     3  33    5.4552   561.5    3.948      55.025
2015    8        2     3  38    5.4534   561.5    3.946      55.023
2015    8        2     3  44    5.4516   561.5    3.944      55.020
2015    8        2     3  49    5.4497   561.6    3.942      55.018
2015    8        2     3  55    5.4479   561.6    3.940      55.015
2015    8        2     4   0    5.4461   561.6    3.939      55.012
2015    8        2     4   6    5.4443   561.7    3.937      55.009
2015    8        2     4  12    5.4425   561.7    3.935      55.006
2015    8        2     4  17    5.4407   561.7    3.933      55.002
2015    8        2     4  23    5.4388   561.8    3.932      54.999
2015    8        2     4  28    5.4370   561.8    3.930      54.996
2015    8        2     4  34    5.4352   561.8    3.929      54.993
2015    8        2     4  39    5.4334   561.8    3.927      54.990
2015    8        2     4  45    5.4316   561.9    3.925      54.987
2015    8        2     4  51    5.4298   561.9    3.924      54.985
2015    8        2     4  56    5.4280   561.9    3.923      54.983
2015    8        2     5   2    5.4262   561.9    3.921      54.981
2015    8        2     5   7    5.4244   562.0    3.920      54.979
2015    8        2     5  13    5.4226   562.0    3.919      54.977
2015    8        2     5  18    5.4208   562.0    3.917      54.976
2015    8        2     5  24    5.4191   562.1    3.916      54.975
2015    8        2     5  30    5.4173   562.1    3.915      54.974
2015    8        2     5  35    5.4155   562.1    3.914      54.974
2015    8        2     5  41    5.4137   562.1    3.913      54.973
2015    8        2     5  46    5.4120   562.2    3.912      54.974
2015    8        2     5  52    5.4102   562.2    3.911      54.974
2015    8        2     5  57    5.4085   562.2    3.910      54.975
2015    8        2     6   3    5.4067   562.2    3.909      54.976
2015    8        2     6   9    5.4050   562.3    3.908      54.977
2015    8        2     6  14    5.4032   562.3    3.907      54.978
2015    8        2     6  20    5.4015   562.3    3.906      54.980
2015    8        2     6  25    5.3998   562.3    3.905      54.982
2015    8        2     6  31    5.3980   562.4    3.904      54.984
2015    8        2     6  36    5.3963   562.4    3.904      54.986
2015    8        2     6  42    5.3945   562.4    3.903      54.988
2015    8        2     6  48    5.3928   562.4    3.902      54.991
2015    8        2     6  53    5.3911   562.5    3.901      54.993
2015    8        2     6  59    5.3893   562.5    3.900      54.996
2015    8        2     7   4    5.3876   562.5    3.899      54.999
2015    8        2     7  10    5.3858   562.5    3.898      55.002
2015    8        2     7  15    5.3841   562.6    3.897      55.005
2015    8        2     7  21    5.3823   562.6    3.896      55.008
2015    8        2     7  26    5.3806   562.6    3.895      55.011
2015    8        2     7  32    5.3788   562.6    3.894      55.014
2015    8        2     7  38    5.3771   562.7    3.893      55.018
2015    8        2     7  43    5.3753   562.7    3.892      55.021
2015    8        2     7  49    5.3735   562.7    3.891      55.024
2015    8        2     7  54    5.3718   562.7    3.890      55.027
2015    8        2     8   0    5.3700   562.7    3.889      55.031
2015    8        2     8   5    5.3682   562.8    3.887      55.033
2015    8        2     8  11    5.3664   562.8    3.886      55.036
2015    8        2     8  17    5.3646   562.8    3.885      55.038
2015    8        2     8  22    5.3628   562.8    3.883      55.040
2015    8        2     8  28    5.3609   562.8    3.882      55.041
2015    8        2     8  33    5.3591   562.9    3.881      55.042
2015    8        2     8  39    5.3573   562.9    3.879      55.043
2015    8        2     8  44    5.3555   562.9    3.878      55.043
2015    8        2     8  50    5.3536   562.9    3.876      55.042
2015    8        2     8  56    5.3518   562.9    3.875      55.041
2015    8        2     9   1    5.3499   562.9    3.873      55.039
2015    8        2     9   7    5.3480   563.0    3.872      55.038
2015    8        2     9  12    5.3461   563.0    3.870      55.035
2015    8        2     9  18    5.3442   563.0    3.869      55.032
2015    8        2     9  23    5.3423   563.0    3.867      55.029
2015    8        2     9  29    5.3404   563.0    3.865      55.025
2015    8        2     9  35    5.3385   563.0    3.864      55.021
2015    8        2     9  40    5.3366   563.1    3.862      55.017
2015    8        2     9  46    5.3347   563.1    3.861      55.012
2015    8        2     9  51    5.3328   563.1    3.859      55.007
2015    8        2     9  57    5.3308   563.1    3.858      55.001
2015    8        2    10   2    5.3289   563.1    3.856      54.995
2015    8        2    10   8    5.3269   563.1    3.854      54.989
2015    8        2    10  14    5.3250   563.1    3.853      54.983
2015    8        2    10  19    5.3230   563.1    3.851      54.976
2015    8        2    10  25    5.3210   563.1    3.850      54.969
2015    8        2    10  30    5.3191   563.1    3.848      54.962
2015    8        2    10  36    5.3171   563.2    3.847      54.954
2015    8        2    10  41    5.3151   563.2    3.846      54.946
2015    8        2    10  47    5.3131   563.2    3.844      54.938
2015    8        2    10  53    5.3111   563.2    3.843      54.930
2015    8        2    10  58    5.3092   563.2    3.841      54.922
2015    8        2    11   4    5.3072   563.2    3.840      54.914
2015    8        2    11   9    5.3052   563.2    3.839      54.906
2015    8        2    11  15    5.3032   563.2    3.837      54.897
2015    8        2    11  20    5.3013   563.2    3.836      54.889
2015    8        2    11  26    5.2993   563.2    3.835      54.880
2015    8        2    11  32    5.2973   563.2    3.834      54.872
2015    8        2    11  37    5.2954   563.2    3.833      54.864
2015    8        2    11  43    5.2934   563.2    3.831      54.856
2015    8        2    11  48    5.2915   563.2    3.830      54.848
2015    8        2    11  54    5.2896   563.2    3.829      54.840
2015    8        2    11  59    5.2876   563.2    3.828      54.832
2015    8        2    12   5    5.2857   563.2    3.827      54.824
2015    8        2    12  11    5.2838   563.2    3.826      54.816
2015    8        2    12  16    5.2819   563.2    3.825      54.809
2015    8        2    12  22    5.2801   563.3    3.824      54.801
2015    8        2    12  27    5.2782   563.3    3.823      54.794
2015    8        2    12  33    5.2763   563.3    3.822      54.787
2015    8        2    12  38    5.2745   563.3    3.821      54.780
2015    8        2    12  44    5.2727   563.3    3.820      54.773
2015    8        2    12  50    5.2709   563.3    3.819      54.767
2015    8        2    12  55    5.2691   563.3    3.818      54.760
2015    8        2    13   1    5.2673   563.3    3.817      54.754
2015    8        2    13   6    5.2655   563.3    3.816      54.747
2015    8        2    13  12    5.2638   563.3    3.815      54.741
2015    8        2    13  17    5.2620   563.3    3.814      54.735
2015    8        2    13  23    5.2603   563.3    3.813      54.729
2015    8        2    13  29    5.2586   563.3    3.812      54.723
2015    8        2    13  34    5.2569   563.3    3.811      54.718
2015    8        2    13  40    5.2552   563.3    3.810      54.712
2015    8        2    13  45    5.2535   563.3    3.809      54.707
2015    8        2    13  51    5.2518   563.3    3.808      54.701
2015    8        2    13  56    5.2502   563.3    3.807      54.696
2015    8        2    14   2    5.2485   563.3    3.806      54.691
2015    8        2    14   7    5.2469   563.3    3.805      54.686
2015    8        2    14  13    5.2453   563.3    3.804      54.681
2015    8        2    14  19    5.2436   563.3    3.803      54.676
2015    8        2    14  24    5.2420   563.3    3.802      54.672
2015    8        2    14  30    5.2404   563.3    3.801      54.667
2015    8        2    14  35    5.2388   563.3    3.800      54.663
2015    8        2    14  41    5.2372   563.3    3.799      54.659
2015    8        2    14  46    5.2356   563.3    3.798      54.655
2015    8        2    14  52    5.2340   563.3    3.797      54.651
2015    8        2    14  58    5.2324   563.3    3.796      54.647
2015    8        2    15   3    5.2308   563.3    3.795      54.643
2015    8        2    15   9    5.2292   563.3    3.794      54.639
2015    8        2    15  14    5.2276   563.3    3.793      54.635
2015    8        2    15  20    5.2260   563.3    3.792      54.631
2015    8        2    15  25    5.2244   563.3    3.791      54.627
2015    8        2    15  31    5.2228   563.3    3.790      54.624
2015    8        2    15  37    5.2212   563.3    3.790      54.620
2015    8        2    15  42    5.2195   563.3    3.789      54.616
2015    8        2    15  48    5.2179   563.3    3.788      54.612
2015    8        2    15  53    5.2162   563.3    3.787      54.609
2015    8        2    15  59    5.2146   563.3    3.786      54.605
2015    8        2    16   4    5.2129   563.3    3.785      54.601
2015    8        2    16  10    5.2112   563.2    3.784      54.598
2015    8        2    16  16    5.2094   563.2    3.783      54.594
2015    8        2    16  21    5.2077   563.2    3.782      54.590
2015    8        2    16  27    5.2060   563.2    3.782      54.587
2015    8        2    16  32    5.2043   563.2    3.781      54.583
2015    8        2    16  38    5.2025   563.2    3.780      54.580
2015    8        2    16  43    5.2007   563.2    3.779      54.576
2015    8        2    16  49    5.1990   563.2    3.779      54.572
2015    8        2    16  55    5.1972   563.2    3.778      54.569
2015    8        2    17   0    5.1954   563.2    3.777      54.565
2015    8        2    17   6    5.1936   563.2    3.777      54.561
2015    8        2    17  11    5.1918   563.2    3.776      54.557
2015    8        2    17  17    5.1900   563.2    3.775      54.554
2015    8        2    17  22    5.1882   563.2    3.775      54.550
2015    8        2    17  28    5.1864   563.2    3.774      54.546
2015    8        2    17  34    5.1846   563.1    3.773      54.541
2015    8        2    17  39    5.1828   563.1    3.773      54.537
2015    8        2    17  45    5.1810   563.1    3.772      54.532
2015    8        2    17  50    5.1792   563.1    3.772      54.527
2015    8        2    17  56    5.1773   563.1    3.771      54.522
2015    8        2    18   1    5.1755   563.1    3.770      54.517
2015    8        2    18   7    5.1737   563.1    3.770      54.511
2015    8        2    18  13    5.1719   563.1    3.769      54.505
2015    8        2    18  18    5.1701   563.1    3.768      54.499
2015    8        2    18  24    5.1683   563.0    3.768      54.493
2015    8        2    18  29    5.1665   563.0    3.767      54.486
2015    8        2    18  35    5.1647   563.0    3.767      54.479
2015    8        2    18  40    5.1629   563.0    3.766      54.472
2015    8        2    18  46    5.1612   563.0    3.765      54.464
2015    8        2    18  52    5.1594   563.0    3.764      54.456
2015    8        2    18  57    5.1577   562.9    3.764      54.448
2015    8        2    19   3    5.1560   562.9    3.763      54.439
2015    8        2    19   8    5.1543   562.9    3.762      54.430
2015    8        2    19  14    5.1525   562.9    3.761      54.420
2015    8        2    19  19    5.1509   562.9    3.761      54.411
2015    8        2    19  25    5.1492   562.9    3.760      54.400
2015    8        2    19  31    5.1475   562.8    3.759      54.390
2015    8        2    19  36    5.1459   562.8    3.758      54.379
2015    8        2    19  42    5.1443   562.8    3.757      54.367
2015    8        2    19  47    5.1426   562.8    3.756      54.356
2015    8        2    19  53    5.1410   562.8    3.755      54.344
2015    8        2    19  58    5.1394   562.7    3.754      54.331
2015    8        2    20   4    5.1378   562.7    3.753      54.319
2015    8        2    20  10    5.1362   562.7    3.752      54.306
2015    8        2    20  15    5.1347   562.7    3.751      54.292
2015    8        2    20  21    5.1331   562.7    3.750      54.279
2015    8        2    20  26    5.1316   562.6    3.749      54.265
2015    8        2    20  32    5.1300   562.6    3.748      54.251
2015    8        2    20  37    5.1285   562.6    3.747      54.237
2015    8        2    20  43    5.1270   562.6    3.746      54.222
2015    8        2    20  48    5.1254   562.5    3.745      54.208
2015    8        2    20  54    5.1239   562.5    3.744      54.194
2015    8        2    21   0    5.1224   562.5    3.743      54.179
2015    8        2    21   5    5.1209   562.5    3.742      54.165
2015    8        2    21  11    5.1194   562.4    3.741      54.151
2015    8        2    21  16    5.1180   562.4    3.740      54.136
2015    8        2    21  22    5.1165   562.4    3.739      54.123
2015    8        2    21  27    5.1150   562.4    3.738      54.109
2015    8        2    21  33    5.1136   562.3    3.737      54.095
2015    8        2    21  39    5.1121   562.3    3.736      54.082
2015    8        2    21  44    5.1106   562.3    3.735      54.069
2015    8        2    21  50    5.1092   562.3    3.734      54.056
2015    8        2    21  55    5.1078   562.2    3.734      54.044
2015    8        2    22   1    5.1063   562.2    3.733      54.032
2015    8        2    22   6    5.1049   562.2    3.732      54.021
2015    8        2    22  12    5.1034   562.2    3.732      54.010
2015    8        2    22  18    5.1020   562.1    3.731      54.000
2015    8        2    22  23    5.1006   562.1    3.730      53.989
2015    8        2    22  29    5.0991   562.1    3.730      53.980
2015    8        2    22  34    5.0977   562.1    3.729      53.971
2015    8        2    22  40    5.0963   562.1    3.729      53.962
2015    8        2    22  45    5.0948   562.0    3.728      53.954
2015    8        2    22  51    5.0933   562.0    3.728      53.947
2015    8        2    22  57    5.0918   562.0    3.728      53.940
2015    8        2    23   2    5.0903   562.0    3.727      53.933
2015    8        2    23   8    5.0887   561.9    3.727      53.927
2015    8        2    23  13    5.0872   561.9    3.727      53.921
2015    8        2    23  19    5.0856   561.9    3.727      53.916
2015    8        2    23  24    5.0840   561.9    3.727      53.911
2015    8        2    23  30    5.0824   561.8    3.726      53.907
2015    8        2    23  36    5.0808   561.8    3.726      53.903
2015    8        2    23  41    5.0791   561.8    3.726      53.899
2015    8        2    23  47    5.0775   561.8    3.726      53.896
2015    8        2    23  52    5.0758   561.8    3.726      53.892
2015    8        2    23  58    5.0741   561.7    3.726      53.889
2015    8        3     0   3    5.0724   561.7    3.725      53.887
2015    8        3     0   9    5.0707   561.7    3.725      53.884
2015    8        3     0  15    5.0690   561.7    3.725      53.882
2015    8        3     0  20    5.0673   561.6    3.725      53.879
2015    8        3     0  26    5.0655   561.6    3.725      53.877
2015    8        3     0  31    5.0638   561.6    3.724      53.874
2015    8        3     0  37    5.0621   561.6    3.724      53.872
2015    8        3     0  42    5.0604   561.5    3.724      53.869
2015    8        3     0  48    5.0587   561.5    3.724      53.867
2015    8        3     0  53    5.0569   561.5    3.723      53.864
2015    8        3     0  59    5.0552   561.5    3.723      53.861
2015    8        3     1   5    5.0536   561.4    3.723      53.858
2015    8        3     1  10    5.0519   561.4    3.722      53.854
2015    8        3     1  16    5.0502   561.4    3.722      53.850
2015    8        3     1  21    5.0485   561.3    3.721      53.846
2015    8        3     1  27    5.0469   561.3    3.721      53.842
2015    8        3     1  33    5.0453   561.3    3.720      53.837
2015    8        3     1  38    5.0437   561.2    3.720      53.832
2015    8        3     1  44    5.0422   561.2    3.719      53.826
2015    8        3     1  49    5.0406   561.2    3.719      53.820
2015    8        3     1  55    5.0391   561.1    3.718      53.814
2015    8        3     2   0    5.0377   561.1    3.718      53.807
2015    8        3     2   6    5.0362   561.1    3.717      53.800
2015    8        3     2  11    5.0348   561.0    3.717      53.792
2015    8        3     2  17    5.0335   561.0    3.716      53.785
2015    8        3     2  23    5.0321   561.0    3.716      53.776
2015    8        3     2  28    5.0309   560.9    3.715      53.768
2015    8        3     2  34    5.0296   560.9    3.715      53.759
2015    8        3     2  39    5.0283   560.9    3.714      53.749
2015    8        3     2  45    5.0271   560.8    3.714      53.740
2015    8        3     2  51    5.0258   560.8    3.713      53.730
2015    8        3     2  56    5.0246   560.8    3.713      53.720
2015    8        3     3   2    5.0233   560.7    3.712      53.709
2015    8        3     3   7    5.0220   560.7    3.712      53.698
2015    8        3     3  13    5.0207   560.7    3.712      53.687
2015    8        3     3  18    5.0194   560.6    3.711      53.675
2015    8        3     3  24    5.0180   560.6    3.711      53.663
2015    8        3     3  29    5.0167   560.6    3.711      53.651
2015    8        3     3  35    5.0153   560.5    3.710      53.639
2015    8        3     3  41    5.0139   560.5    3.710      53.626
2015    8        3     3  46    5.0124   560.5    3.710      53.613
2015    8        3     3  52    5.0110   560.4    3.709      53.599
2015    8        3     3  57    5.0095   560.4    3.709      53.585
2015    8        3     4   3    5.0080   560.4    3.709      53.571
2015    8        3     4   8    5.0065   560.3    3.708      53.556
2015    8        3     4  14    5.0049   560.3    3.708      53.542
2015    8        3     4  20    5.0034   560.3    3.708      53.527
2015    8        3     4  25    5.0018   560.2    3.707      53.511
2015    8        3     4  31    5.0003   560.2    3.707      53.496
2015    8        3     4  36    4.9987   560.2    3.707      53.480
2015    8        3     4  42    4.9971   560.1    3.706      53.464
2015    8        3     4  47    4.9955   560.1    3.706      53.449
2015    8        3     4  53    4.9939   560.0    3.706      53.432
2015    8        3     4  59    4.9923   560.0    3.705      53.417
2015    8        3     5   4    4.9907   560.0    3.705      53.401
2015    8        3     5  10    4.9891   559.9    3.704      53.385
2015    8        3     5  15    4.9875   559.9    3.704      53.369
2015    8        3     5  21    4.9859   559.8    3.704      53.354
2015    8        3     5  26    4.9843   559.8    3.703      53.339
2015    8        3     5  32    4.9826   559.8    3.703      53.324
2015    8        3     5  38    4.9810   559.7    3.702      53.309
2015    8        3     5  43    4.9794   559.7    3.702      53.294
2015    8        3     5  49    4.9778   559.6    3.702      53.280
2015    8        3     5  54    4.9761   559.6    3.701      53.266
2015    8        3     6   0    4.9745   559.5    3.701      53.252
2015    8        3     6   5    4.9729   559.5    3.701      53.238
2015    8        3     6  11    4.9712   559.5    3.700      53.225
2015    8        3     6  16    4.9696   559.4    3.700      53.212
2015    8        3     6  22    4.9679   559.4    3.699      53.199
2015    8        3     6  28    4.9663   559.3    3.699      53.187
2015    8        3     6  33    4.9646   559.3    3.699      53.174
2015    8        3     6  39    4.9629   559.2    3.698      53.162
2015    8        3     6  44    4.9613   559.2    3.698      53.150
2015    8        3     6  50    4.9596   559.1    3.697      53.139
2015    8        3     6  56    4.9580   559.1    3.697      53.127
2015    8        3     7   1    4.9563   559.0    3.697      53.115
2015    8        3     7   7    4.9546   559.0    3.696      53.103
2015    8        3     7  12    4.9530   558.9    3.696      53.092
2015    8        3     7  18    4.9513   558.9    3.695      53.080
2015    8        3     7  23    4.9497   558.8    3.695      53.069
2015    8        3     7  29    4.9481   558.8    3.694      53.057
2015    8        3     7  34    4.9465   558.7    3.693      53.045
2015    8        3     7  40    4.9449   558.7    3.693      53.033
2015    8        3     7  46    4.9433   558.6    3.692      53.022
2015    8        3     7  51    4.9417   558.6    3.691      53.010
2015    8        3     7  57    4.9401   558.5    3.691      52.998
2015    8        3     8   2    4.9386   558.5    3.690      52.986
2015    8        3     8   8    4.9371   558.4    3.689      52.973
2015    8        3     8  13    4.9356   558.4    3.689      52.961
2015    8        3     8  19    4.9341   558.3    3.688      52.948
2015    8        3     8  25    4.9326   558.3    3.687      52.935
2015    8        3     8  30    4.9311   558.2    3.686      52.923
2015    8        3     8  36    4.9297   558.1    3.686      52.909
2015    8        3     8  41    4.9283   558.1    3.685      52.896
2015    8        3     8  47    4.9269   558.0    3.684      52.883
2015    8        3     8  52    4.9256   558.0    3.683      52.869
2015    8        3     8  58    4.9243   557.9    3.683      52.856
2015    8        3     9   4    4.9230   557.9    3.682      52.842
2015    8        3     9   9    4.9217   557.8    3.681      52.828
2015    8        3     9  15    4.9205   557.7    3.681      52.815
2015    8        3     9  20    4.9193   557.7    3.680      52.801
2015    8        3     9  26    4.9181   557.6    3.679      52.788
2015    8        3     9  31    4.9169   557.6    3.679      52.775
2015    8        3     9  37    4.9158   557.5    3.678      52.762
2015    8        3     9  43    4.9146   557.5    3.678      52.749
2015    8        3     9  48    4.9135   557.4    3.677      52.736
2015    8        3     9  54    4.9123   557.3    3.677      52.723
2015    8        3     9  59    4.9111   557.3    3.677      52.711
2015    8        3    10   5    4.9099   557.2    3.677      52.698
2015    8        3    10  10    4.9087   557.2    3.676      52.686
2015    8        3    10  16    4.9074   557.1    3.676      52.674
2015    8        3    10  22    4.9061   557.1    3.676      52.662
2015    8        3    10  27    4.9048   557.0    3.676      52.650
2015    8        3    10  33    4.9034   557.0    3.676      52.638
2015    8        3    10  38    4.9020   556.9    3.676      52.626
2015    8        3    10  44    4.9005   556.9    3.676      52.614
2015    8        3    10  49    4.8990   556.8    3.676      52.601
2015    8        3    10  55    4.8974   556.8    3.676      52.589
2015    8        3    11   1    4.8958   556.8    3.676      52.575
2015    8        3    11   6    4.8942   556.7    3.676      52.561
2015    8        3    11  12    4.8925   556.7    3.676      52.546
2015    8        3    11  17    4.8908   556.6    3.676      52.531
2015    8        3    11  23    4.8891   556.6    3.676      52.515
2015    8        3    11  28    4.8874   556.5    3.676      52.499
2015    8        3    11  34    4.8856   556.5    3.675      52.483
2015    8        3    11  40    4.8839   556.4    3.675      52.466
2015    8        3    11  45    4.8821   556.3    3.675      52.448
2015    8        3    11  51    4.8803   556.3    3.675      52.431
2015    8        3    11  56    4.8785   556.2    3.675      52.412
2015    8        3    12   2    4.8767   556.2    3.675      52.393
2015    8        3    12   7    4.8749   556.1    3.674      52.374
2015    8        3    12  13    4.8730   556.0    3.674      52.355
2015    8        3    12  19    4.8712   556.0    3.674      52.335
2015    8        3    12  24    4.8694   555.9    3.673      52.315
2015    8        3    12  30    4.8675   555.9    3.673      52.294
2015    8        3    12  35    4.8657   555.8    3.673      52.274
2015    8        3    12  41    4.8639   555.7    3.672      52.254
2015    8        3    12  46    4.8621   555.7    3.672      52.234
2015    8        3    12  52    4.8603   555.6    3.672      52.213
2015    8        3    12  57    4.8585   555.5    3.671      52.193
2015    8        3    13   3    4.8567   555.5    3.671      52.173
2015    8        3    13   9    4.8549   555.4    3.671      52.153
2015    8        3    13  14    4.8532   555.3    3.671      52.133
2015    8        3    13  20    4.8515   555.2    3.670      52.114
2015    8        3    13  25    4.8497   555.2    3.670      52.094
2015    8        3    13  31    4.8481   555.1    3.670      52.076
2015    8        3    13  36    4.8464   555.0    3.670      52.057
2015    8        3    13  42    4.8448   555.0    3.670      52.039
2015    8        3    13  48    4.8432   554.9    3.670      52.021
2015    8        3    13  53    4.8416   554.8    3.670      52.005
2015    8        3    13  59    4.8401   554.8    3.670      51.988
2015    8        3    14   4    4.8386   554.7    3.670      51.972
2015    8        3    14  10    4.8371   554.6    3.670      51.956
2015    8        3    14  15    4.8357   554.5    3.670      51.941
2015    8        3    14  21    4.8344   554.5    3.670      51.926
2015    8        3    14  27    4.8330   554.4    3.671      51.911
2015    8        3    14  32    4.8318   554.3    3.671      51.897
2015    8        3    14  38    4.8305   554.2    3.671      51.883
2015    8        3    14  43    4.8293   554.2    3.672      51.871
2015    8        3    14  49    4.8280   554.1    3.672      51.859
2015    8        3    14  54    4.8268   554.0    3.673      51.849
2015    8        3    15   0    4.8255   554.0    3.673      51.839
2015    8        3    15   6    4.8243   553.9    3.674      51.830
2015    8        3    15  11    4.8230   553.8    3.674      51.822
2015    8        3    15  17    4.8217   553.8    3.674      51.813
2015    8        3    15  22    4.8204   553.7    3.674      51.804
2015    8        3    15  28    4.8191   553.6    3.674      51.794
2015    8        3    15  33    4.8178   553.6    3.675      51.784
2015    8        3    15  39    4.8164   553.5    3.674      51.773
2015    8        3    15  45    4.8151   553.4    3.674      51.761
2015    8        3    15  50    4.8137   553.4    3.674      51.749
2015    8        3    15  56    4.8123   553.3    3.674      51.736
2015    8        3    16   1    4.8109   553.2    3.674      51.722
2015    8        3    16   7    4.8096   553.1    3.673      51.707
2015    8        3    16  12    4.8082   553.1    3.673      51.692
2015    8        3    16  18    4.8068   553.0    3.672      51.676
2015    8        3    16  24    4.8054   552.9    3.672      51.660
2015    8        3    16  29    4.8040   552.8    3.671      51.643
2015    8        3    16  35    4.8026   552.8    3.671      51.626
2015    8        3    16  40    4.8012   552.7    3.670      51.609
2015    8        3    16  46    4.7998   552.6    3.670      51.590
2015    8        3    16  51    4.7983   552.5    3.669      51.572
2015    8        3    16  57    4.7969   552.5    3.668      51.554
2015    8        3    17   3    4.7954   552.4    3.668      51.535
2015    8        3    17   8    4.7939   552.3    3.667      51.516
2015    8        3    17  14    4.7924   552.2    3.667      51.497
2015    8        3    17  19    4.7908   552.1    3.666      51.478
2015    8        3    17  25    4.7893   552.1    3.665      51.458
2015    8        3    17  30    4.7877   552.0    3.665      51.438
2015    8        3    17  36    4.7861   551.9    3.664      51.419
2015    8        3    17  42    4.7845   551.8    3.663      51.398
2015    8        3    17  47    4.7829   551.7    3.663      51.378
2015    8        3    17  53    4.7812   551.7    3.662      51.357
2015    8        3    17  58    4.7796   551.6    3.662      51.337
2015    8        3    18   4    4.7779   551.5    3.661      51.315
2015    8        3    18   9    4.7762   551.4    3.660      51.294
2015    8        3    18  15    4.7745   551.3    3.659      51.271
2015    8        3    18  21    4.7728   551.3    3.659      51.248
2015    8        3    18  26    4.7711   551.2    3.658      51.224
2015    8        3    18  32    4.7694   551.1    3.657      51.201
2015    8        3    18  37    4.7676   551.0    3.656      51.176
2015    8        3    18  43    4.7659   550.9    3.655      51.151
2015    8        3    18  48    4.7642   550.8    3.655      51.125
2015    8        3    18  54    4.7625   550.7    3.654      51.099
2015    8        3    19   0    4.7607   550.6    3.653      51.073
2015    8        3    19   5    4.7590   550.6    3.652      51.046
2015    8        3    19  11    4.7573   550.5    3.651      51.019
2015    8        3    19  16    4.7555   550.4    3.650      50.992
2015    8        3    19  22    4.7538   550.3    3.649      50.964
2015    8        3    19  27    4.7521   550.2    3.648      50.936
2015    8        3    19  33    4.7504   550.1    3.647      50.907
2015    8        3    19  38    4.7486   550.0    3.646      50.879
2015    8        3    19  44    4.7469   549.9    3.645      50.850
2015    8        3    19  50    4.7452   549.8    3.645      50.822
2015    8        3    19  55    4.7435   549.7    3.644      50.793
2015    8        3    20   1    4.7419   549.6    3.643      50.764
2015    8        3    20   6    4.7402   549.5    3.642      50.736
2015    8        3    20  12    4.7385   549.4    3.641      50.707
2015    8        3    20  17    4.7369   549.3    3.641      50.679
2015    8        3    20  23    4.7353   549.2    3.640      50.651
2015    8        3    20  29    4.7337   549.1    3.639      50.623
2015    8        3    20  34    4.7321   549.0    3.639      50.596
2015    8        3    20  40    4.7305   548.9    3.639      50.569
2015    8        3    20  45    4.7290   548.8    3.638      50.544
2015    8        3    20  51    4.7275   548.7    3.638      50.518
2015    8        3    20  56    4.7260   548.6    3.638      50.493
2015    8        3    21   2    4.7245   548.5    3.638      50.468
2015    8        3    21   8    4.7231   548.4    3.638      50.445
2015    8        3    21  13    4.7216   548.3    3.638      50.421
2015    8        3    21  19    4.7203   548.3    3.638      50.399
2015    8        3    21  24    4.7189   548.2    3.638      50.378
2015    8        3    21  30    4.7176   548.1    3.639      50.357
2015    8        3    21  35    4.7163   548.0    3.639      50.337
2015    8        3    21  41    4.7150   547.9    3.640      50.319
2015    8        3    21  47    4.7138   547.8    3.641      50.300
2015    8        3    21  52    4.7126   547.7    3.642      50.283
2015    8        3    21  58    4.7114   547.6    3.643      50.267
2015    8        3    22   3    4.7101   547.5    3.644      50.253
2015    8        3    22   9    4.7089   547.4    3.645      50.240
2015    8        3    22  14    4.7076   547.3    3.646      50.228
2015    8        3    22  20    4.7063   547.2    3.648      50.217
2015    8        3    22  26    4.7050   547.1    3.649      50.208
2015    8        3    22  31    4.7036   547.0    3.650      50.199
2015    8        3    22  37    4.7022   547.0    3.651      50.189
2015    8        3    22  42    4.7008   546.9    3.652      50.179
2015    8        3    22  48    4.6994   546.8    3.653      50.169
2015    8        3    22  53    4.6979   546.7    3.654      50.159
2015    8        3    22  59    4.6964   546.6    3.655      50.149
2015    8        3    23   5    4.6949   546.5    3.656      50.138
2015    8        3    23  10    4.6934   546.4    3.657      50.127
2015    8        3    23  16    4.6918   546.3    3.658      50.115
2015    8        3    23  21    4.6903   546.2    3.659      50.103
2015    8        3    23  27    4.6887   546.1    3.660      50.091
2015    8        3    23  32    4.6871   546.0    3.661      50.078
2015    8        3    23  38    4.6855   545.9    3.662      50.065
2015    8        3    23  44    4.6839   545.8    3.662      50.051
2015    8        3    23  49    4.6822   545.7    3.663      50.037
2015    8        3    23  55    4.6806   545.6    3.664      50.022
2015    8        4     0   0    4.6790   545.5    3.664      50.007
