year    month   day   hour  minute  B_enl V_enl   n_enl       T_enl
[year] [month] [day] [hour][minute] [nT]  [km/s]  [cm-3]      [kK]
2015    7       26     0   1    4.4905   429.1    5.917      35.933
2015    7       26     0   7    4.4907   429.0    5.920      35.925
2015    7       26     0  13    4.4908   428.9    5.923      35.918
2015    7       26     0  18    4.4910   428.8    5.927      35.910
2015    7       26     0  24    4.4911   428.6    5.930      35.903
2015    7       26     0  30    4.4913   428.5    5.933      35.896
2015    7       26     0  36    4.4915   428.4    5.937      35.888
2015    7       26     0  42    4.4917   428.3    5.940      35.881
2015    7       26     0  47    4.4919   428.2    5.944      35.874
2015    7       26     0  53    4.4920   428.1    5.947      35.867
2015    7       26     0  59    4.4923   428.0    5.951      35.860
2015    7       26     1   5    4.4925   427.9    5.955      35.853
2015    7       26     1  11    4.4927   427.7    5.958      35.847
2015    7       26     1  16    4.4929   427.6    5.962      35.840
2015    7       26     1  22    4.4931   427.5    5.966      35.834
2015    7       26     1  28    4.4934   427.4    5.970      35.828
2015    7       26     1  34    4.4936   427.3    5.973      35.822
2015    7       26     1  40    4.4939   427.2    5.977      35.816
2015    7       26     1  45    4.4941   427.0    5.981      35.811
2015    7       26     1  51    4.4944   426.9    5.985      35.805
2015    7       26     1  57    4.4946   426.8    5.989      35.800
2015    7       26     2   3    4.4949   426.7    5.993      35.795
2015    7       26     2   8    4.4951   426.6    5.997      35.790
2015    7       26     2  14    4.4954   426.5    6.001      35.785
2015    7       26     2  20    4.4957   426.3    6.005      35.780
2015    7       26     2  26    4.4960   426.2    6.009      35.776
2015    7       26     2  32    4.4962   426.1    6.014      35.771
2015    7       26     2  37    4.4965   426.0    6.018      35.767
2015    7       26     2  43    4.4968   425.9    6.022      35.763
2015    7       26     2  49    4.4971   425.7    6.026      35.758
2015    7       26     2  55    4.4974   425.6    6.031      35.755
2015    7       26     3   1    4.4977   425.5    6.035      35.751
2015    7       26     3   6    4.4980   425.4    6.039      35.747
2015    7       26     3  12    4.4983   425.3    6.044      35.743
2015    7       26     3  18    4.4987   425.1    6.048      35.740
2015    7       26     3  24    4.4990   425.0    6.053      35.736
2015    7       26     3  30    4.4993   424.9    6.057      35.733
2015    7       26     3  35    4.4997   424.8    6.062      35.729
2015    7       26     3  41    4.5000   424.7    6.066      35.726
2015    7       26     3  47    4.5004   424.5    6.071      35.722
2015    7       26     3  53    4.5008   424.4    6.075      35.719
2015    7       26     3  59    4.5012   424.3    6.080      35.716
2015    7       26     4   4    4.5016   424.2    6.084      35.713
2015    7       26     4  10    4.5020   424.0    6.089      35.709
2015    7       26     4  16    4.5024   423.9    6.094      35.706
2015    7       26     4  22    4.5029   423.8    6.098      35.703
2015    7       26     4  27    4.5034   423.7    6.103      35.700
2015    7       26     4  33    4.5038   423.6    6.108      35.697
2015    7       26     4  39    4.5043   423.4    6.113      35.694
2015    7       26     4  45    4.5048   423.3    6.118      35.691
2015    7       26     4  51    4.5053   423.2    6.122      35.688
2015    7       26     4  56    4.5059   423.1    6.127      35.685
2015    7       26     5   2    4.5064   422.9    6.132      35.682
2015    7       26     5   8    4.5070   422.8    6.137      35.679
2015    7       26     5  14    4.5076   422.7    6.142      35.676
2015    7       26     5  20    4.5082   422.6    6.147      35.673
2015    7       26     5  25    4.5088   422.4    6.152      35.670
2015    7       26     5  31    4.5095   422.3    6.157      35.668
2015    7       26     5  37    4.5102   422.2    6.163      35.665
2015    7       26     5  43    4.5109   422.1    6.168      35.662
2015    7       26     5  49    4.5115   422.0    6.173      35.660
2015    7       26     5  54    4.5123   421.8    6.178      35.657
2015    7       26     6   0    4.5130   421.7    6.184      35.654
2015    7       26     6   6    4.5138   421.6    6.189      35.652
2015    7       26     6  12    4.5145   421.5    6.194      35.649
2015    7       26     6  18    4.5153   421.3    6.200      35.647
2015    7       26     6  23    4.5161   421.2    6.205      35.644
2015    7       26     6  29    4.5170   421.1    6.211      35.642
2015    7       26     6  35    4.5178   421.0    6.216      35.639
2015    7       26     6  41    4.5187   420.9    6.222      35.637
2015    7       26     6  47    4.5195   420.7    6.227      35.635
2015    7       26     6  52    4.5204   420.6    6.233      35.632
2015    7       26     6  58    4.5213   420.5    6.238      35.630
2015    7       26     7   4    4.5221   420.4    6.244      35.628
2015    7       26     7  10    4.5230   420.3    6.249      35.625
2015    7       26     7  16    4.5239   420.1    6.255      35.623
2015    7       26     7  21    4.5248   420.0    6.260      35.621
2015    7       26     7  27    4.5257   419.9    6.266      35.618
2015    7       26     7  33    4.5266   419.8    6.272      35.616
2015    7       26     7  39    4.5275   419.6    6.277      35.614
2015    7       26     7  45    4.5284   419.5    6.283      35.612
2015    7       26     7  50    4.5293   419.4    6.288      35.609
2015    7       26     7  56    4.5302   419.3    6.294      35.607
2015    7       26     8   2    4.5311   419.2    6.299      35.605
2015    7       26     8   8    4.5320   419.0    6.305      35.602
2015    7       26     8  14    4.5329   418.9    6.310      35.600
2015    7       26     8  19    4.5338   418.8    6.316      35.597
2015    7       26     8  25    4.5347   418.7    6.321      35.595
2015    7       26     8  31    4.5356   418.5    6.326      35.592
2015    7       26     8  37    4.5365   418.4    6.332      35.590
2015    7       26     8  43    4.5374   418.3    6.337      35.587
2015    7       26     8  48    4.5383   418.2    6.342      35.585
2015    7       26     8  54    4.5393   418.0    6.347      35.583
2015    7       26     9   0    4.5402   417.9    6.352      35.580
2015    7       26     9   6    4.5411   417.8    6.358      35.578
2015    7       26     9  12    4.5421   417.7    6.363      35.576
2015    7       26     9  17    4.5431   417.5    6.368      35.574
2015    7       26     9  23    4.5440   417.4    6.373      35.571
2015    7       26     9  29    4.5450   417.3    6.378      35.569
2015    7       26     9  35    4.5460   417.2    6.383      35.567
2015    7       26     9  41    4.5471   417.0    6.388      35.565
2015    7       26     9  46    4.5481   416.9    6.393      35.563
2015    7       26     9  52    4.5492   416.8    6.398      35.562
2015    7       26     9  58    4.5503   416.7    6.403      35.560
2015    7       26    10   4    4.5513   416.5    6.408      35.559
2015    7       26    10  10    4.5525   416.4    6.413      35.557
2015    7       26    10  15    4.5536   416.3    6.418      35.556
2015    7       26    10  21    4.5548   416.2    6.423      35.554
2015    7       26    10  27    4.5560   416.0    6.428      35.553
2015    7       26    10  33    4.5572   415.9    6.433      35.552
2015    7       26    10  38    4.5584   415.8    6.438      35.551
2015    7       26    10  44    4.5597   415.7    6.443      35.550
2015    7       26    10  50    4.5609   415.5    6.448      35.549
2015    7       26    10  56    4.5622   415.4    6.453      35.548
2015    7       26    11   2    4.5636   415.3    6.458      35.548
2015    7       26    11   7    4.5649   415.2    6.463      35.547
2015    7       26    11  13    4.5663   415.0    6.468      35.547
2015    7       26    11  19    4.5678   414.9    6.473      35.547
2015    7       26    11  25    4.5692   414.8    6.478      35.546
2015    7       26    11  31    4.5707   414.7    6.483      35.546
2015    7       26    11  36    4.5721   414.5    6.489      35.546
2015    7       26    11  42    4.5737   414.4    6.494      35.546
2015    7       26    11  48    4.5752   414.3    6.499      35.547
2015    7       26    11  54    4.5768   414.2    6.505      35.547
2015    7       26    11  59    4.5784   414.0    6.510      35.547
2015    7       26    12   5    4.5801   413.9    6.515      35.548
2015    7       26    12  11    4.5817   413.8    6.521      35.549
2015    7       26    12  17    4.5834   413.7    6.527      35.550
2015    7       26    12  23    4.5851   413.5    6.532      35.551
2015    7       26    12  28    4.5869   413.4    6.538      35.552
2015    7       26    12  34    4.5887   413.3    6.544      35.554
2015    7       26    12  40    4.5905   413.2    6.550      35.555
2015    7       26    12  46    4.5923   413.0    6.556      35.557
2015    7       26    12  52    4.5942   412.9    6.562      35.559
2015    7       26    12  57    4.5961   412.8    6.568      35.562
2015    7       26    13   3    4.5980   412.7    6.575      35.564
2015    7       26    13   9    4.6000   412.5    6.581      35.567
2015    7       26    13  15    4.6020   412.4    6.587      35.570
2015    7       26    13  21    4.6040   412.3    6.594      35.573
2015    7       26    13  26    4.6060   412.2    6.601      35.577
2015    7       26    13  32    4.6081   412.1    6.608      35.580
2015    7       26    13  38    4.6102   411.9    6.614      35.584
2015    7       26    13  44    4.6123   411.8    6.621      35.588
2015    7       26    13  50    4.6144   411.7    6.628      35.593
2015    7       26    13  55    4.6165   411.6    6.635      35.597
2015    7       26    14   1    4.6187   411.5    6.643      35.602
2015    7       26    14   7    4.6209   411.4    6.650      35.607
2015    7       26    14  13    4.6231   411.2    6.657      35.612
2015    7       26    14  19    4.6253   411.1    6.665      35.618
2015    7       26    14  24    4.6275   411.0    6.672      35.623
2015    7       26    14  30    4.6298   410.9    6.680      35.629
2015    7       26    14  36    4.6320   410.8    6.687      35.635
2015    7       26    14  42    4.6343   410.7    6.695      35.641
2015    7       26    14  48    4.6366   410.6    6.703      35.647
2015    7       26    14  53    4.6389   410.5    6.710      35.653
2015    7       26    14  59    4.6412   410.3    6.718      35.660
2015    7       26    15   5    4.6435   410.2    6.726      35.666
2015    7       26    15  11    4.6458   410.1    6.734      35.673
2015    7       26    15  17    4.6482   410.0    6.741      35.680
2015    7       26    15  23    4.6505   409.9    6.749      35.688
2015    7       26    15  28    4.6528   409.8    6.757      35.695
2015    7       26    15  34    4.6552   409.7    6.765      35.703
2015    7       26    15  40    4.6575   409.6    6.772      35.710
2015    7       26    15  46    4.6599   409.5    6.780      35.718
2015    7       26    15  51    4.6623   409.4    6.788      35.727
2015    7       26    15  57    4.6647   409.3    6.795      35.735
2015    7       26    16   3    4.6671   409.2    6.803      35.743
2015    7       26    16   9    4.6695   409.0    6.810      35.752
2015    7       26    16  15    4.6719   408.9    6.818      35.761
2015    7       26    16  20    4.6743   408.8    6.825      35.770
2015    7       26    16  26    4.6768   408.7    6.833      35.780
2015    7       26    16  32    4.6792   408.6    6.840      35.789
2015    7       26    16  38    4.6817   408.5    6.847      35.799
2015    7       26    16  44    4.6842   408.4    6.855      35.809
2015    7       26    16  49    4.6867   408.3    6.862      35.819
2015    7       26    16  55    4.6893   408.2    6.869      35.830
2015    7       26    17   1    4.6918   408.1    6.876      35.840
2015    7       26    17   7    4.6944   408.0    6.883      35.851
2015    7       26    17  13    4.6970   407.9    6.890      35.862
2015    7       26    17  18    4.6997   407.8    6.898      35.873
2015    7       26    17  24    4.7023   407.7    6.905      35.884
2015    7       26    17  30    4.7050   407.6    6.912      35.895
2015    7       26    17  36    4.7077   407.5    6.919      35.907
2015    7       26    17  42    4.7104   407.4    6.926      35.919
2015    7       26    17  47    4.7132   407.3    6.933      35.931
2015    7       26    17  53    4.7160   407.2    6.940      35.943
2015    7       26    17  59    4.7188   407.1    6.947      35.956
2015    7       26    18   5    4.7217   407.0    6.953      35.968
2015    7       26    18  11    4.7245   406.9    6.960      35.981
2015    7       26    18  16    4.7275   406.9    6.967      35.994
2015    7       26    18  22    4.7304   406.8    6.974      36.008
2015    7       26    18  28    4.7333   406.7    6.981      36.021
2015    7       26    18  34    4.7363   406.6    6.987      36.035
2015    7       26    18  39    4.7393   406.5    6.994      36.049
2015    7       26    18  45    4.7422   406.4    7.001      36.063
2015    7       26    18  51    4.7453   406.3    7.007      36.078
2015    7       26    18  57    4.7483   406.2    7.014      36.093
2015    7       26    19   3    4.7513   406.1    7.021      36.107
2015    7       26    19   8    4.7544   406.1    7.027      36.122
2015    7       26    19  14    4.7575   406.0    7.034      36.137
2015    7       26    19  20    4.7605   405.9    7.040      36.152
2015    7       26    19  26    4.7637   405.8    7.047      36.167
2015    7       26    19  32    4.7668   405.7    7.053      36.182
2015    7       26    19  37    4.7699   405.6    7.060      36.198
2015    7       26    19  43    4.7730   405.5    7.066      36.213
2015    7       26    19  49    4.7762   405.5    7.073      36.228
2015    7       26    19  55    4.7794   405.4    7.079      36.244
2015    7       26    20   1    4.7826   405.3    7.086      36.260
2015    7       26    20   6    4.7858   405.2    7.092      36.275
2015    7       26    20  12    4.7891   405.1    7.099      36.291
2015    7       26    20  18    4.7923   405.1    7.105      36.307
2015    7       26    20  24    4.7956   405.0    7.112      36.323
2015    7       26    20  29    4.7988   404.9    7.119      36.339
2015    7       26    20  35    4.8021   404.8    7.125      36.355
2015    7       26    20  41    4.8054   404.7    7.132      36.371
2015    7       26    20  47    4.8087   404.7    7.139      36.388
2015    7       26    20  53    4.8121   404.6    7.145      36.404
2015    7       26    20  58    4.8154   404.5    7.152      36.421
2015    7       26    21   4    4.8187   404.4    7.159      36.437
2015    7       26    21  10    4.8221   404.4    7.166      36.454
2015    7       26    21  16    4.8255   404.3    7.173      36.471
2015    7       26    21  22    4.8288   404.2    7.180      36.488
2015    7       26    21  27    4.8322   404.1    7.187      36.505
2015    7       26    21  33    4.8356   404.1    7.194      36.523
2015    7       26    21  39    4.8390   404.0    7.201      36.540
2015    7       26    21  45    4.8424   403.9    7.209      36.557
2015    7       26    21  50    4.8458   403.8    7.216      36.575
2015    7       26    21  56    4.8493   403.8    7.223      36.592
2015    7       26    22   2    4.8527   403.7    7.231      36.610
2015    7       26    22   8    4.8562   403.6    7.238      36.628
2015    7       26    22  14    4.8596   403.6    7.246      36.646
2015    7       26    22  19    4.8631   403.5    7.254      36.664
2015    7       26    22  25    4.8666   403.4    7.261      36.682
2015    7       26    22  31    4.8701   403.4    7.269      36.701
2015    7       26    22  37    4.8737   403.3    7.277      36.719
2015    7       26    22  43    4.8772   403.2    7.285      36.738
2015    7       26    22  48    4.8808   403.2    7.293      36.757
2015    7       26    22  54    4.8844   403.1    7.301      36.777
2015    7       26    23   0    4.8879   403.0    7.310      36.796
2015    7       26    23   6    4.8916   403.0    7.318      36.816
2015    7       26    23  11    4.8952   402.9    7.326      36.837
2015    7       26    23  17    4.8989   402.9    7.335      36.857
2015    7       26    23  23    4.9026   402.8    7.344      36.878
2015    7       26    23  29    4.9063   402.7    7.352      36.900
2015    7       26    23  35    4.9100   402.7    7.361      36.922
2015    7       26    23  40    4.9138   402.6    7.370      36.944
2015    7       26    23  46    4.9175   402.6    7.378      36.967
2015    7       26    23  52    4.9213   402.5    7.387      36.991
2015    7       26    23  58    4.9250   402.5    7.396      37.016
2015    7       27     0   4    4.9288   402.4    7.405      37.041
2015    7       27     0   9    4.9326   402.4    7.413      37.066
2015    7       27     0  15    4.9365   402.3    7.422      37.092
2015    7       27     0  21    4.9402   402.3    7.431      37.118
2015    7       27     0  27    4.9441   402.2    7.439      37.145
2015    7       27     0  32    4.9479   402.2    7.447      37.172
2015    7       27     0  38    4.9517   402.1    7.456      37.199
2015    7       27     0  44    4.9555   402.1    7.464      37.226
2015    7       27     0  50    4.9594   402.1    7.472      37.254
2015    7       27     0  56    4.9632   402.0    7.480      37.282
2015    7       27     1   1    4.9670   402.0    7.487      37.311
2015    7       27     1   7    4.9708   401.9    7.495      37.339
2015    7       27     1  13    4.9745   401.9    7.502      37.367
2015    7       27     1  19    4.9783   401.9    7.510      37.396
2015    7       27     1  25    4.9821   401.8    7.517      37.424
2015    7       27     1  30    4.9858   401.8    7.524      37.452
2015    7       27     1  36    4.9896   401.8    7.531      37.480
2015    7       27     1  42    4.9933   401.7    7.537      37.508
2015    7       27     1  48    4.9970   401.7    7.544      37.536
2015    7       27     1  53    5.0007   401.7    7.550      37.564
2015    7       27     1  59    5.0043   401.7    7.556      37.592
2015    7       27     2   5    5.0080   401.6    7.562      37.619
2015    7       27     2  11    5.0117   401.6    7.568      37.647
2015    7       27     2  17    5.0153   401.6    7.574      37.674
2015    7       27     2  22    5.0189   401.5    7.580      37.701
2015    7       27     2  28    5.0225   401.5    7.585      37.727
2015    7       27     2  34    5.0261   401.5    7.591      37.754
2015    7       27     2  40    5.0297   401.5    7.596      37.780
2015    7       27     2  46    5.0332   401.4    7.601      37.806
2015    7       27     2  51    5.0368   401.4    7.606      37.832
2015    7       27     2  57    5.0404   401.4    7.611      37.857
2015    7       27     3   3    5.0439   401.3    7.616      37.882
2015    7       27     3   9    5.0474   401.3    7.621      37.907
2015    7       27     3  14    5.0510   401.3    7.626      37.931
2015    7       27     3  20    5.0545   401.3    7.631      37.956
2015    7       27     3  26    5.0580   401.2    7.636      37.980
2015    7       27     3  32    5.0615   401.2    7.640      38.004
2015    7       27     3  38    5.0650   401.2    7.645      38.028
2015    7       27     3  43    5.0686   401.2    7.650      38.051
2015    7       27     3  49    5.0721   401.1    7.654      38.074
2015    7       27     3  55    5.0756   401.1    7.659      38.097
2015    7       27     4   1    5.0791   401.1    7.663      38.120
2015    7       27     4   7    5.0826   401.1    7.668      38.143
2015    7       27     4  12    5.0861   401.0    7.672      38.166
2015    7       27     4  18    5.0896   401.0    7.677      38.188
2015    7       27     4  24    5.0931   401.0    7.681      38.211
2015    7       27     4  30    5.0966   401.0    7.685      38.233
2015    7       27     4  35    5.1001   400.9    7.690      38.255
2015    7       27     4  41    5.1036   400.9    7.694      38.277
2015    7       27     4  47    5.1071   400.9    7.699      38.299
2015    7       27     4  53    5.1106   400.9    7.703      38.321
2015    7       27     4  59    5.1141   400.9    7.708      38.343
2015    7       27     5   4    5.1176   400.8    7.712      38.365
2015    7       27     5  10    5.1211   400.8    7.717      38.387
2015    7       27     5  16    5.1246   400.8    7.722      38.410
2015    7       27     5  22    5.1282   400.8    7.727      38.432
2015    7       27     5  28    5.1317   400.8    7.732      38.454
2015    7       27     5  33    5.1353   400.8    7.736      38.476
2015    7       27     5  39    5.1388   400.7    7.742      38.498
2015    7       27     5  45    5.1424   400.7    7.747      38.520
2015    7       27     5  51    5.1460   400.7    7.752      38.543
2015    7       27     5  56    5.1495   400.7    7.757      38.565
2015    7       27     6   2    5.1532   400.7    7.763      38.588
2015    7       27     6   8    5.1567   400.7    7.768      38.611
2015    7       27     6  14    5.1604   400.7    7.774      38.634
2015    7       27     6  20    5.1640   400.6    7.780      38.657
2015    7       27     6  25    5.1677   400.6    7.786      38.681
2015    7       27     6  31    5.1714   400.6    7.792      38.704
2015    7       27     6  37    5.1751   400.6    7.799      38.728
2015    7       27     6  43    5.1788   400.6    7.805      38.752
2015    7       27     6  49    5.1825   400.6    7.812      38.776
2015    7       27     6  54    5.1862   400.6    7.819      38.800
2015    7       27     7   0    5.1900   400.6    7.826      38.825
2015    7       27     7   6    5.1937   400.6    7.833      38.851
2015    7       27     7  12    5.1974   400.6    7.840      38.877
2015    7       27     7  17    5.2011   400.6    7.847      38.904
2015    7       27     7  23    5.2049   400.6    7.854      38.931
2015    7       27     7  29    5.2086   400.6    7.861      38.959
2015    7       27     7  35    5.2123   400.6    7.868      38.986
2015    7       27     7  41    5.2159   400.6    7.875      39.014
2015    7       27     7  46    5.2196   400.6    7.882      39.042
2015    7       27     7  52    5.2232   400.6    7.889      39.071
2015    7       27     7  58    5.2269   400.6    7.896      39.099
2015    7       27     8   4    5.2304   400.6    7.903      39.128
2015    7       27     8  10    5.2340   400.6    7.909      39.158
2015    7       27     8  15    5.2375   400.7    7.915      39.187
2015    7       27     8  21    5.2411   400.7    7.922      39.217
2015    7       27     8  27    5.2446   400.7    7.928      39.247
2015    7       27     8  33    5.2480   400.7    7.934      39.276
2015    7       27     8  38    5.2515   400.7    7.939      39.306
2015    7       27     8  44    5.2549   400.7    7.945      39.335
2015    7       27     8  50    5.2583   400.7    7.950      39.365
2015    7       27     8  56    5.2617   400.7    7.956      39.394
2015    7       27     9   2    5.2650   400.7    7.961      39.423
2015    7       27     9   7    5.2683   400.7    7.965      39.452
2015    7       27     9  13    5.2717   400.8    7.970      39.481
2015    7       27     9  19    5.2749   400.8    7.974      39.509
2015    7       27     9  25    5.2782   400.8    7.979      39.538
2015    7       27     9  31    5.2815   400.8    7.983      39.566
2015    7       27     9  36    5.2847   400.8    7.987      39.593
2015    7       27     9  42    5.2879   400.8    7.990      39.621
2015    7       27     9  48    5.2910   400.8    7.994      39.648
2015    7       27     9  54    5.2942   400.9    7.997      39.674
2015    7       27     9  59    5.2973   400.9    8.001      39.700
2015    7       27    10   5    5.3004   400.9    8.004      39.725
2015    7       27    10  11    5.3035   400.9    8.007      39.750
2015    7       27    10  17    5.3065   400.9    8.010      39.774
2015    7       27    10  23    5.3096   400.9    8.012      39.798
2015    7       27    10  28    5.3126   400.9    8.015      39.822
2015    7       27    10  34    5.3156   401.0    8.017      39.845
2015    7       27    10  40    5.3186   401.0    8.020      39.868
2015    7       27    10  46    5.3215   401.0    8.022      39.890
2015    7       27    10  52    5.3245   401.0    8.024      39.912
2015    7       27    10  57    5.3274   401.0    8.026      39.933
2015    7       27    11   3    5.3303   401.0    8.028      39.954
2015    7       27    11   9    5.3332   401.1    8.030      39.974
2015    7       27    11  15    5.3360   401.1    8.031      39.994
2015    7       27    11  20    5.3389   401.1    8.033      40.014
2015    7       27    11  26    5.3417   401.1    8.035      40.034
2015    7       27    11  32    5.3446   401.1    8.036      40.053
2015    7       27    11  38    5.3474   401.2    8.038      40.071
2015    7       27    11  44    5.3502   401.2    8.039      40.090
2015    7       27    11  49    5.3530   401.2    8.041      40.108
2015    7       27    11  55    5.3558   401.2    8.042      40.126
2015    7       27    12   1    5.3586   401.2    8.043      40.143
2015    7       27    12   7    5.3613   401.3    8.044      40.161
2015    7       27    12  13    5.3641   401.3    8.046      40.178
2015    7       27    12  18    5.3669   401.3    8.047      40.195
2015    7       27    12  24    5.3697   401.3    8.048      40.212
2015    7       27    12  30    5.3724   401.3    8.049      40.228
2015    7       27    12  36    5.3752   401.4    8.051      40.245
2015    7       27    12  42    5.3780   401.4    8.052      40.261
2015    7       27    12  47    5.3807   401.4    8.053      40.278
2015    7       27    12  53    5.3835   401.4    8.054      40.294
2015    7       27    12  59    5.3862   401.4    8.056      40.311
2015    7       27    13   5    5.3890   401.5    8.057      40.327
2015    7       27    13  10    5.3917   401.5    8.059      40.343
2015    7       27    13  16    5.3945   401.5    8.060      40.359
2015    7       27    13  22    5.3972   401.5    8.061      40.375
2015    7       27    13  28    5.4000   401.6    8.063      40.392
2015    7       27    13  34    5.4027   401.6    8.065      40.408
2015    7       27    13  39    5.4054   401.6    8.066      40.424
2015    7       27    13  45    5.4082   401.6    8.068      40.440
2015    7       27    13  51    5.4109   401.7    8.070      40.456
2015    7       27    13  57    5.4136   401.7    8.072      40.472
2015    7       27    14   2    5.4164   401.7    8.074      40.488
2015    7       27    14   8    5.4191   401.7    8.076      40.504
2015    7       27    14  14    5.4219   401.8    8.078      40.520
2015    7       27    14  20    5.4246   401.8    8.080      40.536
2015    7       27    14  26    5.4273   401.8    8.083      40.552
2015    7       27    14  31    5.4300   401.8    8.085      40.568
2015    7       27    14  37    5.4328   401.9    8.088      40.584
2015    7       27    14  43    5.4355   401.9    8.090      40.601
2015    7       27    14  49    5.4383   401.9    8.093      40.617
2015    7       27    14  55    5.4410   402.0    8.096      40.633
2015    7       27    15   0    5.4438   402.0    8.099      40.650
2015    7       27    15   6    5.4466   402.0    8.103      40.666
2015    7       27    15  12    5.4493   402.1    8.106      40.683
2015    7       27    15  18    5.4521   402.1    8.109      40.700
2015    7       27    15  23    5.4549   402.1    8.113      40.717
2015    7       27    15  29    5.4577   402.2    8.116      40.735
2015    7       27    15  35    5.4606   402.2    8.120      40.754
2015    7       27    15  41    5.4634   402.2    8.124      40.773
2015    7       27    15  47    5.4662   402.3    8.127      40.792
2015    7       27    15  52    5.4691   402.3    8.131      40.812
2015    7       27    15  58    5.4720   402.3    8.135      40.831
2015    7       27    16   4    5.4748   402.4    8.139      40.852
2015    7       27    16  10    5.4777   402.4    8.143      40.873
2015    7       27    16  16    5.4806   402.4    8.147      40.894
2015    7       27    16  21    5.4834   402.5    8.151      40.916
2015    7       27    16  27    5.4862   402.5    8.155      40.938
2015    7       27    16  33    5.4890   402.6    8.159      40.960
2015    7       27    16  39    5.4919   402.6    8.163      40.982
2015    7       27    16  44    5.4946   402.6    8.167      41.004
2015    7       27    16  50    5.4974   402.7    8.171      41.026
2015    7       27    16  56    5.5001   402.7    8.174      41.048
2015    7       27    17   2    5.5028   402.8    8.178      41.070
2015    7       27    17   8    5.5054   402.8    8.181      41.091
2015    7       27    17  13    5.5080   402.9    8.184      41.112
2015    7       27    17  19    5.5106   402.9    8.187      41.132
2015    7       27    17  25    5.5132   403.0    8.190      41.152
2015    7       27    17  31    5.5156   403.0    8.193      41.172
2015    7       27    17  37    5.5181   403.1    8.195      41.191
2015    7       27    17  42    5.5206   403.1    8.197      41.209
2015    7       27    17  48    5.5230   403.1    8.200      41.227
2015    7       27    17  54    5.5254   403.2    8.202      41.244
2015    7       27    18   0    5.5277   403.2    8.204      41.261
2015    7       27    18   6    5.5301   403.3    8.205      41.277
2015    7       27    18  11    5.5324   403.3    8.207      41.293
2015    7       27    18  17    5.5347   403.4    8.208      41.308
2015    7       27    18  23    5.5370   403.4    8.210      41.323
2015    7       27    18  29    5.5392   403.5    8.211      41.338
2015    7       27    18  35    5.5415   403.5    8.212      41.352
2015    7       27    18  40    5.5437   403.6    8.213      41.366
2015    7       27    18  46    5.5459   403.6    8.214      41.379
2015    7       27    18  52    5.5481   403.7    8.215      41.393
2015    7       27    18  58    5.5503   403.7    8.216      41.406
2015    7       27    19   4    5.5525   403.7    8.217      41.418
2015    7       27    19   9    5.5547   403.8    8.217      41.431
2015    7       27    19  15    5.5568   403.8    8.218      41.443
2015    7       27    19  21    5.5590   403.9    8.218      41.455
2015    7       27    19  27    5.5612   403.9    8.219      41.467
2015    7       27    19  32    5.5633   404.0    8.219      41.479
2015    7       27    19  38    5.5655   404.0    8.220      41.490
2015    7       27    19  44    5.5676   404.1    8.220      41.502
2015    7       27    19  50    5.5697   404.1    8.220      41.513
2015    7       27    19  56    5.5719   404.2    8.220      41.524
2015    7       27    20   1    5.5740   404.2    8.221      41.535
2015    7       27    20   7    5.5761   404.3    8.221      41.546
2015    7       27    20  13    5.5782   404.3    8.221      41.556
2015    7       27    20  19    5.5803   404.4    8.221      41.567
2015    7       27    20  25    5.5823   404.4    8.221      41.577
2015    7       27    20  30    5.5844   404.5    8.221      41.587
2015    7       27    20  36    5.5865   404.5    8.221      41.596
2015    7       27    20  42    5.5885   404.6    8.220      41.606
2015    7       27    20  48    5.5905   404.6    8.220      41.615
2015    7       27    20  53    5.5926   404.7    8.220      41.624
2015    7       27    20  59    5.5946   404.7    8.220      41.633
2015    7       27    21   5    5.5966   404.8    8.219      41.641
2015    7       27    21  11    5.5986   404.8    8.219      41.649
2015    7       27    21  17    5.6006   404.8    8.219      41.657
2015    7       27    21  22    5.6025   404.9    8.218      41.665
2015    7       27    21  28    5.6045   404.9    8.218      41.672
2015    7       27    21  34    5.6065   405.0    8.218      41.679
2015    7       27    21  40    5.6085   405.0    8.218      41.686
2015    7       27    21  46    5.6105   405.1    8.217      41.693
2015    7       27    21  51    5.6125   405.1    8.217      41.700
2015    7       27    21  57    5.6145   405.2    8.217      41.707
2015    7       27    22   3    5.6165   405.2    8.217      41.714
2015    7       27    22   9    5.6185   405.3    8.217      41.720
2015    7       27    22  14    5.6206   405.3    8.217      41.727
2015    7       27    22  20    5.6226   405.4    8.217      41.733
2015    7       27    22  26    5.6247   405.4    8.217      41.740
2015    7       27    22  32    5.6268   405.5    8.217      41.746
2015    7       27    22  38    5.6289   405.5    8.218      41.753
2015    7       27    22  43    5.6310   405.6    8.218      41.760
2015    7       27    22  49    5.6332   405.6    8.219      41.767
2015    7       27    22  55    5.6354   405.7    8.219      41.774
2015    7       27    23   1    5.6376   405.7    8.220      41.781
2015    7       27    23   7    5.6398   405.8    8.221      41.788
2015    7       27    23  12    5.6421   405.8    8.222      41.796
2015    7       27    23  18    5.6443   405.9    8.224      41.804
2015    7       27    23  24    5.6467   405.9    8.225      41.812
2015    7       27    23  30    5.6490   406.0    8.227      41.820
2015    7       27    23  35    5.6513   406.0    8.228      41.829
2015    7       27    23  41    5.6536   406.1    8.230      41.838
2015    7       27    23  47    5.6560   406.1    8.232      41.847
2015    7       27    23  53    5.6583   406.2    8.234      41.856
2015    7       27    23  59    5.6607   406.2    8.236      41.866
2015    7       28     0   4    5.6631   406.3    8.238      41.876
2015    7       28     0  10    5.6655   406.3    8.240      41.885
2015    7       28     0  16    5.6678   406.4    8.242      41.895
2015    7       28     0  22    5.6702   406.5    8.245      41.905
2015    7       28     0  28    5.6726   406.5    8.247      41.914
2015    7       28     0  33    5.6749   406.6    8.249      41.924
2015    7       28     0  39    5.6772   406.6    8.251      41.933
2015    7       28     0  45    5.6796   406.7    8.254      41.943
2015    7       28     0  51    5.6819   406.8    8.256      41.952
2015    7       28     0  57    5.6842   406.8    8.258      41.961
2015    7       28     1   2    5.6864   406.9    8.260      41.969
2015    7       28     1   8    5.6887   406.9    8.262      41.977
2015    7       28     1  14    5.6909   407.0    8.264      41.986
2015    7       28     1  20    5.6932   407.1    8.266      41.993
2015    7       28     1  25    5.6954   407.1    8.268      42.001
2015    7       28     1  31    5.6976   407.2    8.270      42.008
2015    7       28     1  37    5.6997   407.3    8.272      42.015
2015    7       28     1  43    5.7019   407.3    8.274      42.022
2015    7       28     1  49    5.7040   407.4    8.276      42.029
2015    7       28     1  54    5.7062   407.4    8.278      42.035
2015    7       28     2   0    5.7083   407.5    8.280      42.042
2015    7       28     2   6    5.7104   407.6    8.281      42.048
2015    7       28     2  12    5.7125   407.6    8.283      42.054
2015    7       28     2  18    5.7145   407.7    8.285      42.059
2015    7       28     2  23    5.7166   407.7    8.286      42.065
2015    7       28     2  29    5.7187   407.8    8.288      42.070
2015    7       28     2  35    5.7207   407.9    8.289      42.075
2015    7       28     2  41    5.7227   407.9    8.290      42.080
2015    7       28     2  47    5.7247   408.0    8.291      42.085
2015    7       28     2  52    5.7268   408.1    8.293      42.089
2015    7       28     2  58    5.7287   408.1    8.294      42.094
2015    7       28     3   4    5.7307   408.2    8.295      42.098
2015    7       28     3  10    5.7327   408.2    8.295      42.102
2015    7       28     3  16    5.7347   408.3    8.296      42.106
2015    7       28     3  21    5.7366   408.4    8.297      42.110
2015    7       28     3  27    5.7386   408.4    8.297      42.114
2015    7       28     3  33    5.7405   408.5    8.298      42.117
2015    7       28     3  39    5.7424   408.6    8.298      42.121
2015    7       28     3  44    5.7443   408.6    8.299      42.124
2015    7       28     3  50    5.7462   408.7    8.299      42.127
2015    7       28     3  56    5.7481   408.7    8.299      42.130
2015    7       28     4   2    5.7500   408.8    8.299      42.132
2015    7       28     4   8    5.7518   408.9    8.299      42.134
2015    7       28     4  13    5.7537   408.9    8.299      42.136
2015    7       28     4  19    5.7555   409.0    8.299      42.138
2015    7       28     4  25    5.7574   409.0    8.299      42.140
2015    7       28     4  31    5.7592   409.1    8.299      42.142
2015    7       28     4  37    5.7611   409.2    8.299      42.143
2015    7       28     4  42    5.7629   409.2    8.298      42.144
2015    7       28     4  48    5.7647   409.3    8.298      42.145
2015    7       28     4  54    5.7665   409.3    8.298      42.145
2015    7       28     5   0    5.7684   409.4    8.297      42.146
2015    7       28     5   5    5.7702   409.5    8.297      42.146
2015    7       28     5  11    5.7720   409.5    8.296      42.146
2015    7       28     5  17    5.7738   409.6    8.296      42.146
2015    7       28     5  23    5.7757   409.6    8.295      42.146
2015    7       28     5  29    5.7775   409.7    8.294      42.145
2015    7       28     5  34    5.7794   409.8    8.294      42.145
2015    7       28     5  40    5.7812   409.8    8.293      42.144
2015    7       28     5  46    5.7831   409.9    8.293      42.143
2015    7       28     5  52    5.7850   409.9    8.292      42.143
2015    7       28     5  58    5.7869   410.0    8.291      42.142
2015    7       28     6   3    5.7888   410.1    8.291      42.141
2015    7       28     6   9    5.7907   410.1    8.290      42.139
2015    7       28     6  15    5.7926   410.2    8.290      42.139
2015    7       28     6  21    5.7946   410.2    8.289      42.137
2015    7       28     6  26    5.7965   410.3    8.289      42.136
2015    7       28     6  32    5.7986   410.3    8.288      42.135
2015    7       28     6  38    5.8006   410.4    8.288      42.134
2015    7       28     6  44    5.8026   410.5    8.287      42.133
2015    7       28     6  50    5.8047   410.5    8.287      42.131
2015    7       28     6  55    5.8068   410.6    8.287      42.130
2015    7       28     7   1    5.8090   410.6    8.287      42.129
2015    7       28     7   7    5.8112   410.7    8.286      42.128
2015    7       28     7  13    5.8134   410.8    8.286      42.127
2015    7       28     7  19    5.8156   410.8    8.286      42.126
2015    7       28     7  24    5.8179   410.9    8.286      42.125
2015    7       28     7  30    5.8202   411.0    8.287      42.124
2015    7       28     7  36    5.8226   411.0    8.287      42.124
2015    7       28     7  42    5.8250   411.1    8.287      42.123
2015    7       28     7  47    5.8274   411.1    8.287      42.123
2015    7       28     7  53    5.8299   411.2    8.288      42.122
2015    7       28     7  59    5.8323   411.3    8.289      42.122
2015    7       28     8   5    5.8349   411.3    8.289      42.121
2015    7       28     8  11    5.8374   411.4    8.290      42.121
2015    7       28     8  16    5.8400   411.5    8.291      42.121
2015    7       28     8  22    5.8426   411.5    8.292      42.121
2015    7       28     8  28    5.8453   411.6    8.293      42.120
2015    7       28     8  34    5.8479   411.7    8.294      42.120
2015    7       28     8  40    5.8506   411.7    8.295      42.120
2015    7       28     8  45    5.8532   411.8    8.297      42.120
2015    7       28     8  51    5.8559   411.9    8.298      42.120
2015    7       28     8  57    5.8585   411.9    8.300      42.121
2015    7       28     9   3    5.8612   412.0    8.301      42.121
2015    7       28     9   9    5.8638   412.1    8.303      42.121
2015    7       28     9  14    5.8665   412.1    8.305      42.121
2015    7       28     9  20    5.8691   412.2    8.307      42.122
2015    7       28     9  26    5.8717   412.3    8.309      42.122
2015    7       28     9  32    5.8742   412.3    8.310      42.122
2015    7       28     9  38    5.8768   412.4    8.312      42.122
2015    7       28     9  43    5.8793   412.5    8.314      42.121
2015    7       28     9  49    5.8818   412.6    8.316      42.121
2015    7       28     9  55    5.8842   412.6    8.318      42.120
2015    7       28    10   1    5.8867   412.7    8.319      42.119
2015    7       28    10   6    5.8891   412.8    8.321      42.118
2015    7       28    10  12    5.8914   412.9    8.322      42.116
2015    7       28    10  18    5.8937   412.9    8.324      42.114
2015    7       28    10  24    5.8960   413.0    8.325      42.112
2015    7       28    10  30    5.8983   413.1    8.326      42.110
2015    7       28    10  35    5.9006   413.1    8.327      42.107
2015    7       28    10  41    5.9028   413.2    8.328      42.104
2015    7       28    10  47    5.9050   413.3    8.329      42.101
2015    7       28    10  53    5.9072   413.4    8.329      42.098
2015    7       28    10  59    5.9094   413.4    8.330      42.094
2015    7       28    11   4    5.9115   413.5    8.330      42.090
2015    7       28    11  10    5.9137   413.6    8.330      42.086
2015    7       28    11  16    5.9158   413.6    8.331      42.082
2015    7       28    11  22    5.9180   413.7    8.331      42.078
2015    7       28    11  27    5.9201   413.8    8.331      42.074
2015    7       28    11  33    5.9223   413.8    8.331      42.069
2015    7       28    11  39    5.9244   413.9    8.331      42.065
2015    7       28    11  45    5.9265   414.0    8.330      42.060
2015    7       28    11  51    5.9287   414.0    8.330      42.055
2015    7       28    11  56    5.9309   414.1    8.330      42.050
2015    7       28    12   2    5.9330   414.2    8.330      42.045
2015    7       28    12   8    5.9352   414.2    8.329      42.040
2015    7       28    12  14    5.9373   414.3    8.329      42.035
2015    7       28    12  20    5.9395   414.3    8.328      42.030
2015    7       28    12  25    5.9417   414.4    8.328      42.024
2015    7       28    12  31    5.9439   414.5    8.327      42.019
2015    7       28    12  37    5.9461   414.5    8.327      42.014
2015    7       28    12  43    5.9484   414.6    8.326      42.008
2015    7       28    12  48    5.9506   414.7    8.325      42.003
2015    7       28    12  54    5.9529   414.7    8.325      41.997
2015    7       28    13   0    5.9551   414.8    8.324      41.992
2015    7       28    13   6    5.9574   414.8    8.323      41.987
2015    7       28    13  12    5.9597   414.9    8.322      41.982
2015    7       28    13  17    5.9621   415.0    8.322      41.977
2015    7       28    13  23    5.9644   415.0    8.321      41.971
2015    7       28    13  29    5.9668   415.1    8.320      41.967
2015    7       28    13  35    5.9692   415.1    8.320      41.962
2015    7       28    13  41    5.9717   415.2    8.319      41.957
2015    7       28    13  46    5.9742   415.3    8.318      41.953
2015    7       28    13  52    5.9767   415.3    8.317      41.949
2015    7       28    13  58    5.9793   415.4    8.317      41.945
2015    7       28    14   4    5.9818   415.4    8.316      41.942
2015    7       28    14   9    5.9845   415.5    8.315      41.938
2015    7       28    14  15    5.9871   415.6    8.315      41.935
2015    7       28    14  21    5.9898   415.6    8.314      41.933
2015    7       28    14  27    5.9926   415.7    8.314      41.930
2015    7       28    14  33    5.9954   415.7    8.314      41.928
2015    7       28    14  38    5.9982   415.8    8.313      41.926
2015    7       28    14  44    6.0011   415.9    8.313      41.925
2015    7       28    14  50    6.0040   415.9    8.313      41.924
2015    7       28    14  56    6.0070   416.0    8.313      41.923
2015    7       28    15   2    6.0100   416.1    8.313      41.923
2015    7       28    15   7    6.0131   416.1    8.313      41.923
2015    7       28    15  13    6.0163   416.2    8.313      41.923
2015    7       28    15  19    6.0194   416.3    8.313      41.924
2015    7       28    15  25    6.0227   416.3    8.314      41.925
2015    7       28    15  31    6.0259   416.4    8.315      41.927
2015    7       28    15  36    6.0293   416.5    8.315      41.929
2015    7       28    15  42    6.0326   416.5    8.316      41.931
2015    7       28    15  48    6.0360   416.6    8.317      41.934
2015    7       28    15  54    6.0394   416.7    8.318      41.937
2015    7       28    16   0    6.0428   416.8    8.319      41.940
2015    7       28    16   5    6.0463   416.8    8.321      41.944
2015    7       28    16  11    6.0497   416.9    8.322      41.948
2015    7       28    16  17    6.0532   417.0    8.324      41.952
2015    7       28    16  23    6.0567   417.0    8.326      41.956
2015    7       28    16  28    6.0602   417.1    8.328      41.961
2015    7       28    16  34    6.0636   417.2    8.330      41.966
2015    7       28    16  40    6.0671   417.3    8.332      41.970
2015    7       28    16  46    6.0706   417.4    8.334      41.975
2015    7       28    16  52    6.0740   417.4    8.337      41.980
2015    7       28    16  57    6.0774   417.5    8.339      41.984
2015    7       28    17   3    6.0808   417.6    8.342      41.989
2015    7       28    17   9    6.0842   417.7    8.344      41.993
2015    7       28    17  15    6.0875   417.8    8.347      41.998
2015    7       28    17  21    6.0909   417.8    8.350      42.002
2015    7       28    17  26    6.0942   417.9    8.352      42.006
2015    7       28    17  32    6.0975   418.0    8.355      42.010
2015    7       28    17  38    6.1008   418.1    8.358      42.014
2015    7       28    17  44    6.1041   418.2    8.361      42.017
2015    7       28    17  50    6.1073   418.2    8.363      42.021
2015    7       28    17  55    6.1106   418.3    8.366      42.025
2015    7       28    18   1    6.1139   418.4    8.369      42.029
2015    7       28    18   7    6.1172   418.5    8.371      42.033
2015    7       28    18  13    6.1204   418.6    8.374      42.038
2015    7       28    18  18    6.1238   418.7    8.376      42.044
2015    7       28    18  24    6.1271   418.7    8.378      42.049
2015    7       28    18  30    6.1304   418.8    8.380      42.055
2015    7       28    18  36    6.1337   418.9    8.383      42.061
2015    7       28    18  42    6.1371   419.0    8.384      42.067
2015    7       28    18  47    6.1404   419.1    8.386      42.073
2015    7       28    18  53    6.1438   419.2    8.388      42.080
2015    7       28    18  59    6.1472   419.2    8.390      42.086
2015    7       28    19   5    6.1506   419.3    8.391      42.093
2015    7       28    19  10    6.1540   419.4    8.392      42.100
2015    7       28    19  16    6.1574   419.5    8.393      42.108
2015    7       28    19  22    6.1609   419.6    8.394      42.114
2015    7       28    19  28    6.1643   419.7    8.395      42.121
2015    7       28    19  34    6.1677   419.8    8.395      42.128
2015    7       28    19  39    6.1712   419.8    8.396      42.134
2015    7       28    19  45    6.1746   419.9    8.396      42.140
2015    7       28    19  51    6.1781   420.0    8.396      42.146
2015    7       28    19  57    6.1815   420.1    8.396      42.152
2015    7       28    20   3    6.1850   420.2    8.395      42.158
2015    7       28    20   8    6.1884   420.3    8.395      42.164
2015    7       28    20  14    6.1919   420.3    8.395      42.170
2015    7       28    20  20    6.1953   420.4    8.394      42.175
2015    7       28    20  26    6.1988   420.5    8.393      42.181
2015    7       28    20  31    6.2023   420.6    8.392      42.187
2015    7       28    20  37    6.2058   420.7    8.391      42.192
2015    7       28    20  43    6.2092   420.8    8.390      42.198
2015    7       28    20  49    6.2127   420.9    8.389      42.203
2015    7       28    20  55    6.2162   421.0    8.387      42.209
2015    7       28    21   0    6.2198   421.0    8.386      42.215
2015    7       28    21   6    6.2233   421.1    8.384      42.221
2015    7       28    21  12    6.2268   421.2    8.383      42.227
2015    7       28    21  18    6.2303   421.3    8.381      42.233
2015    7       28    21  24    6.2339   421.4    8.380      42.239
2015    7       28    21  29    6.2375   421.5    8.378      42.246
2015    7       28    21  35    6.2411   421.6    8.376      42.252
2015    7       28    21  41    6.2447   421.7    8.374      42.259
2015    7       28    21  47    6.2484   421.7    8.373      42.266
2015    7       28    21  52    6.2520   421.8    8.371      42.273
2015    7       28    21  58    6.2557   421.9    8.369      42.281
2015    7       28    22   4    6.2594   422.0    8.368      42.289
2015    7       28    22  10    6.2631   422.1    8.366      42.297
2015    7       28    22  16    6.2668   422.2    8.364      42.305
2015    7       28    22  21    6.2706   422.3    8.363      42.313
2015    7       28    22  27    6.2744   422.4    8.361      42.322
2015    7       28    22  33    6.2782   422.5    8.359      42.331
2015    7       28    22  39    6.2820   422.6    8.358      42.340
2015    7       28    22  45    6.2859   422.6    8.357      42.349
2015    7       28    22  50    6.2897   422.7    8.355      42.359
2015    7       28    22  56    6.2937   422.8    8.354      42.369
2015    7       28    23   2    6.2975   422.9    8.353      42.379
2015    7       28    23   8    6.3015   423.0    8.352      42.389
2015    7       28    23  14    6.3054   423.1    8.351      42.400
2015    7       28    23  19    6.3093   423.2    8.350      42.411
2015    7       28    23  25    6.3132   423.3    8.349      42.422
2015    7       28    23  31    6.3172   423.4    8.348      42.434
2015    7       28    23  37    6.3212   423.5    8.347      42.446
2015    7       28    23  43    6.3251   423.6    8.347      42.458
2015    7       28    23  48    6.3291   423.7    8.346      42.470
2015    7       28    23  54    6.3331   423.8    8.346      42.483
2015    7       29     0   0    6.3370   423.9    8.346      42.496
2015    7       29     0   6    6.3410   424.0    8.345      42.509
2015    7       29     0  11    6.3450   424.1    8.345      42.523
2015    7       29     0  17    6.3489   424.2    8.346      42.537
2015    7       29     0  23    6.3529   424.3    8.346      42.551
2015    7       29     0  29    6.3569   424.4    8.346      42.566
2015    7       29     0  35    6.3609   424.5    8.347      42.581
2015    7       29     0  40    6.3649   424.6    8.348      42.597
2015    7       29     0  46    6.3689   424.7    8.349      42.612
2015    7       29     0  52    6.3729   424.8    8.350      42.629
2015    7       29     0  58    6.3769   424.9    8.351      42.646
2015    7       29     1   4    6.3810   425.0    8.352      42.664
2015    7       29     1   9    6.3850   425.1    8.354      42.683
2015    7       29     1  15    6.3891   425.2    8.356      42.703
2015    7       29     1  21    6.3932   425.3    8.358      42.723
2015    7       29     1  27    6.3974   425.4    8.360      42.745
2015    7       29     1  32    6.4015   425.5    8.362      42.768
2015    7       29     1  38    6.4057   425.6    8.365      42.792
2015    7       29     1  44    6.4100   425.7    8.367      42.816
2015    7       29     1  50    6.4142   425.8    8.370      42.842
2015    7       29     1  56    6.4185   425.9    8.373      42.869
2015    7       29     2   1    6.4229   426.0    8.376      42.897
2015    7       29     2   7    6.4273   426.1    8.379      42.926
2015    7       29     2  13    6.4317   426.2    8.383      42.956
2015    7       29     2  19    6.4362   426.3    8.386      42.987
2015    7       29     2  25    6.4408   426.5    8.390      43.020
2015    7       29     2  30    6.4453   426.6    8.393      43.055
2015    7       29     2  36    6.4500   426.7    8.397      43.091
2015    7       29     2  42    6.4546   426.8    8.401      43.129
2015    7       29     2  48    6.4593   426.9    8.404      43.168
2015    7       29     2  53    6.4639   427.1    8.408      43.208
2015    7       29     2  59    6.4686   427.2    8.411      43.249
2015    7       29     3   5    6.4732   427.3    8.414      43.291
2015    7       29     3  11    6.4779   427.4    8.418      43.334
2015    7       29     3  17    6.4825   427.6    8.420      43.377
2015    7       29     3  22    6.4871   427.7    8.423      43.420
2015    7       29     3  28    6.4917   427.8    8.425      43.464
2015    7       29     3  34    6.4963   428.0    8.427      43.508
2015    7       29     3  40    6.5008   428.1    8.429      43.552
2015    7       29     3  46    6.5053   428.3    8.430      43.597
2015    7       29     3  51    6.5096   428.4    8.431      43.640
2015    7       29     3  57    6.5140   428.5    8.431      43.683
2015    7       29     4   3    6.5183   428.7    8.432      43.724
2015    7       29     4   9    6.5226   428.8    8.432      43.765
2015    7       29     4  14    6.5269   429.0    8.431      43.806
2015    7       29     4  20    6.5311   429.1    8.431      43.845
2015    7       29     4  26    6.5353   429.2    8.430      43.884
2015    7       29     4  32    6.5394   429.4    8.428      43.922
2015    7       29     4  38    6.5435   429.5    8.427      43.959
2015    7       29     4  43    6.5476   429.7    8.425      43.996
2015    7       29     4  49    6.5517   429.8    8.424      44.032
2015    7       29     4  55    6.5557   429.9    8.422      44.067
2015    7       29     5   1    6.5597   430.1    8.419      44.102
2015    7       29     5   7    6.5637   430.2    8.417      44.136
2015    7       29     5  12    6.5677   430.4    8.414      44.170
2015    7       29     5  18    6.5716   430.5    8.412      44.203
2015    7       29     5  24    6.5755   430.7    8.409      44.236
2015    7       29     5  30    6.5794   430.8    8.406      44.268
2015    7       29     5  35    6.5833   431.0    8.403      44.299
2015    7       29     5  41    6.5872   431.1    8.399      44.330
2015    7       29     5  47    6.5910   431.3    8.396      44.361
2015    7       29     5  53    6.5948   431.4    8.393      44.391
2015    7       29     5  59    6.5986   431.5    8.389      44.421
2015    7       29     6   4    6.6024   431.7    8.385      44.450
2015    7       29     6  10    6.6062   431.8    8.382      44.479
2015    7       29     6  16    6.6099   432.0    8.378      44.508
2015    7       29     6  22    6.6136   432.1    8.374      44.536
2015    7       29     6  28    6.6173   432.3    8.370      44.565
2015    7       29     6  33    6.6210   432.4    8.366      44.592
2015    7       29     6  39    6.6247   432.6    8.362      44.620
2015    7       29     6  45    6.6283   432.7    8.358      44.648
2015    7       29     6  51    6.6319   432.9    8.354      44.675
2015    7       29     6  57    6.6355   433.0    8.350      44.702
2015    7       29     7   2    6.6391   433.2    8.346      44.730
2015    7       29     7   8    6.6426   433.3    8.342      44.757
2015    7       29     7  14    6.6462   433.5    8.338      44.784
2015    7       29     7  20    6.6497   433.7    8.334      44.811
2015    7       29     7  26    6.6533   433.8    8.330      44.839
2015    7       29     7  31    6.6568   434.0    8.326      44.866
2015    7       29     7  37    6.6603   434.1    8.322      44.894
2015    7       29     7  43    6.6638   434.3    8.318      44.922
2015    7       29     7  49    6.6673   434.4    8.314      44.950
2015    7       29     7  54    6.6707   434.6    8.311      44.978
2015    7       29     8   0    6.6742   434.7    8.307      45.007
2015    7       29     8   6    6.6777   434.9    8.304      45.036
2015    7       29     8  12    6.6811   435.0    8.300      45.066
2015    7       29     8  18    6.6846   435.2    8.297      45.096
2015    7       29     8  23    6.6881   435.3    8.295      45.126
2015    7       29     8  29    6.6916   435.5    8.292      45.157
2015    7       29     8  35    6.6951   435.6    8.290      45.190
2015    7       29     8  41    6.6986   435.8    8.288      45.222
2015    7       29     8  47    6.7022   435.9    8.286      45.256
2015    7       29     8  52    6.7057   436.1    8.284      45.290
2015    7       29     8  58    6.7093   436.3    8.283      45.326
2015    7       29     9   4    6.7130   436.4    8.282      45.362
2015    7       29     9  10    6.7167   436.6    8.282      45.400
2015    7       29     9  15    6.7204   436.7    8.282      45.439
2015    7       29     9  21    6.7243   436.9    8.282      45.479
2015    7       29     9  27    6.7281   437.0    8.283      45.520
2015    7       29     9  33    6.7321   437.2    8.285      45.563
2015    7       29     9  39    6.7361   437.4    8.286      45.609
2015    7       29     9  44    6.7402   437.5    8.288      45.657
2015    7       29     9  50    6.7443   437.7    8.291      45.708
2015    7       29     9  56    6.7485   437.9    8.293      45.762
2015    7       29    10   2    6.7527   438.1    8.296      45.818
2015    7       29    10   7    6.7569   438.2    8.298      45.878
2015    7       29    10  13    6.7612   438.4    8.301      45.940
2015    7       29    10  19    6.7655   438.6    8.304      46.005
2015    7       29    10  25    6.7697   438.8    8.306      46.072
2015    7       29    10  31    6.7739   439.0    8.308      46.140
2015    7       29    10  36    6.7781   439.2    8.311      46.211
2015    7       29    10  42    6.7823   439.4    8.312      46.283
2015    7       29    10  48    6.7864   439.6    8.314      46.357
2015    7       29    10  54    6.7905   439.8    8.315      46.433
2015    7       29    11   0    6.7945   440.0    8.316      46.509
2015    7       29    11   5    6.7984   440.2    8.316      46.585
2015    7       29    11  11    6.8023   440.4    8.316      46.660
2015    7       29    11  17    6.8062   440.6    8.315      46.736
2015    7       29    11  23    6.8099   440.8    8.315      46.810
2015    7       29    11  28    6.8137   441.0    8.314      46.884
2015    7       29    11  34    6.8173   441.2    8.312      46.957
2015    7       29    11  40    6.8210   441.5    8.311      47.029
2015    7       29    11  46    6.8246   441.7    8.309      47.100
2015    7       29    11  52    6.8281   441.9    8.306      47.171
2015    7       29    11  57    6.8317   442.1    8.304      47.239
2015    7       29    12   3    6.8352   442.3    8.301      47.308
2015    7       29    12   9    6.8387   442.5    8.298      47.375
2015    7       29    12  15    6.8421   442.8    8.295      47.441
2015    7       29    12  21    6.8455   443.0    8.291      47.507
2015    7       29    12  26    6.8490   443.2    8.288      47.572
2015    7       29    12  32    6.8523   443.4    8.284      47.635
2015    7       29    12  38    6.8557   443.6    8.280      47.698
2015    7       29    12  44    6.8590   443.9    8.276      47.760
2015    7       29    12  50    6.8623   444.1    8.271      47.821
2015    7       29    12  55    6.8655   444.3    8.266      47.881
2015    7       29    13   1    6.8688   444.6    8.262      47.940
2015    7       29    13   7    6.8720   444.8    8.257      47.998
2015    7       29    13  13    6.8751   445.0    8.251      48.056
2015    7       29    13  18    6.8782   445.3    8.246      48.113
2015    7       29    13  24    6.8813   445.5    8.240      48.169
2015    7       29    13  30    6.8842   445.7    8.234      48.224
2015    7       29    13  36    6.8872   446.0    8.228      48.278
2015    7       29    13  42    6.8901   446.2    8.222      48.331
2015    7       29    13  47    6.8930   446.5    8.216      48.384
2015    7       29    13  53    6.8957   446.7    8.210      48.436
2015    7       29    13  59    6.8985   447.0    8.203      48.487
2015    7       29    14   5    6.9011   447.2    8.196      48.537
2015    7       29    14  11    6.9038   447.5    8.189      48.586
2015    7       29    14  16    6.9063   447.7    8.182      48.635
2015    7       29    14  22    6.9088   448.0    8.175      48.683
2015    7       29    14  28    6.9112   448.2    8.167      48.730
2015    7       29    14  34    6.9136   448.5    8.159      48.776
2015    7       29    14  40    6.9158   448.7    8.152      48.822
2015    7       29    14  45    6.9181   449.0    8.144      48.867
2015    7       29    14  51    6.9202   449.3    8.136      48.911
2015    7       29    14  57    6.9223   449.5    8.128      48.955
2015    7       29    15   3    6.9243   449.8    8.119      48.997
2015    7       29    15   8    6.9262   450.0    8.111      49.040
2015    7       29    15  14    6.9281   450.3    8.103      49.081
2015    7       29    15  20    6.9299   450.6    8.094      49.122
2015    7       29    15  26    6.9317   450.8    8.086      49.162
2015    7       29    15  32    6.9334   451.1    8.078      49.202
2015    7       29    15  37    6.9351   451.3    8.069      49.241
2015    7       29    15  43    6.9367   451.6    8.061      49.281
2015    7       29    15  49    6.9383   451.9    8.053      49.319
2015    7       29    15  55    6.9399   452.1    8.045      49.358
2015    7       29    16   1    6.9415   452.4    8.036      49.397
2015    7       29    16   6    6.9430   452.6    8.028      49.435
2015    7       29    16  12    6.9445   452.9    8.021      49.474
2015    7       29    16  18    6.9460   453.2    8.013      49.512
2015    7       29    16  24    6.9475   453.4    8.005      49.551
2015    7       29    16  29    6.9490   453.7    7.998      49.590
2015    7       29    16  35    6.9505   453.9    7.990      49.629
2015    7       29    16  41    6.9520   454.2    7.983      49.668
2015    7       29    16  47    6.9534   454.5    7.976      49.708
2015    7       29    16  53    6.9549   454.7    7.969      49.748
2015    7       29    16  58    6.9563   455.0    7.962      49.789
2015    7       29    17   4    6.9576   455.3    7.955      49.831
2015    7       29    17  10    6.9589   455.5    7.948      49.875
2015    7       29    17  16    6.9602   455.8    7.942      49.920
2015    7       29    17  21    6.9614   456.1    7.935      49.966
2015    7       29    17  27    6.9626   456.3    7.928      50.014
2015    7       29    17  33    6.9637   456.6    7.922      50.063
2015    7       29    17  39    6.9648   456.9    7.915      50.113
2015    7       29    17  45    6.9658   457.1    7.908      50.164
2015    7       29    17  50    6.9668   457.4    7.902      50.217
2015    7       29    17  56    6.9678   457.7    7.895      50.271
2015    7       29    18   2    6.9686   457.9    7.888      50.327
2015    7       29    18   8    6.9695   458.2    7.881      50.384
2015    7       29    18  14    6.9703   458.5    7.874      50.442
2015    7       29    18  19    6.9712   458.7    7.867      50.501
2015    7       29    18  25    6.9719   459.0    7.860      50.562
2015    7       29    18  31    6.9727   459.3    7.853      50.623
2015    7       29    18  37    6.9735   459.6    7.846      50.686
2015    7       29    18  42    6.9742   459.9    7.838      50.748
2015    7       29    18  48    6.9749   460.2    7.831      50.812
2015    7       29    18  54    6.9755   460.4    7.824      50.875
2015    7       29    19   0    6.9761   460.7    7.816      50.938
2015    7       29    19   6    6.9767   461.0    7.808      51.002
2015    7       29    19  11    6.9771   461.3    7.800      51.066
2015    7       29    19  17    6.9776   461.6    7.793      51.129
2015    7       29    19  23    6.9779   461.9    7.784      51.192
2015    7       29    19  29    6.9782   462.2    7.776      51.254
2015    7       29    19  35    6.9784   462.5    7.768      51.315
2015    7       29    19  40    6.9786   462.8    7.760      51.376
2015    7       29    19  46    6.9786   463.1    7.751      51.436
2015    7       29    19  52    6.9786   463.4    7.742      51.495
2015    7       29    19  58    6.9785   463.7    7.734      51.554
2015    7       29    20   3    6.9783   464.0    7.725      51.612
2015    7       29    20   9    6.9780   464.3    7.716      51.669
2015    7       29    20  15    6.9778   464.6    7.707      51.726
2015    7       29    20  21    6.9773   464.9    7.698      51.782
2015    7       29    20  27    6.9769   465.2    7.688      51.837
2015    7       29    20  32    6.9764   465.5    7.679      51.891
2015    7       29    20  38    6.9758   465.9    7.669      51.944
2015    7       29    20  44    6.9751   466.2    7.660      51.996
2015    7       29    20  50    6.9743   466.5    7.650      52.047
2015    7       29    20  56    6.9735   466.8    7.640      52.097
2015    7       29    21   1    6.9726   467.1    7.630      52.146
2015    7       29    21   7    6.9716   467.4    7.620      52.194
2015    7       29    21  13    6.9706   467.7    7.609      52.241
2015    7       29    21  19    6.9694   468.0    7.599      52.287
2015    7       29    21  25    6.9682   468.3    7.588      52.331
2015    7       29    21  30    6.9669   468.7    7.578      52.376
2015    7       29    21  36    6.9656   469.0    7.567      52.418
2015    7       29    21  42    6.9641   469.3    7.556      52.460
2015    7       29    21  48    6.9626   469.6    7.545      52.501
2015    7       29    21  54    6.9609   469.9    7.533      52.542
2015    7       29    21  59    6.9592   470.2    7.522      52.581
2015    7       29    22   5    6.9574   470.6    7.510      52.619
2015    7       29    22  11    6.9555   470.9    7.498      52.656
2015    7       29    22  17    6.9535   471.2    7.486      52.693
2015    7       29    22  22    6.9515   471.5    7.474      52.728
2015    7       29    22  28    6.9493   471.8    7.462      52.763
2015    7       29    22  34    6.9470   472.1    7.449      52.796
2015    7       29    22  40    6.9447   472.5    7.437      52.828
2015    7       29    22  46    6.9423   472.8    7.424      52.859
2015    7       29    22  51    6.9398   473.1    7.412      52.889
2015    7       29    22  57    6.9373   473.4    7.399      52.919
2015    7       29    23   3    6.9347   473.7    7.386      52.947
2015    7       29    23   9    6.9321   474.0    7.373      52.975
2015    7       29    23  15    6.9293   474.3    7.360      53.001
2015    7       29    23  20    6.9266   474.7    7.347      53.027
2015    7       29    23  26    6.9237   475.0    7.333      53.052
2015    7       29    23  32    6.9209   475.3    7.320      53.077
2015    7       29    23  38    6.9179   475.6    7.306      53.101
2015    7       29    23  43    6.9149   475.9    7.293      53.124
2015    7       29    23  49    6.9119   476.2    7.279      53.146
2015    7       29    23  55    6.9088   476.5    7.265      53.167
2015    7       30     0   1    6.9056   476.8    7.252      53.188
2015    7       30     0   7    6.9024   477.1    7.238      53.207
2015    7       30     0  12    6.8990   477.4    7.223      53.226
2015    7       30     0  18    6.8956   477.7    7.209      53.244
2015    7       30     0  24    6.8919   478.0    7.194      53.262
2015    7       30     0  30    6.8883   478.3    7.180      53.278
2015    7       30     0  36    6.8844   478.6    7.165      53.293
2015    7       30     0  41    6.8804   478.9    7.150      53.307
2015    7       30     0  47    6.8763   479.2    7.135      53.319
2015    7       30     0  53    6.8721   479.5    7.121      53.329
2015    7       30     0  59    6.8678   479.8    7.106      53.338
2015    7       30     1   4    6.8635   480.1    7.091      53.346
2015    7       30     1  10    6.8591   480.3    7.077      53.353
2015    7       30     1  16    6.8547   480.6    7.062      53.359
2015    7       30     1  22    6.8503   480.8    7.048      53.365
2015    7       30     1  28    6.8459   481.1    7.034      53.370
2015    7       30     1  33    6.8416   481.3    7.021      53.375
2015    7       30     1  39    6.8373   481.5    7.007      53.381
2015    7       30     1  45    6.8331   481.8    6.994      53.389
2015    7       30     1  51    6.8290   482.0    6.981      53.399
2015    7       30     1  56    6.8249   482.3    6.969      53.411
2015    7       30     2   2    6.8209   482.5    6.957      53.425
2015    7       30     2   8    6.8170   482.8    6.944      53.440
2015    7       30     2  14    6.8131   483.0    6.933      53.456
2015    7       30     2  20    6.8092   483.3    6.921      53.473
2015    7       30     2  25    6.8054   483.5    6.909      53.490
2015    7       30     2  31    6.8015   483.8    6.897      53.508
2015    7       30     2  37    6.7976   484.1    6.885      53.525
2015    7       30     2  43    6.7937   484.4    6.874      53.542
2015    7       30     2  49    6.7897   484.6    6.862      53.558
2015    7       30     2  54    6.7856   484.9    6.850      53.574
2015    7       30     3   0    6.7814   485.2    6.838      53.589
2015    7       30     3   6    6.7771   485.5    6.825      53.602
2015    7       30     3  12    6.7728   485.7    6.813      53.613
2015    7       30     3  18    6.7683   486.0    6.801      53.623
2015    7       30     3  23    6.7638   486.3    6.789      53.631
2015    7       30     3  29    6.7592   486.5    6.776      53.638
2015    7       30     3  35    6.7546   486.8    6.764      53.643
2015    7       30     3  41    6.7498   487.1    6.751      53.648
2015    7       30     3  46    6.7450   487.3    6.739      53.652
2015    7       30     3  52    6.7402   487.6    6.726      53.655
2015    7       30     3  58    6.7354   487.8    6.714      53.658
2015    7       30     4   4    6.7305   488.1    6.701      53.660
2015    7       30     4  10    6.7256   488.3    6.689      53.662
2015    7       30     4  15    6.7207   488.6    6.677      53.663
2015    7       30     4  21    6.7159   488.8    6.665      53.663
2015    7       30     4  27    6.7110   489.1    6.652      53.664
2015    7       30     4  33    6.7062   489.3    6.640      53.664
2015    7       30     4  39    6.7013   489.6    6.628      53.664
2015    7       30     4  44    6.6964   489.8    6.617      53.664
2015    7       30     4  50    6.6915   490.1    6.605      53.664
2015    7       30     4  56    6.6866   490.3    6.593      53.664
2015    7       30     5   2    6.6817   490.6    6.581      53.664
2015    7       30     5   7    6.6768   490.8    6.570      53.664
2015    7       30     5  13    6.6718   491.1    6.558      53.664
2015    7       30     5  19    6.6668   491.3    6.546      53.663
2015    7       30     5  25    6.6618   491.6    6.535      53.661
2015    7       30     5  31    6.6567   491.8    6.523      53.659
2015    7       30     5  36    6.6517   492.1    6.512      53.657
2015    7       30     5  42    6.6466   492.3    6.501      53.654
2015    7       30     5  48    6.6415   492.6    6.489      53.649
2015    7       30     5  54    6.6365   492.8    6.478      53.644
2015    7       30     6   0    6.6314   493.1    6.466      53.638
2015    7       30     6   5    6.6263   493.3    6.455      53.631
2015    7       30     6  11    6.6212   493.5    6.444      53.623
2015    7       30     6  17    6.6161   493.7    6.433      53.615
2015    7       30     6  23    6.6110   494.0    6.422      53.606
2015    7       30     6  29    6.6060   494.2    6.411      53.598
2015    7       30     6  34    6.6009   494.4    6.400      53.589
2015    7       30     6  40    6.5959   494.6    6.389      53.580
2015    7       30     6  46    6.5908   494.8    6.379      53.570
2015    7       30     6  52    6.5858   495.0    6.368      53.560
2015    7       30     6  57    6.5808   495.2    6.358      53.550
2015    7       30     7   3    6.5758   495.4    6.348      53.541
2015    7       30     7   9    6.5709   495.6    6.338      53.532
2015    7       30     7  15    6.5660   495.8    6.329      53.524
2015    7       30     7  21    6.5611   496.0    6.319      53.516
2015    7       30     7  26    6.5563   496.2    6.310      53.508
2015    7       30     7  32    6.5515   496.4    6.300      53.502
2015    7       30     7  38    6.5468   496.6    6.291      53.496
2015    7       30     7  44    6.5419   496.8    6.282      53.491
2015    7       30     7  49    6.5371   497.0    6.272      53.486
2015    7       30     7  55    6.5322   497.2    6.263      53.480
2015    7       30     8   1    6.5274   497.4    6.253      53.474
2015    7       30     8   7    6.5224   497.6    6.244      53.467
2015    7       30     8  13    6.5175   497.7    6.234      53.460
2015    7       30     8  18    6.5125   497.9    6.224      53.452
2015    7       30     8  24    6.5076   498.1    6.215      53.443
2015    7       30     8  30    6.5026   498.3    6.205      53.434
2015    7       30     8  36    6.4977   498.5    6.195      53.423
2015    7       30     8  42    6.4928   498.6    6.185      53.410
2015    7       30     8  47    6.4881   498.8    6.175      53.396
2015    7       30     8  53    6.4833   498.9    6.166      53.380
2015    7       30     8  59    6.4788   499.1    6.156      53.364
2015    7       30     9   5    6.4742   499.2    6.147      53.349
2015    7       30     9  10    6.4698   499.4    6.138      53.335
2015    7       30     9  16    6.4654   499.5    6.129      53.322
2015    7       30     9  22    6.4611   499.6    6.120      53.310
2015    7       30     9  28    6.4569   499.8    6.111      53.300
2015    7       30     9  34    6.4528   499.9    6.103      53.292
2015    7       30     9  39    6.4487   500.1    6.094      53.285
2015    7       30     9  45    6.4446   500.3    6.086      53.279
2015    7       30     9  51    6.4405   500.4    6.078      53.274
2015    7       30     9  57    6.4365   500.6    6.070      53.270
2015    7       30    10   3    6.4324   500.8    6.061      53.266
2015    7       30    10   8    6.4283   501.0    6.053      53.262
2015    7       30    10  14    6.4242   501.2    6.045      53.258
2015    7       30    10  20    6.4200   501.4    6.037      53.253
2015    7       30    10  26    6.4158   501.6    6.028      53.247
2015    7       30    10  31    6.4115   501.7    6.020      53.241
2015    7       30    10  37    6.4071   501.9    6.011      53.233
2015    7       30    10  43    6.4026   502.1    6.003      53.224
2015    7       30    10  49    6.3981   502.3    5.994      53.213
2015    7       30    10  55    6.3935   502.5    5.985      53.201
2015    7       30    11   0    6.3887   502.7    5.977      53.189
2015    7       30    11   6    6.3840   502.8    5.968      53.175
2015    7       30    11  12    6.3792   503.0    5.959      53.162
2015    7       30    11  18    6.3743   503.2    5.950      53.148
2015    7       30    11  24    6.3694   503.3    5.942      53.133
2015    7       30    11  29    6.3645   503.5    5.933      53.120
2015    7       30    11  35    6.3595   503.7    5.924      53.106
2015    7       30    11  41    6.3547   503.8    5.916      53.092
2015    7       30    11  47    6.3497   504.0    5.907      53.078
2015    7       30    11  52    6.3448   504.2    5.899      53.064
2015    7       30    11  58    6.3400   504.3    5.891      53.050
2015    7       30    12   4    6.3351   504.5    5.883      53.037
2015    7       30    12  10    6.3303   504.7    5.875      53.024
2015    7       30    12  16    6.3256   504.8    5.867      53.012
2015    7       30    12  21    6.3208   505.0    5.859      52.999
2015    7       30    12  27    6.3162   505.2    5.851      52.987
2015    7       30    12  33    6.3115   505.3    5.843      52.975
2015    7       30    12  39    6.3069   505.5    5.836      52.964
2015    7       30    12  45    6.3023   505.6    5.828      52.953
2015    7       30    12  50    6.2978   505.8    5.821      52.942
2015    7       30    12  56    6.2933   506.0    5.814      52.932
2015    7       30    13   2    6.2888   506.1    5.807      52.922
2015    7       30    13   8    6.2844   506.3    5.800      52.912
2015    7       30    13  14    6.2801   506.4    5.794      52.903
2015    7       30    13  19    6.2757   506.6    5.787      52.894
2015    7       30    13  25    6.2715   506.7    5.781      52.886
2015    7       30    13  31    6.2673   506.8    5.775      52.878
2015    7       30    13  37    6.2632   507.0    5.769      52.871
2015    7       30    13  42    6.2591   507.1    5.764      52.865
2015    7       30    13  48    6.2550   507.2    5.758      52.860
2015    7       30    13  54    6.2511   507.3    5.753      52.855
2015    7       30    14   0    6.2472   507.5    5.749      52.852
2015    7       30    14   6    6.2434   507.6    5.744      52.850
2015    7       30    14  11    6.2396   507.7    5.740      52.849
2015    7       30    14  17    6.2359   507.8    5.735      52.850
2015    7       30    14  23    6.2322   507.9    5.731      52.852
2015    7       30    14  29    6.2286   508.1    5.727      52.854
2015    7       30    14  34    6.2251   508.2    5.723      52.858
2015    7       30    14  40    6.2216   508.3    5.719      52.861
2015    7       30    14  46    6.2182   508.4    5.715      52.866
2015    7       30    14  52    6.2149   508.5    5.711      52.871
2015    7       30    14  58    6.2116   508.6    5.708      52.876
2015    7       30    15   3    6.2084   508.8    5.704      52.881
2015    7       30    15   9    6.2052   508.9    5.700      52.886
2015    7       30    15  15    6.2020   509.0    5.696      52.891
2015    7       30    15  21    6.1989   509.1    5.692      52.895
2015    7       30    15  27    6.1958   509.3    5.687      52.900
2015    7       30    15  32    6.1927   509.4    5.683      52.903
2015    7       30    15  38    6.1896   509.5    5.679      52.905
2015    7       30    15  44    6.1865   509.6    5.674      52.907
2015    7       30    15  50    6.1834   509.8    5.669      52.908
2015    7       30    15  55    6.1804   509.9    5.665      52.908
2015    7       30    16   1    6.1773   510.0    5.660      52.908
2015    7       30    16   7    6.1742   510.1    5.655      52.907
2015    7       30    16  13    6.1712   510.2    5.650      52.905
2015    7       30    16  19    6.1681   510.4    5.645      52.903
2015    7       30    16  24    6.1650   510.5    5.640      52.900
2015    7       30    16  30    6.1619   510.6    5.635      52.897
2015    7       30    16  36    6.1587   510.7    5.630      52.894
2015    7       30    16  42    6.1556   510.9    5.625      52.890
2015    7       30    16  48    6.1524   511.0    5.620      52.886
2015    7       30    16  53    6.1493   511.1    5.615      52.882
2015    7       30    16  59    6.1461   511.2    5.610      52.877
2015    7       30    17   5    6.1430   511.4    5.605      52.872
2015    7       30    17  11    6.1399   511.5    5.600      52.868
2015    7       30    17  16    6.1367   511.6    5.595      52.863
2015    7       30    17  22    6.1336   511.7    5.590      52.858
2015    7       30    17  28    6.1304   511.8    5.585      52.853
2015    7       30    17  34    6.1273   512.0    5.580      52.848
2015    7       30    17  40    6.1242   512.1    5.575      52.844
2015    7       30    17  45    6.1211   512.2    5.570      52.839
2015    7       30    17  51    6.1181   512.3    5.565      52.834
2015    7       30    17  57    6.1150   512.5    5.561      52.830
2015    7       30    18   3    6.1119   512.6    5.556      52.825
2015    7       30    18   9    6.1089   512.7    5.551      52.821
2015    7       30    18  14    6.1059   512.8    5.547      52.816
2015    7       30    18  20    6.1028   512.9    5.542      52.812
2015    7       30    18  26    6.0998   513.1    5.537      52.808
2015    7       30    18  32    6.0969   513.2    5.533      52.804
2015    7       30    18  37    6.0939   513.3    5.528      52.800
2015    7       30    18  43    6.0909   513.4    5.524      52.796
2015    7       30    18  49    6.0880   513.5    5.519      52.793
2015    7       30    18  55    6.0851   513.7    5.515      52.789
2015    7       30    19   1    6.0822   513.8    5.510      52.786
2015    7       30    19   6    6.0793   513.9    5.506      52.783
2015    7       30    19  12    6.0764   514.0    5.501      52.780
2015    7       30    19  18    6.0736   514.1    5.497      52.777
2015    7       30    19  24    6.0708   514.2    5.493      52.775
2015    7       30    19  30    6.0680   514.4    5.488      52.772
2015    7       30    19  35    6.0652   514.5    5.484      52.770
2015    7       30    19  41    6.0625   514.6    5.480      52.769
2015    7       30    19  47    6.0598   514.7    5.476      52.767
2015    7       30    19  53    6.0571   514.8    5.471      52.766
2015    7       30    19  59    6.0544   514.9    5.467      52.765
2015    7       30    20   4    6.0518   515.0    5.463      52.764
2015    7       30    20  10    6.0492   515.1    5.459      52.763
2015    7       30    20  16    6.0466   515.3    5.455      52.763
2015    7       30    20  22    6.0441   515.4    5.450      52.762
2015    7       30    20  27    6.0415   515.5    5.446      52.762
2015    7       30    20  33    6.0390   515.6    5.442      52.762
2015    7       30    20  39    6.0366   515.7    5.438      52.762
2015    7       30    20  45    6.0341   515.8    5.434      52.763
2015    7       30    20  51    6.0317   515.9    5.430      52.763
2015    7       30    20  56    6.0293   516.0    5.426      52.764
2015    7       30    21   2    6.0269   516.1    5.421      52.764
2015    7       30    21   8    6.0246   516.2    5.417      52.765
2015    7       30    21  14    6.0222   516.3    5.413      52.766
2015    7       30    21  20    6.0199   516.4    5.409      52.767
2015    7       30    21  25    6.0176   516.5    5.405      52.768
2015    7       30    21  31    6.0153   516.6    5.401      52.769
2015    7       30    21  37    6.0130   516.7    5.396      52.770
2015    7       30    21  43    6.0107   516.8    5.392      52.771
2015    7       30    21  48    6.0085   516.9    5.388      52.771
2015    7       30    21  54    6.0062   517.0    5.384      52.772
2015    7       30    22   0    6.0040   517.1    5.380      52.772
2015    7       30    22   6    6.0017   517.2    5.375      52.773
2015    7       30    22  12    5.9995   517.3    5.371      52.773
2015    7       30    22  17    5.9973   517.4    5.367      52.773
2015    7       30    22  23    5.9950   517.5    5.363      52.773
2015    7       30    22  29    5.9928   517.6    5.359      52.773
2015    7       30    22  35    5.9905   517.7    5.354      52.773
2015    7       30    22  40    5.9883   517.8    5.350      52.773
2015    7       30    22  46    5.9860   517.9    5.346      52.773
2015    7       30    22  52    5.9838   518.0    5.342      52.772
2015    7       30    22  58    5.9816   518.1    5.338      52.772
2015    7       30    23   4    5.9793   518.2    5.334      52.771
2015    7       30    23   9    5.9771   518.3    5.330      52.770
2015    7       30    23  15    5.9748   518.4    5.326      52.770
2015    7       30    23  21    5.9726   518.5    5.322      52.769
2015    7       30    23  27    5.9704   518.6    5.318      52.768
2015    7       30    23  33    5.9681   518.7    5.314      52.767
2015    7       30    23  38    5.9659   518.8    5.310      52.766
2015    7       30    23  44    5.9637   518.9    5.306      52.765
2015    7       30    23  50    5.9615   519.0    5.302      52.764
2015    7       30    23  56    5.9593   519.0    5.298      52.763
2015    7       31     0   1    5.9571   519.1    5.295      52.762
2015    7       31     0   7    5.9549   519.2    5.291      52.761
2015    7       31     0  13    5.9527   519.3    5.287      52.760
2015    7       31     0  19    5.9505   519.4    5.284      52.760
2015    7       31     0  25    5.9484   519.5    5.280      52.759
2015    7       31     0  30    5.9462   519.6    5.277      52.758
2015    7       31     0  36    5.9441   519.7    5.273      52.758
2015    7       31     0  42    5.9420   519.8    5.270      52.758
2015    7       31     0  48    5.9398   519.9    5.266      52.758
2015    7       31     0  54    5.9377   520.0    5.263      52.758
2015    7       31     0  59    5.9356   520.1    5.260      52.758
2015    7       31     1   5    5.9335   520.1    5.256      52.758
2015    7       31     1  11    5.9315   520.2    5.253      52.759
2015    7       31     1  17    5.9294   520.3    5.250      52.760
2015    7       31     1  22    5.9273   520.4    5.247      52.761
2015    7       31     1  28    5.9253   520.5    5.244      52.762
2015    7       31     1  34    5.9233   520.6    5.240      52.763
2015    7       31     1  40    5.9212   520.7    5.237      52.765
2015    7       31     1  46    5.9192   520.8    5.234      52.766
2015    7       31     1  51    5.9172   520.9    5.231      52.768
2015    7       31     1  57    5.9152   521.0    5.228      52.770
2015    7       31     2   3    5.9132   521.1    5.225      52.772
2015    7       31     2   9    5.9112   521.2    5.222      52.775
2015    7       31     2  15    5.9092   521.3    5.219      52.777
2015    7       31     2  20    5.9073   521.3    5.216      52.780
2015    7       31     2  26    5.9053   521.4    5.213      52.783
2015    7       31     2  32    5.9034   521.5    5.210      52.785
2015    7       31     2  38    5.9015   521.6    5.207      52.788
2015    7       31     2  44    5.8995   521.7    5.204      52.792
2015    7       31     2  49    5.8976   521.8    5.201      52.795
2015    7       31     2  55    5.8957   521.9    5.198      52.798
2015    7       31     3   1    5.8939   522.0    5.195      52.802
2015    7       31     3   7    5.8920   522.1    5.192      52.805
2015    7       31     3  12    5.8901   522.2    5.189      52.809
2015    7       31     3  18    5.8883   522.2    5.186      52.812
2015    7       31     3  24    5.8865   522.3    5.183      52.816
2015    7       31     3  30    5.8846   522.4    5.180      52.820
2015    7       31     3  36    5.8828   522.5    5.177      52.823
2015    7       31     3  41    5.8810   522.6    5.174      52.827
2015    7       31     3  47    5.8792   522.7    5.171      52.831
2015    7       31     3  53    5.8775   522.8    5.168      52.835
2015    7       31     3  59    5.8757   522.8    5.165      52.839
2015    7       31     4   5    5.8740   522.9    5.162      52.842
2015    7       31     4  10    5.8723   523.0    5.159      52.846
2015    7       31     4  16    5.8705   523.1    5.156      52.850
2015    7       31     4  22    5.8688   523.2    5.153      52.854
2015    7       31     4  28    5.8671   523.3    5.150      52.858
2015    7       31     4  33    5.8655   523.3    5.146      52.862
2015    7       31     4  39    5.8638   523.4    5.143      52.865
2015    7       31     4  45    5.8621   523.5    5.140      52.869
2015    7       31     4  51    5.8605   523.6    5.137      52.873
2015    7       31     4  57    5.8589   523.7    5.134      52.877
2015    7       31     5   2    5.8572   523.8    5.131      52.881
2015    7       31     5   8    5.8556   523.8    5.128      52.885
2015    7       31     5  14    5.8540   523.9    5.125      52.889
2015    7       31     5  20    5.8524   524.0    5.122      52.893
2015    7       31     5  25    5.8508   524.1    5.119      52.897
2015    7       31     5  31    5.8493   524.2    5.116      52.901
2015    7       31     5  37    5.8477   524.2    5.113      52.905
2015    7       31     5  43    5.8461   524.3    5.110      52.908
2015    7       31     5  49    5.8446   524.4    5.107      52.913
2015    7       31     5  54    5.8431   524.5    5.104      52.917
2015    7       31     6   0    5.8415   524.5    5.101      52.921
2015    7       31     6   6    5.8400   524.6    5.098      52.925
2015    7       31     6  12    5.8385   524.7    5.096      52.929
2015    7       31     6  18    5.8370   524.8    5.093      52.933
2015    7       31     6  23    5.8355   524.9    5.090      52.937
2015    7       31     6  29    5.8340   524.9    5.087      52.941
2015    7       31     6  35    5.8325   525.0    5.084      52.946
2015    7       31     6  41    5.8310   525.1    5.082      52.950
2015    7       31     6  46    5.8296   525.2    5.079      52.954
2015    7       31     6  52    5.8281   525.2    5.076      52.958
2015    7       31     6  58    5.8266   525.3    5.073      52.963
2015    7       31     7   4    5.8252   525.4    5.071      52.967
2015    7       31     7  10    5.8237   525.5    5.068      52.971
2015    7       31     7  15    5.8223   525.5    5.066      52.976
2015    7       31     7  21    5.8209   525.6    5.063      52.980
2015    7       31     7  27    5.8195   525.7    5.060      52.984
2015    7       31     7  33    5.8181   525.8    5.058      52.989
2015    7       31     7  38    5.8166   525.8    5.055      52.993
2015    7       31     7  44    5.8152   525.9    5.053      52.998
2015    7       31     7  50    5.8139   526.0    5.050      53.002
2015    7       31     7  56    5.8125   526.1    5.048      53.007
2015    7       31     8   2    5.8111   526.1    5.045      53.012
2015    7       31     8   7    5.8098   526.2    5.043      53.016
2015    7       31     8  13    5.8084   526.3    5.040      53.021
2015    7       31     8  19    5.8071   526.4    5.038      53.026
2015    7       31     8  25    5.8058   526.4    5.036      53.031
2015    7       31     8  31    5.8045   526.5    5.033      53.036
2015    7       31     8  36    5.8032   526.6    5.031      53.041
2015    7       31     8  42    5.8019   526.7    5.029      53.046
2015    7       31     8  48    5.8006   526.7    5.026      53.052
2015    7       31     8  54    5.7994   526.8    5.024      53.057
2015    7       31     9   0    5.7981   526.9    5.022      53.063
2015    7       31     9   5    5.7969   527.0    5.019      53.069
2015    7       31     9  11    5.7957   527.1    5.017      53.075
2015    7       31     9  17    5.7945   527.1    5.015      53.081
2015    7       31     9  23    5.7933   527.2    5.012      53.087
2015    7       31     9  28    5.7921   527.3    5.010      53.094
2015    7       31     9  34    5.7909   527.4    5.008      53.100
2015    7       31     9  40    5.7897   527.4    5.006      53.107
2015    7       31     9  46    5.7886   527.5    5.004      53.114
2015    7       31     9  52    5.7874   527.6    5.001      53.121
2015    7       31     9  57    5.7863   527.7    4.999      53.128
2015    7       31    10   3    5.7852   527.7    4.997      53.135
2015    7       31    10   9    5.7841   527.8    4.995      53.142
2015    7       31    10  15    5.7829   527.9    4.992      53.150
2015    7       31    10  21    5.7819   528.0    4.990      53.157
2015    7       31    10  26    5.7808   528.1    4.988      53.165
2015    7       31    10  32    5.7797   528.1    4.986      53.173
2015    7       31    10  38    5.7786   528.2    4.984      53.181
2015    7       31    10  44    5.7775   528.3    4.981      53.189
2015    7       31    10  49    5.7764   528.4    4.979      53.197
2015    7       31    10  55    5.7754   528.4    4.977      53.206
2015    7       31    11   1    5.7743   528.5    4.975      53.214
2015    7       31    11   7    5.7733   528.6    4.973      53.222
2015    7       31    11  13    5.7722   528.7    4.971      53.231
2015    7       31    11  18    5.7712   528.7    4.968      53.239
2015    7       31    11  24    5.7702   528.8    4.966      53.248
2015    7       31    11  30    5.7691   528.9    4.964      53.257
2015    7       31    11  36    5.7681   529.0    4.962      53.265
2015    7       31    11  42    5.7671   529.0    4.960      53.274
2015    7       31    11  47    5.7660   529.1    4.958      53.283
2015    7       31    11  53    5.7650   529.2    4.956      53.291
2015    7       31    11  59    5.7640   529.3    4.953      53.300
2015    7       31    12   5    5.7630   529.3    4.951      53.309
2015    7       31    12  10    5.7620   529.4    4.949      53.318
2015    7       31    12  16    5.7610   529.5    4.947      53.327
2015    7       31    12  22    5.7600   529.6    4.945      53.336
2015    7       31    12  28    5.7590   529.6    4.943      53.345
2015    7       31    12  34    5.7581   529.7    4.941      53.354
2015    7       31    12  39    5.7571   529.8    4.939      53.363
2015    7       31    12  45    5.7561   529.9    4.937      53.372
2015    7       31    12  51    5.7551   529.9    4.935      53.381
2015    7       31    12  57    5.7542   530.0    4.933      53.390
2015    7       31    13   2    5.7532   530.1    4.931      53.399
2015    7       31    13   8    5.7523   530.2    4.929      53.408
2015    7       31    13  14    5.7513   530.2    4.927      53.417
2015    7       31    13  20    5.7504   530.3    4.925      53.426
2015    7       31    13  26    5.7494   530.4    4.924      53.435
2015    7       31    13  31    5.7485   530.5    4.922      53.444
2015    7       31    13  37    5.7476   530.5    4.920      53.454
2015    7       31    13  43    5.7466   530.6    4.918      53.463
2015    7       31    13  49    5.7457   530.7    4.916      53.472
2015    7       31    13  54    5.7448   530.8    4.914      53.481
2015    7       31    14   0    5.7439   530.8    4.912      53.491
2015    7       31    14   6    5.7430   530.9    4.911      53.500
2015    7       31    14  12    5.7420   531.0    4.909      53.509
2015    7       31    14  18    5.7412   531.1    4.907      53.519
2015    7       31    14  23    5.7402   531.1    4.905      53.528
2015    7       31    14  29    5.7393   531.2    4.903      53.538
2015    7       31    14  35    5.7385   531.3    4.902      53.547
2015    7       31    14  41    5.7376   531.3    4.900      53.556
2015    7       31    14  47    5.7367   531.4    4.898      53.566
2015    7       31    14  52    5.7358   531.5    4.896      53.575
2015    7       31    14  58    5.7349   531.6    4.894      53.585
2015    7       31    15   4    5.7340   531.6    4.892      53.594
2015    7       31    15  10    5.7331   531.7    4.891      53.604
2015    7       31    15  15    5.7323   531.8    4.889      53.614
2015    7       31    15  21    5.7314   531.9    4.887      53.623
2015    7       31    15  27    5.7305   531.9    4.885      53.633
2015    7       31    15  33    5.7297   532.0    4.883      53.642
2015    7       31    15  39    5.7288   532.1    4.881      53.652
2015    7       31    15  44    5.7279   532.2    4.879      53.662
2015    7       31    15  50    5.7271   532.2    4.877      53.672
2015    7       31    15  56    5.7262   532.3    4.875      53.682
2015    7       31    16   2    5.7254   532.4    4.873      53.692
2015    7       31    16   8    5.7246   532.5    4.872      53.702
2015    7       31    16  13    5.7237   532.5    4.870      53.712
2015    7       31    16  19    5.7229   532.6    4.868      53.722
2015    7       31    16  25    5.7221   532.7    4.866      53.733
2015    7       31    16  31    5.7213   532.8    4.864      53.743
2015    7       31    16  37    5.7205   532.8    4.862      53.753
2015    7       31    16  42    5.7197   532.9    4.860      53.764
2015    7       31    16  48    5.7189   533.0    4.858      53.775
2015    7       31    16  54    5.7181   533.1    4.856      53.785
2015    7       31    17   0    5.7173   533.2    4.854      53.796
2015    7       31    17   6    5.7165   533.2    4.852      53.807
2015    7       31    17  11    5.7157   533.3    4.850      53.818
2015    7       31    17  17    5.7150   533.4    4.848      53.830
2015    7       31    17  23    5.7142   533.5    4.846      53.841
2015    7       31    17  29    5.7135   533.5    4.845      53.852
2015    7       31    17  34    5.7127   533.6    4.843      53.864
2015    7       31    17  40    5.7120   533.7    4.841      53.875
2015    7       31    17  46    5.7113   533.8    4.839      53.887
2015    7       31    17  52    5.7105   533.9    4.837      53.898
2015    7       31    17  58    5.7098   533.9    4.835      53.910
2015    7       31    18   3    5.7091   534.0    4.833      53.922
2015    7       31    18   9    5.7083   534.1    4.831      53.934
2015    7       31    18  15    5.7076   534.2    4.830      53.945
2015    7       31    18  21    5.7069   534.3    4.828      53.957
2015    7       31    18  27    5.7062   534.3    4.826      53.969
2015    7       31    18  32    5.7054   534.4    4.824      53.981
2015    7       31    18  38    5.7047   534.5    4.822      53.992
2015    7       31    18  44    5.7040   534.6    4.821      54.004
2015    7       31    18  50    5.7033   534.7    4.819      54.016
2015    7       31    18  55    5.7026   534.7    4.817      54.028
2015    7       31    19   1    5.7019   534.8    4.815      54.039
2015    7       31    19   7    5.7012   534.9    4.813      54.051
2015    7       31    19  13    5.7004   535.0    4.812      54.062
2015    7       31    19  19    5.6997   535.1    4.810      54.074
2015    7       31    19  24    5.6990   535.1    4.808      54.085
2015    7       31    19  30    5.6983   535.2    4.806      54.097
2015    7       31    19  36    5.6976   535.3    4.804      54.108
2015    7       31    19  42    5.6969   535.4    4.803      54.119
2015    7       31    19  47    5.6962   535.5    4.801      54.130
2015    7       31    19  53    5.6955   535.5    4.799      54.142
2015    7       31    19  59    5.6948   535.6    4.797      54.153
2015    7       31    20   5    5.6940   535.7    4.796      54.164
2015    7       31    20  11    5.6933   535.8    4.794      54.175
2015    7       31    20  16    5.6926   535.9    4.792      54.187
2015    7       31    20  22    5.6919   535.9    4.790      54.198
2015    7       31    20  28    5.6912   536.0    4.789      54.209
2015    7       31    20  34    5.6904   536.1    4.787      54.220
2015    7       31    20  39    5.6897   536.2    4.785      54.231
2015    7       31    20  45    5.6890   536.3    4.783      54.242
2015    7       31    20  51    5.6882   536.3    4.781      54.253
2015    7       31    20  57    5.6875   536.4    4.780      54.264
2015    7       31    21   3    5.6867   536.5    4.778      54.276
2015    7       31    21   8    5.6860   536.6    4.776      54.287
2015    7       31    21  14    5.6852   536.7    4.774      54.298
2015    7       31    21  20    5.6844   536.7    4.772      54.309
2015    7       31    21  26    5.6837   536.8    4.771      54.321
2015    7       31    21  32    5.6829   536.9    4.769      54.332
2015    7       31    21  37    5.6821   537.0    4.767      54.343
2015    7       31    21  43    5.6813   537.1    4.765      54.355
2015    7       31    21  49    5.6805   537.1    4.763      54.366
2015    7       31    21  55    5.6797   537.2    4.761      54.378
2015    7       31    22   0    5.6789   537.3    4.760      54.389
2015    7       31    22   6    5.6781   537.4    4.758      54.401
2015    7       31    22  12    5.6773   537.5    4.756      54.413
2015    7       31    22  18    5.6765   537.5    4.754      54.425
2015    7       31    22  24    5.6757   537.6    4.752      54.437
2015    7       31    22  29    5.6749   537.7    4.750      54.449
2015    7       31    22  35    5.6740   537.8    4.748      54.461
2015    7       31    22  41    5.6732   537.9    4.746      54.474
2015    7       31    22  47    5.6724   538.0    4.745      54.486
2015    7       31    22  53    5.6715   538.0    4.743      54.498
2015    7       31    22  58    5.6707   538.1    4.741      54.511
2015    7       31    23   4    5.6699   538.2    4.739      54.524
2015    7       31    23  10    5.6691   538.3    4.737      54.537
2015    7       31    23  16    5.6683   538.4    4.735      54.550
2015    7       31    23  21    5.6674   538.5    4.734      54.563
2015    7       31    23  27    5.6666   538.5    4.732      54.577
2015    7       31    23  33    5.6658   538.6    4.730      54.590
2015    7       31    23  39    5.6650   538.7    4.728      54.604
2015    7       31    23  45    5.6642   538.8    4.726      54.618
2015    7       31    23  50    5.6634   538.9    4.725      54.632
2015    7       31    23  56    5.6626   539.0    4.723      54.646
2015    8        1     0   2    5.6619   539.0    4.721      54.662
2015    8        1     0   8    5.6615   539.1    4.720      54.679
2015    8        1     0  14    5.6610   539.2    4.718      54.696
2015    8        1     0  19    5.6605   539.3    4.717      54.713
2015    8        1     0  25    5.6600   539.4    4.715      54.730
2015    8        1     0  31    5.6595   539.5    4.714      54.747
2015    8        1     0  37    5.6590   539.6    4.712      54.763
2015    8        1     0  43    5.6586   539.7    4.710      54.780
2015    8        1     0  48    5.6581   539.8    4.708      54.796
2015    8        1     0  54    5.6575   539.9    4.707      54.812
2015    8        1     1   0    5.6570   540.0    4.705      54.827
2015    8        1     1   6    5.6565   540.1    4.703      54.842
2015    8        1     1  11    5.6560   540.1    4.701      54.857
2015    8        1     1  17    5.6555   540.2    4.700      54.872
2015    8        1     1  23    5.6549   540.3    4.698      54.886
2015    8        1     1  29    5.6544   540.4    4.696      54.900
2015    8        1     1  35    5.6538   540.5    4.694      54.913
2015    8        1     1  40    5.6533   540.6    4.692      54.927
2015    8        1     1  46    5.6527   540.7    4.690      54.940
2015    8        1     1  52    5.6522   540.8    4.688      54.953
2015    8        1     1  58    5.6516   540.9    4.686      54.965
2015    8        1     2   4    5.6511   541.0    4.684      54.978
2015    8        1     2   9    5.6505   541.1    4.682      54.990
2015    8        1     2  15    5.6499   541.1    4.680      55.002
2015    8        1     2  21    5.6494   541.2    4.678      55.014
2015    8        1     2  27    5.6488   541.3    4.677      55.026
2015    8        1     2  32    5.6483   541.4    4.675      55.038
2015    8        1     2  38    5.6477   541.5    4.673      55.050
2015    8        1     2  44    5.6472   541.6    4.671      55.062
2015    8        1     2  50    5.6466   541.7    4.669      55.074
2015    8        1     2  56    5.6461   541.8    4.667      55.086
2015    8        1     3   1    5.6455   541.9    4.665      55.098
2015    8        1     3   7    5.6450   542.0    4.663      55.111
2015    8        1     3  13    5.6444   542.1    4.661      55.123
2015    8        1     3  19    5.6439   542.2    4.660      55.135
2015    8        1     3  24    5.6433   542.3    4.658      55.148
2015    8        1     3  30    5.6427   542.3    4.656      55.161
2015    8        1     3  36    5.6421   542.4    4.654      55.174
2015    8        1     3  42    5.6414   542.5    4.653      55.187
2015    8        1     3  48    5.6408   542.6    4.651      55.200
2015    8        1     3  53    5.6401   542.7    4.649      55.214
2015    8        1     3  59    5.6394   542.8    4.648      55.229
2015    8        1     4   5    5.6387   542.9    4.646      55.244
2015    8        1     4  11    5.6379   543.0    4.644      55.260
2015    8        1     4  17    5.6372   543.1    4.642      55.276
2015    8        1     4  22    5.6364   543.2    4.641      55.292
2015    8        1     4  28    5.6356   543.3    4.639      55.309
2015    8        1     4  34    5.6348   543.4    4.637      55.325
2015    8        1     4  40    5.6339   543.5    4.635      55.341
2015    8        1     4  45    5.6331   543.6    4.633      55.356
2015    8        1     4  51    5.6322   543.7    4.631      55.372
2015    8        1     4  57    5.6313   543.8    4.629      55.387
2015    8        1     5   3    5.6304   543.9    4.626      55.402
2015    8        1     5   9    5.6294   544.0    4.624      55.417
2015    8        1     5  14    5.6285   544.1    4.622      55.431
2015    8        1     5  20    5.6275   544.2    4.620      55.446
2015    8        1     5  26    5.6266   544.3    4.617      55.459
2015    8        1     5  32    5.6256   544.4    4.615      55.473
2015    8        1     5  37    5.6246   544.5    4.613      55.486
2015    8        1     5  43    5.6236   544.6    4.611      55.499
2015    8        1     5  49    5.6226   544.7    4.608      55.512
2015    8        1     5  55    5.6216   544.8    4.606      55.525
2015    8        1     6   1    5.6205   544.9    4.604      55.537
2015    8        1     6   6    5.6195   545.0    4.601      55.549
2015    8        1     6  12    5.6185   545.1    4.599      55.562
2015    8        1     6  18    5.6175   545.2    4.597      55.574
2015    8        1     6  24    5.6164   545.3    4.594      55.586
2015    8        1     6  30    5.6154   545.4    4.592      55.598
2015    8        1     6  35    5.6144   545.5    4.590      55.609
2015    8        1     6  41    5.6134   545.6    4.587      55.621
2015    8        1     6  47    5.6123   545.7    4.585      55.633
2015    8        1     6  53    5.6113   545.8    4.583      55.645
2015    8        1     6  59    5.6103   545.9    4.580      55.657
2015    8        1     7   4    5.6093   546.0    4.578      55.669
2015    8        1     7  10    5.6082   546.1    4.576      55.682
2015    8        1     7  16    5.6072   546.2    4.573      55.694
2015    8        1     7  22    5.6061   546.3    4.571      55.707
2015    8        1     7  27    5.6051   546.4    4.568      55.719
2015    8        1     7  33    5.6040   546.5    4.566      55.731
2015    8        1     7  39    5.6029   546.6    4.563      55.742
2015    8        1     7  45    5.6018   546.7    4.561      55.752
2015    8        1     7  51    5.6006   546.8    4.558      55.762
2015    8        1     7  56    5.5995   546.9    4.555      55.772
2015    8        1     8   2    5.5983   547.0    4.553      55.781
2015    8        1     8   8    5.5972   547.1    4.550      55.790
2015    8        1     8  14    5.5960   547.2    4.547      55.798
2015    8        1     8  20    5.5948   547.3    4.545      55.807
2015    8        1     8  25    5.5936   547.4    4.542      55.815
2015    8        1     8  31    5.5924   547.5    4.539      55.822
2015    8        1     8  37    5.5912   547.6    4.537      55.830
2015    8        1     8  43    5.5900   547.7    4.534      55.837
2015    8        1     8  48    5.5888   547.8    4.531      55.844
2015    8        1     8  54    5.5876   547.9    4.528      55.851
2015    8        1     9   0    5.5864   547.9    4.526      55.858
2015    8        1     9   6    5.5851   548.0    4.523      55.864
2015    8        1     9  12    5.5839   548.1    4.520      55.871
2015    8        1     9  17    5.5826   548.2    4.518      55.877
2015    8        1     9  23    5.5814   548.3    4.515      55.884
2015    8        1     9  29    5.5801   548.4    4.512      55.891
2015    8        1     9  35    5.5788   548.5    4.510      55.897
2015    8        1     9  41    5.5775   548.6    4.507      55.904
2015    8        1     9  46    5.5762   548.7    4.505      55.911
2015    8        1     9  52    5.5749   548.8    4.502      55.918
2015    8        1     9  58    5.5735   548.9    4.500      55.925
2015    8        1    10   4    5.5721   549.0    4.497      55.932
2015    8        1    10   9    5.5708   549.1    4.495      55.939
2015    8        1    10  15    5.5694   549.2    4.493      55.947
2015    8        1    10  21    5.5680   549.3    4.490      55.954
2015    8        1    10  27    5.5665   549.4    4.488      55.962
2015    8        1    10  33    5.5651   549.5    4.486      55.970
2015    8        1    10  38    5.5636   549.6    4.483      55.978
2015    8        1    10  44    5.5621   549.7    4.481      55.987
2015    8        1    10  50    5.5606   549.8    4.479      55.996
2015    8        1    10  56    5.5590   549.9    4.476      56.005
2015    8        1    11   1    5.5574   550.0    4.474      56.015
2015    8        1    11   7    5.5558   550.1    4.472      56.025
2015    8        1    11  13    5.5541   550.2    4.469      56.035
2015    8        1    11  19    5.5525   550.3    4.467      56.046
2015    8        1    11  25    5.5508   550.4    4.464      56.058
2015    8        1    11  30    5.5491   550.5    4.462      56.069
2015    8        1    11  36    5.5473   550.6    4.459      56.081
2015    8        1    11  42    5.5456   550.7    4.457      56.092
2015    8        1    11  48    5.5438   550.8    4.454      56.103
2015    8        1    11  54    5.5420   550.9    4.451      56.113
2015    8        1    11  59    5.5402   551.0    4.448      56.122
2015    8        1    12   5    5.5383   551.0    4.446      56.130
2015    8        1    12  11    5.5365   551.1    4.443      56.138
2015    8        1    12  17    5.5346   551.2    4.440      56.146
2015    8        1    12  22    5.5327   551.3    4.437      56.152
2015    8        1    12  28    5.5308   551.4    4.434      56.159
2015    8        1    12  34    5.5289   551.5    4.431      56.164
2015    8        1    12  40    5.5269   551.6    4.428      56.169
2015    8        1    12  46    5.5250   551.7    4.425      56.173
2015    8        1    12  51    5.5230   551.8    4.422      56.178
2015    8        1    12  57    5.5210   551.9    4.419      56.181
2015    8        1    13   3    5.5191   552.0    4.415      56.184
2015    8        1    13   9    5.5171   552.1    4.412      56.187
2015    8        1    13  15    5.5151   552.2    4.409      56.189
2015    8        1    13  20    5.5131   552.2    4.406      56.191
2015    8        1    13  26    5.5111   552.3    4.403      56.193
2015    8        1    13  32    5.5091   552.4    4.400      56.194
2015    8        1    13  38    5.5071   552.5    4.397      56.195
2015    8        1    13  43    5.5050   552.6    4.394      56.196
2015    8        1    13  49    5.5030   552.7    4.391      56.197
2015    8        1    13  55    5.5010   552.8    4.388      56.197
2015    8        1    14   1    5.4990   552.9    4.385      56.197
2015    8        1    14   7    5.4969   552.9    4.382      56.198
2015    8        1    14  12    5.4949   553.0    4.379      56.198
2015    8        1    14  18    5.4928   553.1    4.375      56.198
2015    8        1    14  24    5.4908   553.2    4.372      56.198
2015    8        1    14  30    5.4887   553.3    4.369      56.198
2015    8        1    14  36    5.4866   553.4    4.367      56.198
2015    8        1    14  41    5.4845   553.5    4.364      56.197
2015    8        1    14  47    5.4825   553.5    4.361      56.198
2015    8        1    14  53    5.4804   553.6    4.358      56.197
2015    8        1    14  59    5.4783   553.7    4.355      56.198
2015    8        1    15   5    5.4762   553.8    4.352      56.198
2015    8        1    15  10    5.4741   553.9    4.349      56.198
2015    8        1    15  16    5.4720   554.0    4.346      56.198
2015    8        1    15  22    5.4699   554.0    4.343      56.198
2015    8        1    15  28    5.4677   554.1    4.341      56.199
2015    8        1    15  33    5.4656   554.2    4.338      56.199
2015    8        1    15  39    5.4634   554.3    4.335      56.199
2015    8        1    15  45    5.4613   554.4    4.332      56.200
2015    8        1    15  51    5.4592   554.4    4.329      56.200
2015    8        1    15  57    5.4570   554.5    4.327      56.200
2015    8        1    16   2    5.4548   554.6    4.324      56.201
2015    8        1    16   8    5.4527   554.7    4.321      56.201
2015    8        1    16  14    5.4505   554.8    4.318      56.201
2015    8        1    16  20    5.4483   554.8    4.315      56.201
2015    8        1    16  26    5.4460   554.9    4.313      56.201
2015    8        1    16  31    5.4438   555.0    4.310      56.201
2015    8        1    16  37    5.4416   555.1    4.307      56.200
2015    8        1    16  43    5.4393   555.1    4.304      56.200
2015    8        1    16  49    5.4370   555.2    4.301      56.199
2015    8        1    16  54    5.4347   555.3    4.299      56.197
2015    8        1    17   0    5.4324   555.4    4.296      56.196
2015    8        1    17   6    5.4300   555.4    4.293      56.194
2015    8        1    17  12    5.4277   555.5    4.290      56.193
2015    8        1    17  18    5.4253   555.6    4.287      56.190
2015    8        1    17  23    5.4229   555.7    4.284      56.188
2015    8        1    17  29    5.4205   555.7    4.281      56.185
2015    8        1    17  35    5.4180   555.8    4.278      56.183
2015    8        1    17  41    5.4156   555.9    4.275      56.180
2015    8        1    17  46    5.4131   555.9    4.272      56.176
2015    8        1    17  52    5.4106   556.0    4.269      56.173
2015    8        1    17  58    5.4081   556.1    4.266      56.169
2015    8        1    18   4    5.4056   556.1    4.263      56.164
2015    8        1    18  10    5.4030   556.2    4.259      56.159
2015    8        1    18  15    5.4005   556.3    4.256      56.154
2015    8        1    18  21    5.3979   556.3    4.253      56.148
2015    8        1    18  27    5.3953   556.4    4.250      56.142
2015    8        1    18  33    5.3927   556.5    4.247      56.136
2015    8        1    18  38    5.3902   556.5    4.243      56.129
2015    8        1    18  44    5.3875   556.6    4.240      56.121
2015    8        1    18  50    5.3849   556.7    4.237      56.113
2015    8        1    18  56    5.3823   556.7    4.234      56.105
2015    8        1    19   2    5.3797   556.8    4.231      56.097
2015    8        1    19   7    5.3770   556.8    4.227      56.088
2015    8        1    19  13    5.3743   556.9    4.224      56.079
2015    8        1    19  19    5.3717   557.0    4.221      56.069
2015    8        1    19  25    5.3690   557.0    4.218      56.060
2015    8        1    19  31    5.3663   557.1    4.215      56.050
2015    8        1    19  36    5.3636   557.1    4.212      56.040
2015    8        1    19  42    5.3609   557.2    4.208      56.030
2015    8        1    19  48    5.3582   557.3    4.205      56.020
2015    8        1    19  54    5.3555   557.3    4.202      56.010
2015    8        1    19  59    5.3528   557.4    4.199      56.001
2015    8        1    20   5    5.3501   557.4    4.197      55.991
2015    8        1    20  11    5.3473   557.5    4.194      55.981
2015    8        1    20  17    5.3446   557.5    4.191      55.972
2015    8        1    20  23    5.3419   557.6    4.188      55.962
2015    8        1    20  28    5.3392   557.6    4.185      55.953
2015    8        1    20  34    5.3365   557.7    4.183      55.945
2015    8        1    20  40    5.3337   557.7    4.180      55.937
2015    8        1    20  46    5.3310   557.8    4.177      55.929
2015    8        1    20  52    5.3283   557.8    4.175      55.921
2015    8        1    20  57    5.3256   557.9    4.172      55.914
2015    8        1    21   3    5.3228   557.9    4.170      55.907
2015    8        1    21   9    5.3201   558.0    4.167      55.900
2015    8        1    21  15    5.3174   558.0    4.165      55.894
2015    8        1    21  20    5.3147   558.0    4.162      55.888
2015    8        1    21  26    5.3120   558.1    4.160      55.882
2015    8        1    21  32    5.3093   558.1    4.157      55.876
2015    8        1    21  38    5.3066   558.2    4.155      55.870
2015    8        1    21  44    5.3039   558.2    4.152      55.864
2015    8        1    21  49    5.3012   558.2    4.150      55.858
2015    8        1    21  55    5.2985   558.3    4.148      55.851
2015    8        1    22   1    5.2958   558.3    4.145      55.845
2015    8        1    22   7    5.2932   558.4    4.143      55.838
2015    8        1    22  13    5.2905   558.4    4.140      55.832
2015    8        1    22  18    5.2878   558.4    4.138      55.825
2015    8        1    22  24    5.2852   558.5    4.135      55.817
2015    8        1    22  30    5.2825   558.5    4.133      55.810
2015    8        1    22  36    5.2798   558.5    4.130      55.802
2015    8        1    22  42    5.2772   558.6    4.128      55.794
2015    8        1    22  47    5.2745   558.6    4.125      55.785
2015    8        1    22  53    5.2719   558.6    4.122      55.776
2015    8        1    22  59    5.2692   558.7    4.120      55.767
2015    8        1    23   5    5.2665   558.7    4.117      55.757
2015    8        1    23  10    5.2639   558.7    4.114      55.746
2015    8        1    23  16    5.2612   558.8    4.112      55.735
2015    8        1    23  22    5.2585   558.8    4.109      55.724
2015    8        1    23  28    5.2558   558.8    4.106      55.712
2015    8        1    23  34    5.2531   558.8    4.103      55.699
2015    8        1    23  39    5.2504   558.9    4.101      55.686
2015    8        1    23  45    5.2477   558.9    4.098      55.672
2015    8        1    23  51    5.2450   558.9    4.095      55.658
2015    8        1    23  57    5.2423   559.0    4.092      55.643
2015    8        2     0   3    5.2394   559.0    4.089      55.628
2015    8        2     0   8    5.2364   559.0    4.086      55.611
2015    8        2     0  14    5.2334   559.0    4.083      55.594
2015    8        2     0  20    5.2303   559.0    4.080      55.576
2015    8        2     0  26    5.2273   559.1    4.077      55.559
2015    8        2     0  31    5.2243   559.1    4.074      55.541
2015    8        2     0  37    5.2213   559.1    4.071      55.523
2015    8        2     0  43    5.2182   559.1    4.069      55.505
2015    8        2     0  49    5.2152   559.2    4.066      55.487
2015    8        2     0  55    5.2121   559.2    4.063      55.469
2015    8        2     1   0    5.2091   559.2    4.060      55.451
2015    8        2     1   6    5.2060   559.2    4.057      55.433
2015    8        2     1  12    5.2030   559.2    4.055      55.415
2015    8        2     1  18    5.2000   559.3    4.052      55.398
2015    8        2     1  23    5.1970   559.3    4.049      55.380
2015    8        2     1  29    5.1939   559.3    4.047      55.363
2015    8        2     1  35    5.1909   559.3    4.044      55.346
2015    8        2     1  41    5.1879   559.3    4.042      55.328
2015    8        2     1  47    5.1849   559.4    4.039      55.312
2015    8        2     1  52    5.1819   559.4    4.037      55.296
2015    8        2     1  58    5.1789   559.4    4.034      55.280
2015    8        2     2   4    5.1758   559.4    4.032      55.265
2015    8        2     2  10    5.1729   559.4    4.029      55.250
2015    8        2     2  16    5.1698   559.5    4.026      55.234
2015    8        2     2  21    5.1668   559.5    4.024      55.219
2015    8        2     2  27    5.1638   559.5    4.021      55.203
2015    8        2     2  33    5.1608   559.5    4.019      55.187
2015    8        2     2  39    5.1578   559.5    4.016      55.171
2015    8        2     2  44    5.1548   559.5    4.014      55.155
2015    8        2     2  50    5.1518   559.5    4.011      55.139
2015    8        2     2  56    5.1489   559.5    4.009      55.123
2015    8        2     3   2    5.1459   559.5    4.006      55.106
2015    8        2     3   8    5.1429   559.6    4.004      55.090
2015    8        2     3  13    5.1399   559.6    4.001      55.073
2015    8        2     3  19    5.1370   559.6    3.999      55.057
2015    8        2     3  25    5.1340   559.6    3.996      55.041
2015    8        2     3  31    5.1311   559.6    3.994      55.025
2015    8        2     3  37    5.1281   559.6    3.991      55.008
2015    8        2     3  42    5.1252   559.6    3.989      54.992
2015    8        2     3  48    5.1223   559.6    3.987      54.977
2015    8        2     3  54    5.1194   559.6    3.984      54.961
2015    8        2     4   0    5.1165   559.6    3.982      54.945
2015    8        2     4   5    5.1136   559.6    3.979      54.929
2015    8        2     4  11    5.1106   559.6    3.977      54.914
2015    8        2     4  17    5.1077   559.6    3.975      54.898
2015    8        2     4  23    5.1048   559.6    3.972      54.882
2015    8        2     4  29    5.1019   559.6    3.970      54.866
2015    8        2     4  34    5.0990   559.6    3.967      54.850
2015    8        2     4  40    5.0960   559.6    3.965      54.833
2015    8        2     4  46    5.0931   559.6    3.963      54.816
2015    8        2     4  52    5.0902   559.6    3.960      54.799
2015    8        2     4  58    5.0873   559.6    3.958      54.780
2015    8        2     5   3    5.0844   559.6    3.955      54.761
2015    8        2     5   9    5.0815   559.6    3.952      54.742
2015    8        2     5  15    5.0786   559.6    3.950      54.722
2015    8        2     5  21    5.0757   559.6    3.947      54.702
2015    8        2     5  26    5.0728   559.6    3.945      54.681
2015    8        2     5  32    5.0699   559.6    3.942      54.659
2015    8        2     5  38    5.0670   559.6    3.940      54.638
2015    8        2     5  44    5.0641   559.6    3.937      54.615
2015    8        2     5  50    5.0612   559.6    3.935      54.593
2015    8        2     5  55    5.0583   559.6    3.932      54.570
2015    8        2     6   1    5.0554   559.5    3.929      54.547
2015    8        2     6   7    5.0525   559.5    3.927      54.523
2015    8        2     6  13    5.0495   559.5    3.924      54.500
2015    8        2     6  19    5.0466   559.5    3.922      54.476
2015    8        2     6  24    5.0437   559.5    3.919      54.453
2015    8        2     6  30    5.0407   559.5    3.917      54.428
2015    8        2     6  36    5.0378   559.5    3.914      54.404
2015    8        2     6  42    5.0348   559.5    3.912      54.380
2015    8        2     6  47    5.0319   559.4    3.910      54.356
2015    8        2     6  53    5.0290   559.4    3.907      54.332
2015    8        2     6  59    5.0260   559.4    3.905      54.307
2015    8        2     7   5    5.0231   559.4    3.902      54.283
2015    8        2     7  11    5.0202   559.4    3.900      54.259
2015    8        2     7  16    5.0172   559.4    3.898      54.235
2015    8        2     7  22    5.0143   559.3    3.896      54.211
2015    8        2     7  28    5.0114   559.3    3.893      54.187
2015    8        2     7  34    5.0085   559.3    3.891      54.164
2015    8        2     7  40    5.0056   559.3    3.889      54.141
2015    8        2     7  45    5.0027   559.3    3.887      54.118
2015    8        2     7  51    4.9998   559.2    3.885      54.095
2015    8        2     7  57    4.9970   559.2    3.883      54.072
2015    8        2     8   3    4.9941   559.2    3.881      54.050
2015    8        2     8   8    4.9913   559.2    3.879      54.029
2015    8        2     8  14    4.9885   559.2    3.877      54.007
2015    8        2     8  20    4.9857   559.1    3.875      53.986
2015    8        2     8  26    4.9829   559.1    3.873      53.966
2015    8        2     8  32    4.9802   559.1    3.871      53.946
2015    8        2     8  37    4.9774   559.1    3.870      53.926
2015    8        2     8  43    4.9747   559.1    3.868      53.907
2015    8        2     8  49    4.9720   559.0    3.866      53.887
2015    8        2     8  55    4.9694   559.0    3.864      53.869
2015    8        2     9   0    4.9667   559.0    3.863      53.850
2015    8        2     9   6    4.9641   559.0    3.861      53.832
2015    8        2     9  12    4.9615   558.9    3.859      53.815
2015    8        2     9  18    4.9588   558.9    3.857      53.798
2015    8        2     9  24    4.9563   558.9    3.856      53.781
2015    8        2     9  29    4.9537   558.9    3.854      53.765
2015    8        2     9  35    4.9512   558.8    3.852      53.749
2015    8        2     9  41    4.9486   558.8    3.850      53.733
2015    8        2     9  47    4.9461   558.8    3.849      53.717
2015    8        2     9  53    4.9436   558.8    3.847      53.701
2015    8        2     9  58    4.9412   558.7    3.845      53.684
2015    8        2    10   4    4.9387   558.7    3.843      53.668
2015    8        2    10  10    4.9363   558.7    3.841      53.651
2015    8        2    10  16    4.9339   558.6    3.840      53.634
2015    8        2    10  21    4.9314   558.6    3.838      53.617
2015    8        2    10  27    4.9290   558.6    3.836      53.600
2015    8        2    10  33    4.9266   558.6    3.834      53.582
2015    8        2    10  39    4.9242   558.5    3.833      53.564
2015    8        2    10  45    4.9218   558.5    3.831      53.546
2015    8        2    10  50    4.9193   558.5    3.829      53.528
2015    8        2    10  56    4.9169   558.5    3.828      53.510
2015    8        2    11   2    4.9144   558.4    3.826      53.491
2015    8        2    11   8    4.9119   558.4    3.824      53.473
2015    8        2    11  14    4.9094   558.4    3.823      53.454
2015    8        2    11  19    4.9069   558.3    3.821      53.435
2015    8        2    11  25    4.9044   558.3    3.819      53.416
2015    8        2    11  31    4.9018   558.3    3.818      53.396
2015    8        2    11  37    4.8993   558.3    3.816      53.376
2015    8        2    11  42    4.8967   558.2    3.815      53.356
2015    8        2    11  48    4.8941   558.2    3.813      53.337
2015    8        2    11  54    4.8915   558.2    3.812      53.316
2015    8        2    12   0    4.8890   558.1    3.810      53.296
2015    8        2    12   6    4.8863   558.1    3.808      53.275
2015    8        2    12  11    4.8837   558.1    3.807      53.254
2015    8        2    12  17    4.8811   558.1    3.805      53.232
2015    8        2    12  23    4.8784   558.0    3.804      53.211
2015    8        2    12  29    4.8758   558.0    3.802      53.189
2015    8        2    12  35    4.8731   558.0    3.801      53.168
2015    8        2    12  40    4.8704   557.9    3.800      53.145
2015    8        2    12  46    4.8678   557.9    3.798      53.123
2015    8        2    12  52    4.8651   557.9    3.797      53.101
2015    8        2    12  58    4.8624   557.8    3.795      53.078
2015    8        2    13   4    4.8597   557.8    3.794      53.055
2015    8        2    13   9    4.8570   557.7    3.792      53.032
2015    8        2    13  15    4.8543   557.7    3.791      53.009
2015    8        2    13  21    4.8517   557.7    3.789      52.986
2015    8        2    13  27    4.8490   557.6    3.788      52.962
2015    8        2    13  32    4.8463   557.6    3.787      52.938
2015    8        2    13  38    4.8436   557.5    3.785      52.914
2015    8        2    13  44    4.8409   557.5    3.784      52.891
2015    8        2    13  50    4.8383   557.4    3.782      52.867
2015    8        2    13  56    4.8356   557.4    3.781      52.843
2015    8        2    14   1    4.8330   557.3    3.780      52.819
2015    8        2    14   7    4.8304   557.3    3.778      52.796
2015    8        2    14  13    4.8278   557.3    3.777      52.772
2015    8        2    14  19    4.8253   557.2    3.776      52.748
2015    8        2    14  25    4.8227   557.2    3.774      52.724
2015    8        2    14  30    4.8202   557.1    3.773      52.701
2015    8        2    14  36    4.8177   557.1    3.772      52.677
2015    8        2    14  42    4.8153   557.0    3.770      52.653
2015    8        2    14  48    4.8128   557.0    3.769      52.629
2015    8        2    14  53    4.8104   556.9    3.768      52.606
2015    8        2    14  59    4.8081   556.9    3.767      52.582
2015    8        2    15   5    4.8057   556.8    3.765      52.558
2015    8        2    15  11    4.8034   556.7    3.764      52.534
2015    8        2    15  17    4.8011   556.7    3.763      52.511
2015    8        2    15  22    4.7989   556.6    3.761      52.486
2015    8        2    15  28    4.7966   556.6    3.760      52.462
2015    8        2    15  34    4.7944   556.5    3.759      52.438
2015    8        2    15  40    4.7922   556.5    3.757      52.414
2015    8        2    15  45    4.7900   556.4    3.756      52.390
2015    8        2    15  51    4.7879   556.4    3.754      52.366
2015    8        2    15  57    4.7857   556.3    3.753      52.341
2015    8        2    16   3    4.7836   556.3    3.751      52.317
2015    8        2    16   9    4.7815   556.2    3.750      52.292
2015    8        2    16  14    4.7793   556.1    3.749      52.267
2015    8        2    16  20    4.7772   556.1    3.747      52.242
2015    8        2    16  26    4.7751   556.0    3.746      52.218
2015    8        2    16  32    4.7730   556.0    3.744      52.193
2015    8        2    16  37    4.7710   555.9    3.743      52.168
2015    8        2    16  43    4.7688   555.8    3.741      52.143
2015    8        2    16  49    4.7668   555.8    3.740      52.118
2015    8        2    16  55    4.7647   555.7    3.738      52.093
2015    8        2    17   1    4.7626   555.7    3.737      52.069
2015    8        2    17   6    4.7606   555.6    3.735      52.044
2015    8        2    17  12    4.7585   555.5    3.734      52.020
2015    8        2    17  18    4.7565   555.5    3.732      51.996
2015    8        2    17  24    4.7544   555.4    3.731      51.972
2015    8        2    17  30    4.7524   555.3    3.730      51.948
2015    8        2    17  35    4.7504   555.3    3.728      51.925
2015    8        2    17  41    4.7483   555.2    3.727      51.902
2015    8        2    17  47    4.7463   555.2    3.726      51.880
2015    8        2    17  53    4.7443   555.1    3.725      51.858
2015    8        2    17  58    4.7423   555.0    3.724      51.836
2015    8        2    18   4    4.7403   555.0    3.723      51.815
2015    8        2    18  10    4.7383   554.9    3.722      51.795
2015    8        2    18  16    4.7363   554.9    3.721      51.774
2015    8        2    18  22    4.7342   554.8    3.720      51.755
2015    8        2    18  27    4.7322   554.7    3.719      51.736
2015    8        2    18  33    4.7301   554.7    3.719      51.717
2015    8        2    18  39    4.7280   554.6    3.718      51.699
2015    8        2    18  45    4.7260   554.6    3.717      51.681
2015    8        2    18  51    4.7239   554.5    3.717      51.663
2015    8        2    18  56    4.7218   554.4    3.716      51.646
2015    8        2    19   2    4.7196   554.4    3.716      51.628
2015    8        2    19   8    4.7175   554.3    3.715      51.611
2015    8        2    19  14    4.7153   554.3    3.715      51.594
2015    8        2    19  19    4.7131   554.2    3.714      51.577
2015    8        2    19  25    4.7110   554.2    3.714      51.559
2015    8        2    19  31    4.7088   554.1    3.713      51.542
2015    8        2    19  37    4.7066   554.0    3.713      51.524
2015    8        2    19  43    4.7043   554.0    3.712      51.505
2015    8        2    19  48    4.7021   553.9    3.712      51.487
2015    8        2    19  54    4.6999   553.9    3.711      51.468
2015    8        2    20   0    4.6977   553.8    3.710      51.448
2015    8        2    20   6    4.6955   553.7    3.710      51.428
2015    8        2    20  12    4.6932   553.7    3.709      51.408
2015    8        2    20  17    4.6910   553.6    3.709      51.387
2015    8        2    20  23    4.6888   553.5    3.708      51.365
2015    8        2    20  29    4.6867   553.4    3.707      51.344
2015    8        2    20  35    4.6845   553.4    3.706      51.321
2015    8        2    20  41    4.6823   553.3    3.706      51.299
2015    8        2    20  46    4.6802   553.2    3.705      51.277
2015    8        2    20  52    4.6781   553.2    3.704      51.254
2015    8        2    20  58    4.6761   553.1    3.704      51.232
2015    8        2    21   4    4.6740   553.0    3.703      51.209
2015    8        2    21   9    4.6720   553.0    3.702      51.187
2015    8        2    21  15    4.6701   552.9    3.702      51.164
2015    8        2    21  21    4.6682   552.8    3.701      51.142
2015    8        2    21  27    4.6663   552.8    3.701      51.120
2015    8        2    21  33    4.6645   552.7    3.700      51.098
2015    8        2    21  38    4.6627   552.6    3.700      51.076
2015    8        2    21  44    4.6610   552.6    3.700      51.055
2015    8        2    21  50    4.6593   552.5    3.700      51.034
2015    8        2    21  56    4.6577   552.4    3.699      51.013
2015    8        2    22   1    4.6561   552.4    3.699      50.992
2015    8        2    22   7    4.6546   552.3    3.699      50.972
2015    8        2    22  13    4.6531   552.2    3.699      50.953
2015    8        2    22  19    4.6515   552.2    3.699      50.933
2015    8        2    22  25    4.6500   552.1    3.699      50.915
2015    8        2    22  30    4.6485   552.0    3.699      50.896
2015    8        2    22  36    4.6469   552.0    3.700      50.878
2015    8        2    22  42    4.6453   551.9    3.700      50.860
2015    8        2    22  48    4.6438   551.8    3.701      50.843
2015    8        2    22  54    4.6422   551.8    3.701      50.827
2015    8        2    22  59    4.6405   551.7    3.701      50.812
2015    8        2    23   5    4.6389   551.6    3.702      50.797
2015    8        2    23  11    4.6372   551.6    3.702      50.784
2015    8        2    23  17    4.6355   551.5    3.702      50.771
2015    8        2    23  22    4.6338   551.5    3.702      50.758
2015    8        2    23  28    4.6320   551.4    3.702      50.743
2015    8        2    23  34    4.6302   551.3    3.702      50.728
2015    8        2    23  40    4.6284   551.3    3.702      50.713
2015    8        2    23  46    4.6266   551.2    3.702      50.697
2015    8        2    23  51    4.6248   551.1    3.702      50.680
2015    8        2    23  57    4.6229   551.1    3.701      50.663
2015    8        3     0   3    4.6211   551.0    3.701      50.645
2015    8        3     0   9    4.6192   550.9    3.700      50.626
2015    8        3     0  15    4.6173   550.9    3.700      50.607
2015    8        3     0  20    4.6154   550.8    3.699      50.587
2015    8        3     0  26    4.6135   550.7    3.698      50.566
2015    8        3     0  32    4.6117   550.6    3.698      50.546
2015    8        3     0  38    4.6098   550.6    3.697      50.525
2015    8        3     0  43    4.6079   550.5    3.696      50.503
2015    8        3     0  49    4.6060   550.4    3.695      50.481
2015    8        3     0  55    4.6041   550.3    3.695      50.460
2015    8        3     1   1    4.6022   550.3    3.694      50.437
2015    8        3     1   7    4.6003   550.2    3.693      50.415
2015    8        3     1  12    4.5984   550.1    3.692      50.393
2015    8        3     1  18    4.5966   550.0    3.691      50.370
2015    8        3     1  24    4.5947   550.0    3.691      50.347
2015    8        3     1  30    4.5929   549.9    3.690      50.325
2015    8        3     1  35    4.5911   549.8    3.689      50.302
2015    8        3     1  41    4.5892   549.7    3.688      50.279
2015    8        3     1  47    4.5874   549.6    3.688      50.256
2015    8        3     1  53    4.5856   549.6    3.687      50.233
2015    8        3     1  59    4.5838   549.5    3.686      50.210
2015    8        3     2   4    4.5820   549.4    3.685      50.186
2015    8        3     2  10    4.5802   549.3    3.684      50.162
2015    8        3     2  16    4.5784   549.2    3.683      50.138
2015    8        3     2  22    4.5766   549.2    3.683      50.113
2015    8        3     2  28    4.5749   549.1    3.682      50.089
2015    8        3     2  33    4.5731   549.0    3.681      50.063
2015    8        3     2  39    4.5714   548.9    3.680      50.037
2015    8        3     2  45    4.5697   548.8    3.679      50.010
2015    8        3     2  51    4.5680   548.7    3.678      49.983
2015    8        3     2  57    4.5663   548.7    3.677      49.955
2015    8        3     3   2    4.5646   548.6    3.676      49.927
2015    8        3     3   8    4.5629   548.5    3.675      49.898
2015    8        3     3  14    4.5613   548.4    3.674      49.870
2015    8        3     3  20    4.5596   548.3    3.672      49.840
2015    8        3     3  25    4.5580   548.2    3.671      49.811
2015    8        3     3  31    4.5564   548.1    3.670      49.781
2015    8        3     3  37    4.5548   548.0    3.669      49.751
2015    8        3     3  43    4.5532   547.9    3.668      49.721
2015    8        3     3  49    4.5517   547.8    3.667      49.690
2015    8        3     3  54    4.5501   547.7    3.666      49.660
2015    8        3     4   0    4.5486   547.6    3.665      49.629
2015    8        3     4   6    4.5471   547.5    3.664      49.599
2015    8        3     4  12    4.5457   547.5    3.663      49.569
2015    8        3     4  18    4.5443   547.4    3.662      49.539
2015    8        3     4  23    4.5429   547.3    3.661      49.510
2015    8        3     4  29    4.5416   547.2    3.661      49.482
2015    8        3     4  35    4.5403   547.1    3.660      49.454
2015    8        3     4  41    4.5390   547.0    3.660      49.426
2015    8        3     4  46    4.5378   546.9    3.659      49.400
2015    8        3     4  52    4.5366   546.8    3.659      49.374
2015    8        3     4  58    4.5354   546.7    3.659      49.350
2015    8        3     5   4    4.5342   546.6    3.658      49.326
2015    8        3     5  10    4.5330   546.6    3.658      49.303
2015    8        3     5  15    4.5318   546.5    3.658      49.280
2015    8        3     5  21    4.5307   546.4    3.659      49.259
2015    8        3     5  27    4.5295   546.3    3.659      49.239
2015    8        3     5  33    4.5283   546.3    3.659      49.220
2015    8        3     5  39    4.5271   546.2    3.660      49.201
2015    8        3     5  44    4.5259   546.1    3.660      49.183
2015    8        3     5  50    4.5245   546.0    3.661      49.166
2015    8        3     5  56    4.5232   546.0    3.662      49.150
2015    8        3     6   2    4.5218   545.9    3.662      49.134
2015    8        3     6   7    4.5204   545.8    3.663      49.119
2015    8        3     6  13    4.5189   545.8    3.664      49.105
2015    8        3     6  19    4.5173   545.7    3.665      49.093
2015    8        3     6  25    4.5157   545.6    3.666      49.081
2015    8        3     6  31    4.5141   545.6    3.667      49.071
2015    8        3     6  36    4.5125   545.5    3.667      49.060
2015    8        3     6  42    4.5108   545.4    3.668      49.049
2015    8        3     6  48    4.5090   545.4    3.669      49.037
2015    8        3     6  54    4.5073   545.3    3.669      49.025
2015    8        3     6  59    4.5055   545.2    3.669      49.012
2015    8        3     7   5    4.5037   545.2    3.670      48.999
2015    8        3     7  11    4.5019   545.1    3.670      48.984
2015    8        3     7  17    4.5000   545.0    3.670      48.969
2015    8        3     7  23    4.4982   544.9    3.670      48.954
2015    8        3     7  28    4.4963   544.9    3.670      48.938
2015    8        3     7  34    4.4945   544.8    3.670      48.921
2015    8        3     7  40    4.4926   544.7    3.670      48.904
2015    8        3     7  46    4.4907   544.6    3.670      48.886
2015    8        3     7  51    4.4889   544.5    3.670      48.869
2015    8        3     7  57    4.4870   544.5    3.670      48.851
2015    8        3     8   3    4.4851   544.4    3.670      48.832
2015    8        3     8   9    4.4833   544.3    3.670      48.814
2015    8        3     8  15    4.4814   544.2    3.670      48.795
2015    8        3     8  20    4.4796   544.1    3.670      48.776
2015    8        3     8  26    4.4778   544.0    3.669      48.758
2015    8        3     8  32    4.4760   543.9    3.669      48.739
2015    8        3     8  38    4.4742   543.8    3.669      48.720
2015    8        3     8  44    4.4725   543.7    3.670      48.701
2015    8        3     8  49    4.4708   543.6    3.670      48.683
2015    8        3     8  55    4.4691   543.6    3.670      48.664
2015    8        3     9   1    4.4674   543.5    3.670      48.646
2015    8        3     9   7    4.4658   543.4    3.670      48.628
2015    8        3     9  12    4.4643   543.3    3.670      48.610
2015    8        3     9  18    4.4627   543.2    3.671      48.593
2015    8        3     9  24    4.4613   543.1    3.671      48.576
2015    8        3     9  30    4.4599   543.0    3.672      48.559
2015    8        3     9  36    4.4585   542.9    3.672      48.541
2015    8        3     9  41    4.4572   542.8    3.673      48.526
2015    8        3     9  47    4.4559   542.7    3.673      48.511
2015    8        3     9  53    4.4547   542.6    3.674      48.497
2015    8        3     9  59    4.4536   542.5    3.675      48.484
2015    8        3    10   5    4.4525   542.4    3.675      48.471
2015    8        3    10  10    4.4514   542.3    3.676      48.459
2015    8        3    10  16    4.4503   542.2    3.676      48.446
2015    8        3    10  22    4.4492   542.1    3.677      48.433
2015    8        3    10  28    4.4481   542.0    3.677      48.419
2015    8        3    10  34    4.4470   541.9    3.677      48.404
2015    8        3    10  39    4.4459   541.8    3.677      48.388
2015    8        3    10  45    4.4448   541.7    3.677      48.371
2015    8        3    10  51    4.4437   541.6    3.677      48.353
2015    8        3    10  57    4.4425   541.5    3.677      48.335
2015    8        3    11   2    4.4413   541.4    3.677      48.315
2015    8        3    11   8    4.4402   541.3    3.676      48.295
2015    8        3    11  14    4.4390   541.2    3.676      48.273
2015    8        3    11  20    4.4378   541.1    3.675      48.251
2015    8        3    11  26    4.4366   541.0    3.675      48.228
2015    8        3    11  31    4.4353   540.9    3.674      48.205
2015    8        3    11  37    4.4341   540.9    3.673      48.181
2015    8        3    11  43    4.4329   540.8    3.673      48.156
2015    8        3    11  49    4.4317   540.7    3.672      48.131
2015    8        3    11  55    4.4304   540.6    3.671      48.106
2015    8        3    12   0    4.4292   540.5    3.670      48.080
2015    8        3    12   6    4.4279   540.4    3.669      48.053
2015    8        3    12  12    4.4266   540.3    3.669      48.027
2015    8        3    12  18    4.4253   540.2    3.668      48.000
2015    8        3    12  23    4.4240   540.1    3.667      47.972
2015    8        3    12  29    4.4226   540.0    3.666      47.945
2015    8        3    12  35    4.4212   539.9    3.665      47.917
2015    8        3    12  41    4.4199   539.8    3.664      47.889
2015    8        3    12  47    4.4184   539.7    3.663      47.861
2015    8        3    12  52    4.4170   539.6    3.662      47.832
2015    8        3    12  58    4.4155   539.5    3.661      47.803
2015    8        3    13   4    4.4141   539.4    3.661      47.774
2015    8        3    13  10    4.4126   539.4    3.660      47.745
2015    8        3    13  15    4.4111   539.3    3.659      47.715
2015    8        3    13  21    4.4095   539.2    3.658      47.685
2015    8        3    13  27    4.4079   539.1    3.657      47.655
2015    8        3    13  33    4.4064   539.0    3.656      47.624
2015    8        3    13  39    4.4048   538.9    3.655      47.594
2015    8        3    13  44    4.4032   538.8    3.654      47.563
2015    8        3    13  50    4.4016   538.7    3.653      47.532
2015    8        3    13  56    4.3999   538.6    3.652      47.500
2015    8        3    14   2    4.3983   538.5    3.651      47.469
2015    8        3    14   8    4.3967   538.4    3.650      47.437
2015    8        3    14  13    4.3950   538.3    3.649      47.406
2015    8        3    14  19    4.3933   538.2    3.648      47.374
2015    8        3    14  25    4.3917   538.1    3.647      47.342
2015    8        3    14  31    4.3900   538.0    3.646      47.310
2015    8        3    14  36    4.3883   537.8    3.645      47.279
2015    8        3    14  42    4.3866   537.7    3.644      47.247
2015    8        3    14  48    4.3849   537.6    3.643      47.216
2015    8        3    14  54    4.3833   537.5    3.643      47.184
2015    8        3    15   0    4.3816   537.4    3.642      47.154
2015    8        3    15   5    4.3799   537.3    3.641      47.123
2015    8        3    15  11    4.3783   537.2    3.640      47.093
2015    8        3    15  17    4.3766   537.0    3.640      47.064
2015    8        3    15  23    4.3750   536.9    3.639      47.035
2015    8        3    15  29    4.3734   536.8    3.639      47.007
2015    8        3    15  34    4.3718   536.7    3.639      46.979
2015    8        3    15  40    4.3702   536.6    3.638      46.953
2015    8        3    15  46    4.3687   536.4    3.638      46.927
2015    8        3    15  52    4.3673   536.3    3.638      46.902
2015    8        3    15  57    4.3658   536.2    3.639      46.879
2015    8        3    16   3    4.3644   536.1    3.639      46.856
2015    8        3    16   9    4.3631   535.9    3.639      46.836
2015    8        3    16  15    4.3618   535.8    3.640      46.816
2015    8        3    16  21    4.3606   535.7    3.641      46.797
2015    8        3    16  26    4.3595   535.6    3.642      46.780
2015    8        3    16  32    4.3584   535.5    3.643      46.765
2015    8        3    16  38    4.3574   535.3    3.644      46.751
2015    8        3    16  44    4.3565   535.2    3.646      46.738
2015    8        3    16  50    4.3556   535.1    3.648      46.727
2015    8        3    16  55    4.3548   535.0    3.649      46.718
2015    8        3    17   1    4.3540   534.9    3.651      46.710
2015    8        3    17   7    4.3533   534.8    3.654      46.705
2015    8        3    17  13    4.3527   534.6    3.656      46.702
2015    8        3    17  18    4.3521   534.5    3.658      46.700
2015    8        3    17  24    4.3515   534.4    3.660      46.699
2015    8        3    17  30    4.3509   534.3    3.663      46.699
2015    8        3    17  36    4.3502   534.2    3.665      46.699
2015    8        3    17  42    4.3495   534.1    3.667      46.699
2015    8        3    17  47    4.3488   534.0    3.669      46.698
2015    8        3    17  53    4.3480   533.9    3.671      46.697
2015    8        3    17  59    4.3472   533.8    3.673      46.696
2015    8        3    18   5    4.3463   533.7    3.675      46.694
2015    8        3    18  11    4.3454   533.6    3.677      46.692
2015    8        3    18  16    4.3444   533.5    3.679      46.689
2015    8        3    18  22    4.3434   533.4    3.680      46.685
2015    8        3    18  28    4.3424   533.3    3.682      46.680
2015    8        3    18  34    4.3413   533.2    3.683      46.674
2015    8        3    18  40    4.3402   533.1    3.684      46.667
2015    8        3    18  45    4.3391   532.9    3.686      46.659
2015    8        3    18  51    4.3380   532.8    3.687      46.651
2015    8        3    18  57    4.3368   532.7    3.688      46.641
2015    8        3    19   3    4.3356   532.6    3.689      46.631
2015    8        3    19   8    4.3344   532.5    3.689      46.620
2015    8        3    19  14    4.3332   532.4    3.690      46.608
2015    8        3    19  20    4.3320   532.3    3.691      46.595
2015    8        3    19  26    4.3308   532.1    3.691      46.581
2015    8        3    19  32    4.3295   532.0    3.692      46.566
2015    8        3    19  37    4.3282   531.9    3.692      46.551
2015    8        3    19  43    4.3270   531.8    3.693      46.535
2015    8        3    19  49    4.3257   531.7    3.693      46.517
2015    8        3    19  55    4.3244   531.5    3.694      46.499
2015    8        3    20   0    4.3232   531.4    3.694      46.481
2015    8        3    20   6    4.3219   531.3    3.694      46.462
2015    8        3    20  12    4.3207   531.2    3.695      46.442
2015    8        3    20  18    4.3194   531.0    3.695      46.422
2015    8        3    20  24    4.3182   530.9    3.695      46.402
2015    8        3    20  29    4.3170   530.8    3.696      46.381
2015    8        3    20  35    4.3159   530.6    3.696      46.361
2015    8        3    20  41    4.3147   530.5    3.697      46.340
2015    8        3    20  47    4.3136   530.4    3.697      46.319
2015    8        3    20  53    4.3125   530.2    3.697      46.298
2015    8        3    20  58    4.3115   530.1    3.698      46.278
2015    8        3    21   4    4.3105   530.0    3.698      46.259
2015    8        3    21  10    4.3095   529.9    3.699      46.239
2015    8        3    21  16    4.3084   529.7    3.699      46.220
2015    8        3    21  21    4.3074   529.6    3.700      46.201
2015    8        3    21  27    4.3064   529.5    3.700      46.181
2015    8        3    21  33    4.3053   529.3    3.701      46.161
2015    8        3    21  39    4.3043   529.2    3.701      46.140
2015    8        3    21  45    4.3032   529.1    3.701      46.118
2015    8        3    21  50    4.3021   529.0    3.701      46.096
2015    8        3    21  56    4.3010   528.8    3.701      46.073
2015    8        3    22   2    4.2999   528.7    3.701      46.049
2015    8        3    22   8    4.2988   528.6    3.701      46.025
2015    8        3    22  13    4.2977   528.4    3.701      45.999
2015    8        3    22  19    4.2966   528.3    3.700      45.974
2015    8        3    22  25    4.2955   528.2    3.700      45.947
2015    8        3    22  31    4.2944   528.0    3.700      45.921
2015    8        3    22  37    4.2933   527.9    3.700      45.894
2015    8        3    22  42    4.2922   527.8    3.700      45.866
2015    8        3    22  48    4.2911   527.6    3.699      45.838
2015    8        3    22  54    4.2900   527.5    3.699      45.810
2015    8        3    23   0    4.2890   527.4    3.699      45.782
2015    8        3    23   6    4.2879   527.2    3.699      45.754
2015    8        3    23  11    4.2869   527.1    3.699      45.726
2015    8        3    23  17    4.2859   526.9    3.698      45.699
2015    8        3    23  23    4.2850   526.8    3.698      45.672
2015    8        3    23  29    4.2840   526.7    3.698      45.645
2015    8        3    23  34    4.2831   526.5    3.699      45.618
2015    8        3    23  40    4.2823   526.4    3.699      45.593
2015    8        3    23  46    4.2814   526.2    3.699      45.567
2015    8        3    23  52    4.2806   526.1    3.700      45.543
2015    8        3    23  58    4.2799   526.0    3.700      45.519
2015    8        4     0   3    4.2791   525.8    3.701      45.496
2015    8        4     0   9    4.2784   525.7    3.701      45.473
2015    8        4     0  15    4.2778   525.6    3.702      45.452
2015    8        4     0  21    4.2771   525.4    3.703      45.431
2015    8        4     0  27    4.2765   525.3    3.704      45.411
2015    8        4     0  32    4.2758   525.2    3.705      45.392
2015    8        4     0  38    4.2752   525.0    3.706      45.373
2015    8        4     0  44    4.2745   524.9    3.707      45.355
2015    8        4     0  50    4.2738   524.8    3.709      45.337
2015    8        4     0  56    4.2731   524.7    3.710      45.320
2015    8        4     1   1    4.2723   524.5    3.711      45.303
2015    8        4     1   7    4.2715   524.4    3.712      45.286
2015    8        4     1  13    4.2707   524.3    3.714      45.269
2015    8        4     1  19    4.2698   524.2    3.715      45.253
2015    8        4     1  24    4.2690   524.0    3.716      45.236
2015    8        4     1  30    4.2680   523.9    3.718      45.220
2015    8        4     1  36    4.2671   523.8    3.719      45.203
2015    8        4     1  42    4.2661   523.6    3.720      45.187
2015    8        4     1  48    4.2652   523.5    3.721      45.170
2015    8        4     1  53    4.2642   523.3    3.722      45.153
2015    8        4     1  59    4.2632   523.2    3.724      45.136
2015    8        4     2   5    4.2622   523.1    3.725      45.118
2015    8        4     2  11    4.2612   522.9    3.726      45.101
2015    8        4     2  17    4.2602   522.8    3.727      45.084
2015    8        4     2  22    4.2592   522.6    3.728      45.067
2015    8        4     2  28    4.2582   522.5    3.730      45.049
2015    8        4     2  34    4.2572   522.3    3.731      45.032
2015    8        4     2  40    4.2563   522.2    3.732      45.015
2015    8        4     2  45    4.2553   522.0    3.733      44.998
2015    8        4     2  51    4.2544   521.9    3.735      44.980
2015    8        4     2  57    4.2535   521.7    3.736      44.963
2015    8        4     3   3    4.2526   521.6    3.738      44.946
2015    8        4     3   9    4.2517   521.4    3.739      44.930
2015    8        4     3  14    4.2508   521.3    3.741      44.913
2015    8        4     3  20    4.2500   521.1    3.743      44.897
2015    8        4     3  26    4.2491   521.0    3.744      44.881
2015    8        4     3  32    4.2484   520.8    3.746      44.866
2015    8        4     3  37    4.2476   520.6    3.748      44.852
2015    8        4     3  43    4.2469   520.5    3.751      44.838
2015    8        4     3  49    4.2462   520.3    3.753      44.825
2015    8        4     3  55    4.2456   520.2    3.755      44.813
2015    8        4     4   1    4.2451   520.0    3.758      44.801
2015    8        4     4   6    4.2446   519.8    3.760      44.791
2015    8        4     4  12    4.2442   519.7    3.763      44.782
2015    8        4     4  18    4.2438   519.5    3.766      44.775
2015    8        4     4  24    4.2435   519.4    3.769      44.768
2015    8        4     4  30    4.2432   519.2    3.773      44.763
2015    8        4     4  35    4.2429   519.0    3.776      44.758
2015    8        4     4  41    4.2427   518.9    3.780      44.755
2015    8        4     4  47    4.2424   518.7    3.783      44.752
2015    8        4     4  53    4.2422   518.6    3.786      44.748
2015    8        4     4  58    4.2420   518.4    3.790      44.745
2015    8        4     5   4    4.2419   518.3    3.794      44.742
2015    8        4     5  10    4.2417   518.2    3.797      44.739
2015    8        4     5  16    4.2415   518.0    3.801      44.736
2015    8        4     5  22    4.2414   517.9    3.804      44.734
2015    8        4     5  27    4.2412   517.7    3.807      44.732
2015    8        4     5  33    4.2410   517.6    3.811      44.730
2015    8        4     5  39    4.2408   517.4    3.814      44.727
2015    8        4     5  45    4.2406   517.3    3.817      44.724
2015    8        4     5  50    4.2404   517.1    3.820      44.721
2015    8        4     5  56    4.2401   517.0    3.822      44.716
2015    8        4     6   2    4.2399   516.9    3.825      44.711
2015    8        4     6   8    4.2397   516.7    3.828      44.704
2015    8        4     6  14    4.2394   516.6    3.830      44.697
2015    8        4     6  19    4.2391   516.4    3.832      44.690
2015    8        4     6  25    4.2388   516.3    3.835      44.681
2015    8        4     6  31    4.2386   516.1    3.837      44.672
2015    8        4     6  37    4.2383   516.0    3.839      44.662
2015    8        4     6  43    4.2380   515.9    3.841      44.651
2015    8        4     6  48    4.2377   515.7    3.843      44.641
2015    8        4     6  54    4.2374   515.6    3.845      44.629
2015    8        4     7   0    4.2371   515.4    3.847      44.617
2015    8        4     7   6    4.2367   515.3    3.849      44.604
2015    8        4     7  11    4.2364   515.2    3.851      44.591
2015    8        4     7  17    4.2361   515.0    3.852      44.577
2015    8        4     7  23    4.2358   514.9    3.854      44.563
2015    8        4     7  29    4.2354   514.7    3.856      44.548
2015    8        4     7  35    4.2351   514.6    3.857      44.533
2015    8        4     7  40    4.2347   514.5    3.859      44.517
2015    8        4     7  46    4.2344   514.3    3.860      44.501
2015    8        4     7  52    4.2340   514.2    3.862      44.484
2015    8        4     7  58    4.2336   514.1    3.863      44.468
2015    8        4     8   4    4.2332   513.9    3.864      44.450
2015    8        4     8   9    4.2328   513.8    3.866      44.433
2015    8        4     8  15    4.2324   513.7    3.867      44.415
2015    8        4     8  21    4.2320   513.5    3.868      44.397
2015    8        4     8  27    4.2316   513.4    3.869      44.378
2015    8        4     8  33    4.2312   513.2    3.870      44.359
2015    8        4     8  38    4.2307   513.1    3.872      44.339
2015    8        4     8  44    4.2303   513.0    3.873      44.320
2015    8        4     8  50    4.2299   512.8    3.874      44.299
2015    8        4     8  56    4.2294   512.7    3.875      44.279
2015    8        4     9   1    4.2290   512.6    3.876      44.258
2015    8        4     9   7    4.2285   512.4    3.877      44.238
2015    8        4     9  13    4.2281   512.3    3.878      44.217
2015    8        4     9  19    4.2276   512.1    3.879      44.196
2015    8        4     9  25    4.2272   512.0    3.880      44.174
2015    8        4     9  30    4.2268   511.9    3.881      44.153
2015    8        4     9  36    4.2263   511.7    3.882      44.132
2015    8        4     9  42    4.2259   511.6    3.883      44.111
2015    8        4     9  48    4.2255   511.5    3.885      44.090
2015    8        4     9  54    4.2251   511.3    3.886      44.069
2015    8        4     9  59    4.2247   511.2    3.887      44.048
2015    8        4    10   5    4.2243   511.0    3.888      44.028
2015    8        4    10  11    4.2239   510.9    3.890      44.008
2015    8        4    10  17    4.2235   510.7    3.891      43.989
2015    8        4    10  22    4.2232   510.6    3.892      43.970
2015    8        4    10  28    4.2228   510.5    3.894      43.951
2015    8        4    10  34    4.2225   510.3    3.896      43.933
2015    8        4    10  40    4.2222   510.2    3.897      43.916
2015    8        4    10  46    4.2219   510.0    3.899      43.899
2015    8        4    10  51    4.2216   509.9    3.901      43.883
2015    8        4    10  57    4.2214   509.7    3.903      43.868
2015    8        4    11   3    4.2212   509.6    3.906      43.853
2015    8        4    11   9    4.2210   509.5    3.908      43.840
2015    8        4    11  14    4.2209   509.3    3.910      43.827
2015    8        4    11  20    4.2207   509.2    3.913      43.814
2015    8        4    11  26    4.2206   509.0    3.916      43.803
2015    8        4    11  32    4.2206   508.9    3.919      43.793
2015    8        4    11  38    4.2205   508.7    3.922      43.783
2015    8        4    11  43    4.2206   508.6    3.925      43.775
2015    8        4    11  49    4.2206   508.5    3.928      43.767
2015    8        4    11  55    4.2207   508.3    3.931      43.760
2015    8        4    12   1    4.2208   508.2    3.935      43.755
2015    8        4    12   7    4.2210   508.0    3.939      43.749
2015    8        4    12  12    4.2211   507.9    3.942      43.745
2015    8        4    12  18    4.2214   507.8    3.946      43.741
2015    8        4    12  24    4.2217   507.6    3.950      43.738
2015    8        4    12  30    4.2219   507.5    3.954      43.737
2015    8        4    12  35    4.2222   507.3    3.959      43.736
2015    8        4    12  41    4.2225   507.2    3.963      43.736
2015    8        4    12  47    4.2228   507.1    3.967      43.737
2015    8        4    12  53    4.2231   506.9    3.971      43.738
2015    8        4    12  59    4.2234   506.8    3.975      43.740
2015    8        4    13   4    4.2237   506.7    3.979      43.741
2015    8        4    13  10    4.2239   506.5    3.983      43.742
2015    8        4    13  16    4.2242   506.4    3.987      43.743
2015    8        4    13  22    4.2244   506.3    3.991      43.743
2015    8        4    13  27    4.2246   506.1    3.994      43.743
2015    8        4    13  33    4.2248   506.0    3.998      43.743
2015    8        4    13  39    4.2250   505.9    4.002      43.743
2015    8        4    13  45    4.2252   505.7    4.005      43.742
2015    8        4    13  51    4.2253   505.6    4.009      43.741
2015    8        4    13  56    4.2255   505.5    4.012      43.740
2015    8        4    14   2    4.2256   505.4    4.016      43.738
2015    8        4    14   8    4.2258   505.2    4.019      43.736
2015    8        4    14  14    4.2259   505.1    4.022      43.734
2015    8        4    14  20    4.2260   505.0    4.026      43.732
2015    8        4    14  25    4.2261   504.8    4.029      43.729
2015    8        4    14  31    4.2262   504.7    4.032      43.727
2015    8        4    14  37    4.2263   504.6    4.035      43.724
2015    8        4    14  43    4.2264   504.5    4.038      43.721
2015    8        4    14  49    4.2265   504.3    4.041      43.717
2015    8        4    14  54    4.2266   504.2    4.044      43.714
2015    8        4    15   0    4.2267   504.1    4.047      43.710
2015    8        4    15   6    4.2267   503.9    4.050      43.707
2015    8        4    15  12    4.2268   503.8    4.053      43.703
2015    8        4    15  17    4.2269   503.7    4.055      43.699
2015    8        4    15  23    4.2270   503.6    4.058      43.695
2015    8        4    15  29    4.2270   503.5    4.061      43.691
2015    8        4    15  35    4.2271   503.3    4.064      43.686
2015    8        4    15  41    4.2271   503.2    4.067      43.682
2015    8        4    15  46    4.2272   503.1    4.069      43.677
2015    8        4    15  52    4.2272   503.0    4.072      43.673
2015    8        4    15  58    4.2273   502.9    4.075      43.668
2015    8        4    16   4    4.2273   502.7    4.077      43.663
2015    8        4    16  10    4.2273   502.6    4.080      43.658
2015    8        4    16  15    4.2273   502.5    4.082      43.653
2015    8        4    16  21    4.2273   502.4    4.085      43.648
2015    8        4    16  27    4.2272   502.3    4.087      43.642
2015    8        4    16  33    4.2272   502.2    4.090      43.636
2015    8        4    16  38    4.2272   502.0    4.092      43.631
2015    8        4    16  44    4.2271   501.9    4.094      43.625
2015    8        4    16  50    4.2270   501.8    4.097      43.619
2015    8        4    16  56    4.2270   501.7    4.099      43.612
2015    8        4    17   2    4.2269   501.6    4.101      43.606
2015    8        4    17   7    4.2268   501.5    4.103      43.600
2015    8        4    17  13    4.2267   501.4    4.106      43.593
2015    8        4    17  19    4.2266   501.3    4.108      43.586
2015    8        4    17  25    4.2265   501.1    4.110      43.580
2015    8        4    17  31    4.2264   501.0    4.112      43.573
2015    8        4    17  36    4.2263   500.9    4.114      43.566
2015    8        4    17  42    4.2262   500.8    4.116      43.559
2015    8        4    17  48    4.2261   500.7    4.118      43.552
2015    8        4    17  54    4.2260   500.6    4.120      43.545
2015    8        4    17  59    4.2258   500.5    4.122      43.538
2015    8        4    18   5    4.2257   500.3    4.124      43.530
2015    8        4    18  11    4.2256   500.2    4.126      43.523
2015    8        4    18  17    4.2255   500.1    4.128      43.516
2015    8        4    18  23    4.2254   500.0    4.130      43.509
2015    8        4    18  28    4.2253   499.9    4.132      43.502
2015    8        4    18  34    4.2252   499.8    4.134      43.495
2015    8        4    18  40    4.2251   499.7    4.136      43.488
2015    8        4    18  46    4.2250   499.6    4.138      43.481
2015    8        4    18  51    4.2249   499.5    4.140      43.474
2015    8        4    18  57    4.2248   499.3    4.143      43.467
2015    8        4    19   3    4.2247   499.2    4.145      43.460
2015    8        4    19   9    4.2246   499.1    4.147      43.453
2015    8        4    19  15    4.2246   499.0    4.149      43.447
2015    8        4    19  20    4.2245   498.9    4.151      43.440
2015    8        4    19  26    4.2244   498.8    4.153      43.433
2015    8        4    19  32    4.2244   498.7    4.155      43.427
2015    8        4    19  38    4.2243   498.6    4.157      43.420
2015    8        4    19  43    4.2242   498.5    4.160      43.414
2015    8        4    19  49    4.2242   498.4    4.162      43.407
2015    8        4    19  55    4.2241   498.2    4.164      43.401
2015    8        4    20   1    4.2240   498.1    4.166      43.395
2015    8        4    20   7    4.2240   498.0    4.168      43.388
2015    8        4    20  12    4.2239   497.9    4.171      43.382
2015    8        4    20  18    4.2238   497.8    4.173      43.375
2015    8        4    20  24    4.2237   497.7    4.175      43.369
2015    8        4    20  30    4.2237   497.6    4.177      43.362
2015    8        4    20  36    4.2236   497.5    4.180      43.356
2015    8        4    20  41    4.2234   497.4    4.182      43.349
2015    8        4    20  47    4.2233   497.3    4.184      43.343
2015    8        4    20  53    4.2232   497.2    4.186      43.336
2015    8        4    20  59    4.2231   497.0    4.188      43.329
2015    8        4    21   4    4.2229   496.9    4.191      43.323
2015    8        4    21  10    4.2228   496.8    4.193      43.316
2015    8        4    21  16    4.2226   496.7    4.195      43.309
2015    8        4    21  22    4.2225   496.6    4.197      43.302
2015    8        4    21  28    4.2223   496.5    4.199      43.295
2015    8        4    21  33    4.2221   496.4    4.201      43.288
2015    8        4    21  39    4.2219   496.3    4.203      43.282
2015    8        4    21  45    4.2216   496.1    4.206      43.275
2015    8        4    21  51    4.2214   496.0    4.208      43.268
2015    8        4    21  57    4.2212   495.9    4.210      43.261
2015    8        4    22   2    4.2210   495.8    4.212      43.255
2015    8        4    22   8    4.2207   495.7    4.214      43.248
2015    8        4    22  14    4.2205   495.6    4.216      43.242
2015    8        4    22  20    4.2203   495.5    4.219      43.236
2015    8        4    22  26    4.2200   495.3    4.221      43.230
2015    8        4    22  31    4.2198   495.2    4.223      43.225
2015    8        4    22  37    4.2196   495.1    4.225      43.219
2015    8        4    22  43    4.2193   495.0    4.228      43.214
2015    8        4    22  49    4.2191   494.9    4.230      43.210
2015    8        4    22  54    4.2189   494.8    4.233      43.206
2015    8        4    23   0    4.2188   494.7    4.235      43.202
2015    8        4    23   6    4.2186   494.5    4.238      43.198
2015    8        4    23  12    4.2184   494.4    4.240      43.195
2015    8        4    23  18    4.2182   494.3    4.243      43.192
2015    8        4    23  23    4.2180   494.2    4.246      43.190
2015    8        4    23  29    4.2179   494.1    4.249      43.188
2015    8        4    23  35    4.2177   494.0    4.251      43.186
2015    8        4    23  41    4.2176   493.9    4.254      43.185
2015    8        4    23  47    4.2174   493.8    4.257      43.184
2015    8        4    23  52    4.2172   493.7    4.260      43.182
2015    8        4    23  58    4.2170   493.6    4.263      43.182
2015    8        5     0   4    4.2168   493.5    4.266      43.181
