year    month   day   hour  minute  B_enl V_enl   n_enl       T_enl
[year] [month] [day] [hour][minute] [nT]  [km/s]  [cm-3]      [kK]
2015    3        1     0   5    4.4639   618.8    2.793      52.514
2015    3        1     0  10    4.4614   618.6    2.794      52.457
2015    3        1     0  15    4.4590   618.3    2.794      52.401
2015    3        1     0  21    4.4565   618.1    2.794      52.345
2015    3        1     0  26    4.4540   617.9    2.794      52.288
2015    3        1     0  32    4.4516   617.6    2.794      52.232
2015    3        1     0  37    4.4492   617.4    2.794      52.175
2015    3        1     0  42    4.4468   617.2    2.794      52.119
2015    3        1     0  48    4.4443   616.9    2.794      52.062
2015    3        1     0  53    4.4419   616.7    2.795      52.005
2015    3        1     0  58    4.4395   616.5    2.795      51.949
2015    3        1     1   4    4.4371   616.2    2.795      51.892
2015    3        1     1   9    4.4347   616.0    2.794      51.834
2015    3        1     1  15    4.4323   615.8    2.794      51.777
2015    3        1     1  20    4.4299   615.6    2.794      51.720
2015    3        1     1  25    4.4275   615.3    2.794      51.662
2015    3        1     1  31    4.4250   615.1    2.794      51.604
2015    3        1     1  36    4.4226   614.9    2.794      51.546
2015    3        1     1  41    4.4201   614.6    2.794      51.488
2015    3        1     1  47    4.4177   614.4    2.793      51.429
2015    3        1     1  52    4.4152   614.2    2.793      51.370
2015    3        1     1  58    4.4128   613.9    2.793      51.311
2015    3        1     2   3    4.4103   613.7    2.792      51.252
2015    3        1     2   8    4.4078   613.5    2.792      51.192
2015    3        1     2  14    4.4054   613.2    2.792      51.133
2015    3        1     2  19    4.4029   613.0    2.791      51.072
2015    3        1     2  24    4.4004   612.8    2.791      51.012
2015    3        1     2  30    4.3979   612.6    2.791      50.952
2015    3        1     2  35    4.3954   612.3    2.790      50.892
2015    3        1     2  41    4.3929   612.1    2.790      50.831
2015    3        1     2  46    4.3905   611.9    2.789      50.770
2015    3        1     2  51    4.3880   611.6    2.789      50.710
2015    3        1     2  57    4.3855   611.4    2.788      50.649
2015    3        1     3   2    4.3830   611.2    2.788      50.588
2015    3        1     3   8    4.3805   610.9    2.787      50.527
2015    3        1     3  13    4.3780   610.7    2.787      50.465
2015    3        1     3  18    4.3754   610.5    2.786      50.404
2015    3        1     3  24    4.3730   610.3    2.786      50.342
2015    3        1     3  29    4.3704   610.0    2.785      50.280
2015    3        1     3  34    4.3679   609.8    2.785      50.218
2015    3        1     3  40    4.3655   609.6    2.784      50.156
2015    3        1     3  45    4.3629   609.3    2.784      50.094
2015    3        1     3  51    4.3604   609.1    2.783      50.031
2015    3        1     3  56    4.3578   608.9    2.783      49.969
2015    3        1     4   1    4.3553   608.6    2.782      49.906
2015    3        1     4   7    4.3528   608.4    2.781      49.843
2015    3        1     4  12    4.3503   608.2    2.781      49.781
2015    3        1     4  17    4.3478   607.9    2.780      49.718
2015    3        1     4  23    4.3453   607.7    2.780      49.656
2015    3        1     4  28    4.3428   607.4    2.779      49.594
2015    3        1     4  34    4.3403   607.2    2.778      49.532
2015    3        1     4  39    4.3378   607.0    2.778      49.470
2015    3        1     4  44    4.3353   606.7    2.777      49.408
2015    3        1     4  50    4.3328   606.5    2.777      49.347
2015    3        1     4  55    4.3304   606.2    2.776      49.286
2015    3        1     5   0    4.3279   606.0    2.776      49.225
2015    3        1     5   6    4.3256   605.7    2.776      49.164
2015    3        1     5  11    4.3231   605.5    2.775      49.104
2015    3        1     5  17    4.3206   605.2    2.775      49.044
2015    3        1     5  22    4.3182   605.0    2.774      48.984
2015    3        1     5  27    4.3159   604.7    2.774      48.924
2015    3        1     5  33    4.3134   604.5    2.774      48.864
2015    3        1     5  38    4.3111   604.2    2.773      48.804
2015    3        1     5  43    4.3087   604.0    2.773      48.744
2015    3        1     5  49    4.3064   603.7    2.773      48.684
2015    3        1     5  54    4.3040   603.4    2.773      48.624
2015    3        1     6   0    4.3017   603.2    2.772      48.563
2015    3        1     6   5    4.2993   602.9    2.772      48.502
2015    3        1     6  10    4.2970   602.6    2.772      48.442
2015    3        1     6  16    4.2947   602.4    2.772      48.380
2015    3        1     6  21    4.2924   602.1    2.772      48.319
2015    3        1     6  27    4.2902   601.8    2.772      48.257
2015    3        1     6  32    4.2879   601.5    2.772      48.195
2015    3        1     6  37    4.2856   601.3    2.771      48.133
2015    3        1     6  43    4.2834   601.0    2.771      48.071
2015    3        1     6  48    4.2812   600.7    2.771      48.008
2015    3        1     6  53    4.2790   600.4    2.771      47.945
2015    3        1     6  59    4.2767   600.1    2.771      47.883
2015    3        1     7   4    4.2745   599.8    2.771      47.820
2015    3        1     7  10    4.2724   599.5    2.771      47.757
2015    3        1     7  15    4.2702   599.2    2.771      47.693
2015    3        1     7  20    4.2680   598.9    2.771      47.630
2015    3        1     7  26    4.2659   598.6    2.771      47.567
2015    3        1     7  31    4.2638   598.3    2.771      47.504
2015    3        1     7  36    4.2617   598.0    2.771      47.441
2015    3        1     7  42    4.2595   597.7    2.771      47.379
2015    3        1     7  47    4.2575   597.4    2.772      47.316
2015    3        1     7  53    4.2554   597.1    2.772      47.254
2015    3        1     7  58    4.2533   596.8    2.772      47.192
2015    3        1     8   3    4.2512   596.5    2.772      47.131
2015    3        1     8   9    4.2492   596.2    2.772      47.069
2015    3        1     8  14    4.2472   595.9    2.773      47.008
2015    3        1     8  19    4.2451   595.6    2.773      46.948
2015    3        1     8  25    4.2431   595.3    2.773      46.887
2015    3        1     8  30    4.2411   595.0    2.774      46.827
2015    3        1     8  36    4.2390   594.7    2.774      46.768
2015    3        1     8  41    4.2370   594.4    2.775      46.708
2015    3        1     8  46    4.2351   594.1    2.775      46.649
2015    3        1     8  52    4.2330   593.8    2.776      46.590
2015    3        1     8  57    4.2310   593.5    2.776      46.532
2015    3        1     9   2    4.2290   593.2    2.777      46.474
2015    3        1     9   8    4.2270   592.9    2.777      46.416
2015    3        1     9  13    4.2249   592.6    2.778      46.358
2015    3        1     9  19    4.2229   592.3    2.779      46.300
2015    3        1     9  24    4.2208   592.0    2.779      46.243
2015    3        1     9  29    4.2188   591.6    2.780      46.186
2015    3        1     9  35    4.2167   591.3    2.781      46.129
2015    3        1     9  40    4.2146   591.0    2.782      46.072
2015    3        1     9  46    4.2126   590.7    2.783      46.015
2015    3        1     9  51    4.2105   590.4    2.784      45.959
2015    3        1     9  56    4.2084   590.1    2.785      45.902
2015    3        1    10   2    4.2063   589.8    2.785      45.846
2015    3        1    10   7    4.2042   589.5    2.786      45.789
2015    3        1    10  12    4.2020   589.2    2.787      45.733
2015    3        1    10  18    4.1999   588.9    2.788      45.677
2015    3        1    10  23    4.1978   588.6    2.789      45.621
2015    3        1    10  29    4.1957   588.3    2.790      45.565
2015    3        1    10  34    4.1935   588.0    2.791      45.510
2015    3        1    10  39    4.1914   587.7    2.792      45.454
2015    3        1    10  45    4.1893   587.4    2.793      45.398
2015    3        1    10  50    4.1872   587.1    2.794      45.342
2015    3        1    10  55    4.1851   586.8    2.796      45.286
2015    3        1    11   1    4.1829   586.5    2.797      45.231
2015    3        1    11   6    4.1808   586.2    2.798      45.175
2015    3        1    11  12    4.1787   585.8    2.799      45.120
2015    3        1    11  17    4.1766   585.5    2.800      45.064
2015    3        1    11  22    4.1745   585.2    2.801      45.009
2015    3        1    11  28    4.1725   584.9    2.802      44.953
2015    3        1    11  33    4.1704   584.6    2.803      44.898
2015    3        1    11  38    4.1684   584.3    2.805      44.843
2015    3        1    11  44    4.1664   584.0    2.806      44.789
2015    3        1    11  49    4.1644   583.7    2.807      44.734
2015    3        1    11  55    4.1624   583.4    2.808      44.680
2015    3        1    12   0    4.1605   583.0    2.810      44.626
2015    3        1    12   5    4.1586   582.7    2.811      44.573
2015    3        1    12  11    4.1567   582.4    2.812      44.520
2015    3        1    12  16    4.1548   582.1    2.813      44.467
2015    3        1    12  21    4.1530   581.8    2.815      44.414
2015    3        1    12  27    4.1511   581.5    2.816      44.361
2015    3        1    12  32    4.1493   581.2    2.818      44.309
2015    3        1    12  38    4.1475   580.8    2.819      44.257
2015    3        1    12  43    4.1457   580.5    2.820      44.205
2015    3        1    12  48    4.1440   580.2    2.822      44.153
2015    3        1    12  54    4.1422   579.9    2.823      44.101
2015    3        1    12  59    4.1405   579.6    2.824      44.050
2015    3        1    13   5    4.1387   579.3    2.826      43.998
2015    3        1    13  10    4.1370   578.9    2.827      43.946
2015    3        1    13  15    4.1353   578.6    2.828      43.894
2015    3        1    13  21    4.1336   578.3    2.830      43.841
2015    3        1    13  26    4.1319   578.0    2.831      43.789
2015    3        1    13  31    4.1301   577.6    2.832      43.736
2015    3        1    13  37    4.1284   577.3    2.833      43.682
2015    3        1    13  42    4.1267   577.0    2.834      43.629
2015    3        1    13  48    4.1250   576.7    2.835      43.575
2015    3        1    13  53    4.1233   576.3    2.837      43.521
2015    3        1    13  58    4.1216   576.0    2.838      43.466
2015    3        1    14   4    4.1198   575.7    2.838      43.411
2015    3        1    14   9    4.1182   575.3    2.839      43.355
2015    3        1    14  14    4.1165   575.0    2.840      43.300
2015    3        1    14  20    4.1148   574.7    2.841      43.243
2015    3        1    14  25    4.1132   574.3    2.842      43.186
2015    3        1    14  31    4.1115   574.0    2.843      43.129
2015    3        1    14  36    4.1098   573.6    2.844      43.072
2015    3        1    14  41    4.1082   573.3    2.844      43.014
2015    3        1    14  47    4.1065   572.9    2.845      42.956
2015    3        1    14  52    4.1049   572.6    2.846      42.897
2015    3        1    14  57    4.1033   572.2    2.847      42.838
2015    3        1    15   3    4.1017   571.9    2.847      42.779
2015    3        1    15   8    4.1001   571.5    2.848      42.720
2015    3        1    15  14    4.0986   571.2    2.849      42.661
2015    3        1    15  19    4.0971   570.8    2.850      42.602
2015    3        1    15  24    4.0955   570.5    2.850      42.542
2015    3        1    15  30    4.0939   570.1    2.851      42.483
2015    3        1    15  35    4.0924   569.8    2.852      42.423
2015    3        1    15  40    4.0909   569.4    2.853      42.364
2015    3        1    15  46    4.0894   569.0    2.854      42.304
2015    3        1    15  51    4.0879   568.7    2.855      42.245
2015    3        1    15  57    4.0864   568.3    2.856      42.186
2015    3        1    16   2    4.0850   568.0    2.857      42.127
2015    3        1    16   7    4.0835   567.6    2.858      42.069
2015    3        1    16  13    4.0820   567.3    2.859      42.010
2015    3        1    16  18    4.0806   566.9    2.860      41.951
2015    3        1    16  24    4.0791   566.5    2.861      41.893
2015    3        1    16  29    4.0777   566.2    2.862      41.834
2015    3        1    16  34    4.0762   565.8    2.863      41.776
2015    3        1    16  40    4.0747   565.4    2.865      41.718
2015    3        1    16  45    4.0733   565.1    2.866      41.660
2015    3        1    16  50    4.0718   564.7    2.867      41.602
2015    3        1    16  56    4.0703   564.3    2.869      41.544
2015    3        1    17   1    4.0689   564.0    2.870      41.486
2015    3        1    17   7    4.0674   563.6    2.871      41.428
2015    3        1    17  12    4.0659   563.2    2.873      41.370
2015    3        1    17  17    4.0645   562.8    2.874      41.312
2015    3        1    17  23    4.0630   562.5    2.876      41.254
2015    3        1    17  28    4.0616   562.1    2.878      41.197
2015    3        1    17  33    4.0602   561.7    2.879      41.139
2015    3        1    17  39    4.0587   561.3    2.881      41.082
2015    3        1    17  44    4.0574   561.0    2.883      41.025
2015    3        1    17  50    4.0560   560.6    2.885      40.968
2015    3        1    17  55    4.0546   560.2    2.887      40.911
2015    3        1    18   0    4.0533   559.8    2.889      40.855
2015    3        1    18   6    4.0519   559.4    2.891      40.799
2015    3        1    18  11    4.0506   559.1    2.893      40.744
2015    3        1    18  16    4.0493   558.7    2.896      40.689
2015    3        1    18  22    4.0481   558.3    2.898      40.634
2015    3        1    18  27    4.0469   557.9    2.901      40.580
2015    3        1    18  33    4.0457   557.5    2.903      40.527
2015    3        1    18  38    4.0445   557.1    2.906      40.474
2015    3        1    18  43    4.0433   556.8    2.908      40.422
2015    3        1    18  49    4.0423   556.4    2.911      40.370
2015    3        1    18  54    4.0411   556.0    2.914      40.319
2015    3        1    18  59    4.0401   555.6    2.917      40.269
2015    3        1    19   5    4.0390   555.2    2.920      40.219
2015    3        1    19  10    4.0380   554.9    2.923      40.170
2015    3        1    19  16    4.0371   554.5    2.926      40.122
2015    3        1    19  21    4.0362   554.1    2.930      40.074
2015    3        1    19  26    4.0352   553.7    2.933      40.027
2015    3        1    19  32    4.0343   553.3    2.936      39.980
2015    3        1    19  37    4.0334   553.0    2.940      39.934
2015    3        1    19  43    4.0325   552.6    2.943      39.888
2015    3        1    19  48    4.0317   552.2    2.947      39.843
2015    3        1    19  53    4.0309   551.8    2.951      39.798
2015    3        1    19  59    4.0301   551.4    2.954      39.754
2015    3        1    20   4    4.0293   551.1    2.958      39.709
2015    3        1    20   9    4.0286   550.7    2.962      39.666
2015    3        1    20  15    4.0278   550.3    2.965      39.622
2015    3        1    20  20    4.0271   549.9    2.969      39.578
2015    3        1    20  26    4.0263   549.5    2.973      39.535
2015    3        1    20  31    4.0256   549.2    2.977      39.492
2015    3        1    20  36    4.0249   548.8    2.980      39.449
2015    3        1    20  42    4.0242   548.4    2.984      39.405
2015    3        1    20  47    4.0235   548.0    2.988      39.362
2015    3        1    20  52    4.0228   547.6    2.992      39.319
2015    3        1    20  58    4.0222   547.3    2.995      39.276
2015    3        1    21   3    4.0215   546.9    2.999      39.233
2015    3        1    21   9    4.0209   546.5    3.003      39.190
2015    3        1    21  14    4.0202   546.1    3.007      39.146
2015    3        1    21  19    4.0196   545.7    3.011      39.103
2015    3        1    21  25    4.0190   545.4    3.014      39.060
2015    3        1    21  30    4.0186   545.0    3.018      39.016
2015    3        1    21  35    4.0179   544.6    3.022      38.973
2015    3        1    21  41    4.0174   544.2    3.026      38.929
2015    3        1    21  46    4.0169   543.8    3.029      38.886
2015    3        1    21  52    4.0165   543.4    3.033      38.842
2015    3        1    21  57    4.0160   543.1    3.037      38.798
2015    3        1    22   2    4.0156   542.7    3.041      38.755
2015    3        1    22   8    4.0152   542.3    3.044      38.711
2015    3        1    22  13    4.0148   541.9    3.048      38.667
2015    3        1    22  18    4.0144   541.5    3.052      38.623
2015    3        1    22  24    4.0141   541.2    3.056      38.579
2015    3        1    22  29    4.0138   540.8    3.059      38.534
2015    3        1    22  35    4.0135   540.4    3.063      38.490
2015    3        1    22  40    4.0133   540.0    3.067      38.445
2015    3        1    22  45    4.0131   539.7    3.071      38.400
2015    3        1    22  51    4.0127   539.3    3.074      38.354
2015    3        1    22  56    4.0125   538.9    3.078      38.308
2015    3        1    23   1    4.0123   538.5    3.082      38.262
2015    3        1    23   7    4.0121   538.2    3.086      38.216
2015    3        1    23  12    4.0119   537.8    3.089      38.169
2015    3        1    23  18    4.0118   537.4    3.093      38.121
2015    3        1    23  23    4.0116   537.0    3.097      38.073
2015    3        1    23  28    4.0114   536.7    3.100      38.025
2015    3        1    23  34    4.0113   536.3    3.104      37.976
2015    3        1    23  39    4.0111   535.9    3.107      37.927
2015    3        1    23  44    4.0110   535.5    3.111      37.878
2015    3        1    23  50    4.0109   535.2    3.114      37.828
2015    3        1    23  55    4.0108   534.8    3.118      37.777
2015    3        2     0   1    4.0107   534.4    3.122      37.727
2015    3        2     0   6    4.0107   534.0    3.125      37.676
2015    3        2     0  11    4.0105   533.6    3.129      37.625
2015    3        2     0  17    4.0105   533.3    3.132      37.574
2015    3        2     0  22    4.0105   532.9    3.136      37.523
2015    3        2     0  27    4.0104   532.5    3.139      37.471
2015    3        2     0  33    4.0106   532.1    3.143      37.420
2015    3        2     0  38    4.0105   531.7    3.146      37.369
2015    3        2     0  44    4.0107   531.4    3.150      37.318
2015    3        2     0  49    4.0106   531.0    3.153      37.267
2015    3        2     0  54    4.0107   530.6    3.157      37.216
2015    3        2     1   0    4.0109   530.2    3.161      37.165
2015    3        2     1   5    4.0111   529.9    3.164      37.114
2015    3        2     1  11    4.0112   529.5    3.168      37.064
2015    3        2     1  16    4.0115   529.1    3.172      37.014
2015    3        2     1  21    4.0117   528.7    3.176      36.964
2015    3        2     1  27    4.0120   528.3    3.180      36.914
2015    3        2     1  32    4.0123   528.0    3.183      36.865
2015    3        2     1  37    4.0126   527.6    3.187      36.816
2015    3        2     1  43    4.0130   527.2    3.192      36.767
2015    3        2     1  48    4.0134   526.9    3.196      36.718
2015    3        2     1  54    4.0138   526.5    3.200      36.670
2015    3        2     1  59    4.0142   526.1    3.204      36.623
2015    3        2     2   4    4.0147   525.7    3.208      36.575
2015    3        2     2  10    4.0152   525.4    3.213      36.528
2015    3        2     2  15    4.0157   525.0    3.217      36.481
2015    3        2     2  20    4.0163   524.6    3.221      36.434
2015    3        2     2  26    4.0168   524.2    3.226      36.388
2015    3        2     2  31    4.0174   523.9    3.231      36.342
2015    3        2     2  37    4.0180   523.5    3.235      36.296
2015    3        2     2  42    4.0187   523.1    3.240      36.250
2015    3        2     2  47    4.0194   522.8    3.244      36.205
2015    3        2     2  53    4.0201   522.4    3.249      36.160
2015    3        2     2  58    4.0208   522.0    3.254      36.115
2015    3        2     3   3    4.0217   521.6    3.259      36.070
2015    3        2     3   9    4.0223   521.3    3.264      36.026
2015    3        2     3  14    4.0230   520.9    3.269      35.982
2015    3        2     3  20    4.0238   520.5    3.274      35.938
2015    3        2     3  25    4.0248   520.2    3.279      35.894
2015    3        2     3  30    4.0255   519.8    3.284      35.851
2015    3        2     3  36    4.0264   519.4    3.289      35.808
2015    3        2     3  41    4.0275   519.1    3.294      35.765
2015    3        2     3  46    4.0282   518.7    3.299      35.723
2015    3        2     3  52    4.0292   518.3    3.305      35.681
2015    3        2     3  57    4.0303   517.9    3.310      35.639
2015    3        2     4   3    4.0311   517.6    3.315      35.597
2015    3        2     4   8    4.0322   517.2    3.321      35.556
2015    3        2     4  13    4.0332   516.8    3.326      35.515
2015    3        2     4  19    4.0343   516.5    3.332      35.474
2015    3        2     4  24    4.0354   516.1    3.337      35.434
2015    3        2     4  30    4.0366   515.7    3.343      35.394
2015    3        2     4  35    4.0377   515.4    3.348      35.355
2015    3        2     4  40    4.0389   515.0    3.354      35.316
2015    3        2     4  46    4.0404   514.7    3.360      35.277
2015    3        2     4  51    4.0414   514.3    3.366      35.239
2015    3        2     4  56    4.0427   513.9    3.371      35.201
2015    3        2     5   2    4.0441   513.6    3.377      35.163
2015    3        2     5   7    4.0454   513.2    3.383      35.126
2015    3        2     5  13    4.0468   512.9    3.389      35.089
2015    3        2     5  18    4.0482   512.5    3.395      35.053
2015    3        2     5  23    4.0498   512.2    3.401      35.016
2015    3        2     5  29    4.0511   511.8    3.408      34.980
2015    3        2     5  34    4.0528   511.5    3.414      34.945
2015    3        2     5  39    4.0541   511.1    3.420      34.910
2015    3        2     5  45    4.0557   510.8    3.426      34.874
2015    3        2     5  50    4.0572   510.4    3.432      34.839
2015    3        2     5  56    4.0590   510.1    3.439      34.805
2015    3        2     6   1    4.0604   509.7    3.445      34.770
2015    3        2     6   6    4.0623   509.4    3.451      34.735
2015    3        2     6  12    4.0637   509.0    3.458      34.701
2015    3        2     6  17    4.0654   508.7    3.464      34.666
2015    3        2     6  22    4.0671   508.4    3.471      34.632
2015    3        2     6  28    4.0688   508.0    3.477      34.597
2015    3        2     6  33    4.0705   507.7    3.483      34.563
2015    3        2     6  39    4.0723   507.4    3.490      34.528
2015    3        2     6  44    4.0740   507.0    3.496      34.493
2015    3        2     6  49    4.0758   506.7    3.503      34.458
2015    3        2     6  55    4.0776   506.4    3.509      34.423
2015    3        2     7   0    4.0794   506.0    3.515      34.388
2015    3        2     7   5    4.0812   505.7    3.522      34.353
2015    3        2     7  11    4.0832   505.4    3.528      34.318
2015    3        2     7  16    4.0849   505.0    3.535      34.282
2015    3        2     7  22    4.0869   504.7    3.541      34.247
2015    3        2     7  27    4.0888   504.4    3.547      34.212
2015    3        2     7  32    4.0905   504.0    3.554      34.176
2015    3        2     7  38    4.0924   503.7    3.560      34.141
2015    3        2     7  43    4.0946   503.4    3.566      34.105
2015    3        2     7  49    4.0963   503.1    3.573      34.070
2015    3        2     7  54    4.0983   502.7    3.579      34.035
2015    3        2     7  59    4.1003   502.4    3.585      33.999
2015    3        2     8   5    4.1023   502.1    3.592      33.964
2015    3        2     8  10    4.1043   501.8    3.598      33.929
2015    3        2     8  15    4.1064   501.4    3.604      33.894
2015    3        2     8  21    4.1085   501.1    3.611      33.858
2015    3        2     8  26    4.1106   500.8    3.617      33.823
2015    3        2     8  32    4.1127   500.5    3.623      33.788
2015    3        2     8  37    4.1150   500.2    3.630      33.754
2015    3        2     8  42    4.1170   499.8    3.636      33.719
2015    3        2     8  48    4.1192   499.5    3.643      33.684
2015    3        2     8  53    4.1214   499.2    3.649      33.649
2015    3        2     8  58    4.1236   498.9    3.656      33.615
2015    3        2     9   4    4.1258   498.6    3.662      33.581
2015    3        2     9   9    4.1281   498.2    3.669      33.546
2015    3        2     9  15    4.1304   497.9    3.675      33.512
2015    3        2     9  20    4.1327   497.6    3.682      33.479
2015    3        2     9  25    4.1351   497.3    3.688      33.445
2015    3        2     9  31    4.1374   497.0    3.695      33.412
2015    3        2     9  36    4.1400   496.7    3.702      33.378
2015    3        2     9  41    4.1422   496.4    3.709      33.345
2015    3        2     9  47    4.1446   496.0    3.716      33.313
2015    3        2     9  52    4.1473   495.7    3.722      33.280
2015    3        2     9  58    4.1498   495.4    3.729      33.248
2015    3        2    10   3    4.1521   495.1    3.736      33.216
2015    3        2    10   8    4.1546   494.8    3.743      33.184
2015    3        2    10  14    4.1573   494.5    3.751      33.153
2015    3        2    10  19    4.1597   494.2    3.758      33.122
2015    3        2    10  25    4.1623   493.9    3.765      33.091
2015    3        2    10  30    4.1649   493.6    3.772      33.061
2015    3        2    10  35    4.1676   493.3    3.780      33.031
2015    3        2    10  41    4.1703   493.0    3.787      33.001
2015    3        2    10  46    4.1729   492.7    3.795      32.971
2015    3        2    10  51    4.1758   492.4    3.802      32.942
2015    3        2    10  57    4.1786   492.1    3.810      32.914
2015    3        2    11   2    4.1811   491.8    3.818      32.885
2015    3        2    11   8    4.1839   491.5    3.825      32.858
2015    3        2    11  13    4.1867   491.2    3.833      32.830
2015    3        2    11  18    4.1896   490.9    3.841      32.803
2015    3        2    11  24    4.1924   490.6    3.849      32.776
2015    3        2    11  29    4.1953   490.3    3.857      32.749
2015    3        2    11  34    4.1982   490.0    3.865      32.723
2015    3        2    11  40    4.2011   489.7    3.874      32.697
2015    3        2    11  45    4.2042   489.4    3.882      32.672
2015    3        2    11  51    4.2072   489.1    3.890      32.647
2015    3        2    11  56    4.2100   488.8    3.898      32.622
2015    3        2    12   1    4.2130   488.6    3.907      32.597
2015    3        2    12   7    4.2160   488.3    3.915      32.573
2015    3        2    12  12    4.2191   488.0    3.924      32.549
2015    3        2    12  17    4.2221   487.7    3.932      32.525
2015    3        2    12  23    4.2252   487.4    3.941      32.502
2015    3        2    12  28    4.2284   487.1    3.950      32.478
2015    3        2    12  34    4.2314   486.9    3.958      32.456
2015    3        2    12  39    4.2345   486.6    3.967      32.433
2015    3        2    12  44    4.2378   486.3    3.975      32.410
2015    3        2    12  50    4.2408   486.1    3.984      32.388
2015    3        2    12  55    4.2439   485.8    3.993      32.366
2015    3        2    13   0    4.2471   485.5    4.002      32.344
2015    3        2    13   6    4.2503   485.2    4.010      32.322
2015    3        2    13  11    4.2535   485.0    4.019      32.301
2015    3        2    13  17    4.2567   484.7    4.028      32.279
2015    3        2    13  22    4.2601   484.4    4.036      32.258
2015    3        2    13  27    4.2632   484.2    4.045      32.237
2015    3        2    13  33    4.2665   483.9    4.054      32.216
2015    3        2    13  38    4.2699   483.7    4.062      32.195
2015    3        2    13  43    4.2730   483.4    4.071      32.175
2015    3        2    13  49    4.2765   483.1    4.080      32.155
2015    3        2    13  54    4.2797   482.9    4.088      32.134
2015    3        2    14   0    4.2830   482.6    4.097      32.114
2015    3        2    14   5    4.2864   482.4    4.105      32.095
2015    3        2    14  10    4.2897   482.1    4.114      32.075
2015    3        2    14  16    4.2931   481.9    4.123      32.056
2015    3        2    14  21    4.2965   481.6    4.131      32.036
2015    3        2    14  27    4.3000   481.4    4.140      32.017
2015    3        2    14  32    4.3034   481.1    4.148      31.999
2015    3        2    14  37    4.3069   480.9    4.157      31.980
2015    3        2    14  43    4.3103   480.6    4.165      31.962
2015    3        2    14  48    4.3138   480.4    4.174      31.944
2015    3        2    14  53    4.3173   480.1    4.182      31.926
2015    3        2    14  59    4.3209   479.9    4.191      31.908
2015    3        2    15   4    4.3244   479.7    4.199      31.891
2015    3        2    15  10    4.3281   479.4    4.207      31.873
2015    3        2    15  15    4.3316   479.2    4.216      31.856
2015    3        2    15  20    4.3351   478.9    4.224      31.840
2015    3        2    15  26    4.3388   478.7    4.233      31.823
2015    3        2    15  31    4.3424   478.5    4.241      31.807
2015    3        2    15  36    4.3462   478.2    4.250      31.791
2015    3        2    15  42    4.3498   478.0    4.258      31.775
2015    3        2    15  47    4.3534   477.8    4.266      31.760
2015    3        2    15  53    4.3571   477.5    4.275      31.744
2015    3        2    15  58    4.3608   477.3    4.283      31.729
2015    3        2    16   3    4.3645   477.1    4.292      31.715
2015    3        2    16   9    4.3683   476.9    4.300      31.700
2015    3        2    16  14    4.3720   476.6    4.309      31.686
2015    3        2    16  19    4.3758   476.4    4.317      31.672
2015    3        2    16  25    4.3796   476.2    4.326      31.658
2015    3        2    16  30    4.3834   476.0    4.334      31.645
2015    3        2    16  36    4.3872   475.7    4.343      31.631
2015    3        2    16  41    4.3911   475.5    4.352      31.618
2015    3        2    16  46    4.3951   475.3    4.360      31.606
2015    3        2    16  52    4.3990   475.1    4.369      31.593
2015    3        2    16  57    4.4028   474.9    4.378      31.581
2015    3        2    17   3    4.4066   474.6    4.387      31.569
2015    3        2    17   8    4.4105   474.4    4.396      31.558
2015    3        2    17  13    4.4145   474.2    4.405      31.547
2015    3        2    17  19    4.4184   474.0    4.413      31.536
2015    3        2    17  24    4.4224   473.8    4.422      31.525
2015    3        2    17  29    4.4264   473.6    4.432      31.515
2015    3        2    17  35    4.4304   473.4    4.441      31.504
2015    3        2    17  40    4.4344   473.2    4.450      31.495
2015    3        2    17  46    4.4384   472.9    4.459      31.485
2015    3        2    17  51    4.4425   472.7    4.468      31.476
2015    3        2    17  56    4.4466   472.5    4.478      31.467
2015    3        2    18   2    4.4507   472.3    4.487      31.459
2015    3        2    18   7    4.4548   472.1    4.497      31.450
2015    3        2    18  12    4.4588   471.9    4.506      31.442
2015    3        2    18  18    4.4630   471.7    4.516      31.435
2015    3        2    18  23    4.4671   471.5    4.525      31.427
2015    3        2    18  29    4.4712   471.3    4.535      31.420
2015    3        2    18  34    4.4754   471.1    4.545      31.414
2015    3        2    18  39    4.4796   470.9    4.555      31.407
2015    3        2    18  45    4.4838   470.8    4.565      31.401
2015    3        2    18  50    4.4880   470.6    4.575      31.395
2015    3        2    18  55    4.4922   470.4    4.585      31.390
2015    3        2    19   1    4.4965   470.2    4.595      31.384
2015    3        2    19   6    4.5007   470.0    4.605      31.379
2015    3        2    19  12    4.5050   469.8    4.615      31.375
2015    3        2    19  17    4.5092   469.6    4.625      31.370
2015    3        2    19  22    4.5135   469.5    4.635      31.366
2015    3        2    19  28    4.5178   469.3    4.646      31.362
2015    3        2    19  33    4.5221   469.1    4.656      31.358
2015    3        2    19  38    4.5264   468.9    4.666      31.355
2015    3        2    19  44    4.5308   468.7    4.677      31.352
2015    3        2    19  49    4.5351   468.6    4.687      31.349
2015    3        2    19  55    4.5395   468.4    4.697      31.346
2015    3        2    20   0    4.5438   468.2    4.708      31.343
2015    3        2    20   5    4.5482   468.0    4.718      31.340
2015    3        2    20  11    4.5526   467.9    4.729      31.338
2015    3        2    20  16    4.5571   467.7    4.739      31.336
2015    3        2    20  22    4.5614   467.5    4.750      31.334
2015    3        2    20  27    4.5658   467.4    4.760      31.332
2015    3        2    20  32    4.5702   467.2    4.770      31.330
2015    3        2    20  38    4.5747   467.0    4.781      31.328
2015    3        2    20  43    4.5791   466.9    4.791      31.327
2015    3        2    20  48    4.5836   466.7    4.801      31.326
2015    3        2    20  54    4.5881   466.6    4.811      31.325
2015    3        2    20  59    4.5926   466.4    4.822      31.325
2015    3        2    21   5    4.5972   466.2    4.832      31.325
2015    3        2    21  10    4.6017   466.1    4.842      31.325
2015    3        2    21  15    4.6062   465.9    4.852      31.325
2015    3        2    21  21    4.6108   465.8    4.862      31.325
2015    3        2    21  26    4.6154   465.6    4.872      31.326
2015    3        2    21  31    4.6201   465.4    4.881      31.327
2015    3        2    21  37    4.6246   465.3    4.891      31.329
2015    3        2    21  42    4.6293   465.1    4.901      31.331
2015    3        2    21  48    4.6339   465.0    4.910      31.332
2015    3        2    21  53    4.6386   464.8    4.920      31.335
2015    3        2    21  58    4.6434   464.7    4.929      31.337
2015    3        2    22   4    4.6480   464.5    4.939      31.340
2015    3        2    22   9    4.6528   464.4    4.948      31.343
2015    3        2    22  14    4.6575   464.2    4.958      31.346
2015    3        2    22  20    4.6623   464.1    4.967      31.349
2015    3        2    22  25    4.6671   464.0    4.976      31.352
2015    3        2    22  31    4.6720   463.8    4.985      31.355
2015    3        2    22  36    4.6767   463.7    4.994      31.359
2015    3        2    22  41    4.6816   463.5    5.003      31.362
2015    3        2    22  47    4.6864   463.4    5.013      31.366
2015    3        2    22  52    4.6913   463.3    5.022      31.369
2015    3        2    22  57    4.6962   463.1    5.031      31.373
2015    3        2    23   3    4.7011   463.0    5.040      31.377
2015    3        2    23   8    4.7060   462.8    5.049      31.381
2015    3        2    23  14    4.7109   462.7    5.057      31.385
2015    3        2    23  19    4.7160   462.6    5.066      31.389
2015    3        2    23  24    4.7208   462.4    5.075      31.393
2015    3        2    23  30    4.7258   462.3    5.084      31.397
2015    3        2    23  35    4.7307   462.2    5.093      31.402
2015    3        2    23  41    4.7357   462.1    5.102      31.406
2015    3        2    23  46    4.7407   461.9    5.110      31.411
2015    3        2    23  51    4.7458   461.8    5.119      31.416
2015    3        2    23  57    4.7507   461.7    5.128      31.421
2015    3        3     0   2    4.7557   461.6    5.137      31.426
2015    3        3     0   7    4.7607   461.4    5.145      31.431
2015    3        3     0  13    4.7657   461.3    5.154      31.437
2015    3        3     0  18    4.7707   461.2    5.163      31.442
2015    3        3     0  24    4.7757   461.1    5.171      31.448
2015    3        3     0  29    4.7808   461.0    5.180      31.453
2015    3        3     0  34    4.7858   460.8    5.188      31.459
2015    3        3     0  40    4.7908   460.7    5.197      31.465
2015    3        3     0  45    4.7959   460.6    5.205      31.471
2015    3        3     0  50    4.8009   460.5    5.214      31.477
2015    3        3     0  56    4.8059   460.4    5.223      31.483
2015    3        3     1   1    4.8110   460.3    5.231      31.489
2015    3        3     1   7    4.8160   460.2    5.240      31.495
2015    3        3     1  12    4.8211   460.1    5.248      31.501
2015    3        3     1  17    4.8261   459.9    5.257      31.507
2015    3        3     1  23    4.8312   459.8    5.265      31.513
2015    3        3     1  28    4.8362   459.7    5.274      31.520
2015    3        3     1  33    4.8413   459.6    5.282      31.526
2015    3        3     1  39    4.8464   459.5    5.291      31.532
2015    3        3     1  44    4.8514   459.4    5.299      31.539
2015    3        3     1  50    4.8564   459.3    5.308      31.546
2015    3        3     1  55    4.8615   459.2    5.317      31.552
2015    3        3     2   0    4.8665   459.1    5.325      31.559
2015    3        3     2   6    4.8716   459.0    5.334      31.566
2015    3        3     2  11    4.8767   458.9    5.342      31.573
2015    3        3     2  16    4.8817   458.8    5.351      31.580
2015    3        3     2  22    4.8868   458.7    5.360      31.588
2015    3        3     2  27    4.8918   458.6    5.368      31.595
2015    3        3     2  33    4.8969   458.5    5.377      31.603
2015    3        3     2  38    4.9020   458.4    5.385      31.611
2015    3        3     2  43    4.9071   458.3    5.394      31.619
2015    3        3     2  49    4.9121   458.2    5.403      31.627
2015    3        3     2  54    4.9173   458.1    5.412      31.635
2015    3        3     3   0    4.9223   458.1    5.420      31.644
2015    3        3     3   5    4.9275   458.0    5.429      31.653
2015    3        3     3  10    4.9326   457.9    5.438      31.662
2015    3        3     3  16    4.9377   457.8    5.447      31.671
2015    3        3     3  21    4.9429   457.7    5.455      31.681
2015    3        3     3  26    4.9481   457.6    5.464      31.691
2015    3        3     3  32    4.9532   457.5    5.473      31.701
2015    3        3     3  37    4.9584   457.4    5.482      31.712
2015    3        3     3  43    4.9636   457.3    5.491      31.723
2015    3        3     3  48    4.9688   457.2    5.500      31.734
2015    3        3     3  53    4.9741   457.2    5.509      31.745
2015    3        3     3  59    4.9793   457.1    5.518      31.758
2015    3        3     4   4    4.9846   457.0    5.527      31.770
2015    3        3     4   9    4.9898   456.9    5.536      31.783
2015    3        3     4  15    4.9952   456.8    5.545      31.797
2015    3        3     4  20    5.0005   456.7    5.554      31.811
2015    3        3     4  26    5.0058   456.7    5.563      31.825
2015    3        3     4  31    5.0112   456.6    5.573      31.840
2015    3        3     4  36    5.0166   456.5    5.582      31.855
2015    3        3     4  42    5.0220   456.4    5.591      31.871
2015    3        3     4  47    5.0275   456.4    5.600      31.888
2015    3        3     4  52    5.0329   456.3    5.609      31.904
2015    3        3     4  58    5.0384   456.2    5.618      31.922
2015    3        3     5   3    5.0438   456.1    5.627      31.940
2015    3        3     5   9    5.0493   456.1    5.636      31.958
2015    3        3     5  14    5.0549   456.0    5.645      31.976
2015    3        3     5  19    5.0604   455.9    5.654      31.995
2015    3        3     5  25    5.0660   455.9    5.663      32.014
2015    3        3     5  30    5.0716   455.8    5.672      32.034
2015    3        3     5  35    5.0771   455.7    5.681      32.054
2015    3        3     5  41    5.0827   455.6    5.690      32.074
2015    3        3     5  46    5.0884   455.6    5.698      32.095
2015    3        3     5  52    5.0940   455.5    5.707      32.116
2015    3        3     5  57    5.0996   455.5    5.716      32.137
2015    3        3     6   2    5.1053   455.4    5.724      32.158
2015    3        3     6   8    5.1110   455.3    5.733      32.179
2015    3        3     6  13    5.1167   455.3    5.741      32.200
2015    3        3     6  19    5.1223   455.2    5.750      32.221
2015    3        3     6  24    5.1280   455.2    5.758      32.242
2015    3        3     6  29    5.1337   455.1    5.766      32.263
2015    3        3     6  35    5.1393   455.1    5.774      32.283
2015    3        3     6  40    5.1450   455.0    5.782      32.304
2015    3        3     6  45    5.1507   454.9    5.790      32.324
2015    3        3     6  51    5.1564   454.9    5.798      32.344
2015    3        3     6  56    5.1620   454.8    5.806      32.364
2015    3        3     7   2    5.1677   454.8    5.814      32.384
2015    3        3     7   7    5.1734   454.7    5.821      32.403
2015    3        3     7  12    5.1791   454.7    5.829      32.422
2015    3        3     7  18    5.1847   454.6    5.836      32.441
2015    3        3     7  23    5.1903   454.6    5.844      32.460
2015    3        3     7  28    5.1960   454.5    5.851      32.479
2015    3        3     7  34    5.2016   454.5    5.858      32.497
2015    3        3     7  39    5.2073   454.4    5.865      32.515
2015    3        3     7  45    5.2129   454.4    5.872      32.533
2015    3        3     7  50    5.2184   454.4    5.879      32.551
2015    3        3     7  55    5.2241   454.3    5.886      32.568
2015    3        3     8   1    5.2296   454.3    5.893      32.586
2015    3        3     8   6    5.2352   454.2    5.899      32.603
2015    3        3     8  11    5.2408   454.2    5.906      32.620
2015    3        3     8  17    5.2464   454.1    5.912      32.636
2015    3        3     8  22    5.2519   454.1    5.919      32.653
2015    3        3     8  28    5.2575   454.1    5.925      32.669
2015    3        3     8  33    5.2630   454.0    5.932      32.685
2015    3        3     8  38    5.2685   454.0    5.938      32.701
2015    3        3     8  44    5.2740   453.9    5.944      32.717
2015    3        3     8  49    5.2796   453.9    5.951      32.733
2015    3        3     8  54    5.2851   453.9    5.957      32.748
2015    3        3     9   0    5.2906   453.8    5.963      32.763
2015    3        3     9   5    5.2961   453.8    5.969      32.778
2015    3        3     9  11    5.3016   453.8    5.975      32.793
2015    3        3     9  16    5.3071   453.7    5.981      32.808
2015    3        3     9  21    5.3125   453.7    5.987      32.823
2015    3        3     9  27    5.3180   453.6    5.993      32.838
2015    3        3     9  32    5.3235   453.6    5.999      32.853
2015    3        3     9  38    5.3290   453.6    6.005      32.867
2015    3        3     9  43    5.3344   453.5    6.011      32.882
2015    3        3     9  48    5.3399   453.5    6.017      32.897
2015    3        3     9  54    5.3454   453.5    6.023      32.912
2015    3        3     9  59    5.3509   453.5    6.028      32.927
2015    3        3    10   4    5.3563   453.4    6.034      32.942
2015    3        3    10  10    5.3618   453.4    6.040      32.958
2015    3        3    10  15    5.3673   453.4    6.046      32.973
2015    3        3    10  21    5.3728   453.3    6.052      32.989
2015    3        3    10  26    5.3783   453.3    6.058      33.005
2015    3        3    10  31    5.3838   453.3    6.064      33.021
2015    3        3    10  37    5.3893   453.2    6.070      33.038
2015    3        3    10  42    5.3948   453.2    6.076      33.054
2015    3        3    10  47    5.4004   453.2    6.082      33.072
2015    3        3    10  53    5.4059   453.2    6.088      33.090
2015    3        3    10  58    5.4115   453.1    6.094      33.108
2015    3        3    11   4    5.4171   453.1    6.100      33.126
2015    3        3    11   9    5.4227   453.1    6.107      33.146
2015    3        3    11  14    5.4283   453.1    6.113      33.165
2015    3        3    11  20    5.4339   453.0    6.120      33.185
2015    3        3    11  25    5.4396   453.0    6.126      33.206
2015    3        3    11  30    5.4452   453.0    6.133      33.228
2015    3        3    11  36    5.4509   453.0    6.140      33.250
2015    3        3    11  41    5.4566   453.0    6.146      33.272
2015    3        3    11  47    5.4624   452.9    6.153      33.296
2015    3        3    11  52    5.4681   452.9    6.161      33.319
2015    3        3    11  57    5.4739   452.9    6.168      33.344
2015    3        3    12   3    5.4797   452.9    6.175      33.369
2015    3        3    12   8    5.4855   452.9    6.183      33.395
2015    3        3    12  13    5.4913   452.9    6.190      33.422
2015    3        3    12  19    5.4972   452.9    6.198      33.450
2015    3        3    12  24    5.5030   452.9    6.205      33.478
2015    3        3    12  30    5.5089   452.9    6.213      33.508
2015    3        3    12  35    5.5148   452.9    6.221      33.538
2015    3        3    12  40    5.5207   452.9    6.229      33.568
2015    3        3    12  46    5.5267   452.8    6.236      33.599
2015    3        3    12  51    5.5326   452.8    6.244      33.631
2015    3        3    12  57    5.5385   452.8    6.252      33.664
2015    3        3    13   2    5.5445   452.8    6.260      33.697
2015    3        3    13   7    5.5505   452.8    6.268      33.730
2015    3        3    13  13    5.5564   452.8    6.276      33.764
2015    3        3    13  18    5.5624   452.8    6.284      33.797
2015    3        3    13  23    5.5684   452.8    6.292      33.832
2015    3        3    13  29    5.5744   452.9    6.299      33.867
2015    3        3    13  34    5.5804   452.9    6.307      33.902
2015    3        3    13  40    5.5864   452.9    6.315      33.938
2015    3        3    13  45    5.5923   452.9    6.322      33.973
2015    3        3    13  50    5.5983   452.9    6.330      34.009
2015    3        3    13  56    5.6042   452.9    6.337      34.045
2015    3        3    14   1    5.6102   452.9    6.344      34.081
2015    3        3    14   6    5.6161   452.9    6.352      34.116
2015    3        3    14  12    5.6220   452.9    6.358      34.151
2015    3        3    14  17    5.6278   453.0    6.365      34.186
2015    3        3    14  23    5.6337   453.0    6.372      34.221
2015    3        3    14  28    5.6395   453.0    6.378      34.255
2015    3        3    14  33    5.6453   453.0    6.384      34.290
2015    3        3    14  39    5.6511   453.0    6.390      34.324
2015    3        3    14  44    5.6568   453.1    6.396      34.357
2015    3        3    14  49    5.6626   453.1    6.402      34.389
2015    3        3    14  55    5.6683   453.1    6.407      34.421
2015    3        3    15   0    5.6740   453.1    6.412      34.453
2015    3        3    15   6    5.6796   453.1    6.417      34.484
2015    3        3    15  11    5.6853   453.2    6.422      34.514
2015    3        3    15  16    5.6909   453.2    6.427      34.544
2015    3        3    15  22    5.6965   453.2    6.432      34.574
2015    3        3    15  27    5.7021   453.2    6.436      34.603
2015    3        3    15  32    5.7077   453.3    6.441      34.632
2015    3        3    15  38    5.7133   453.3    6.445      34.660
2015    3        3    15  43    5.7189   453.3    6.449      34.688
2015    3        3    15  49    5.7244   453.4    6.453      34.716
2015    3        3    15  54    5.7299   453.4    6.457      34.743
2015    3        3    15  59    5.7355   453.4    6.461      34.770
2015    3        3    16   5    5.7410   453.4    6.464      34.797
2015    3        3    16  10    5.7465   453.5    6.468      34.823
2015    3        3    16  16    5.7520   453.5    6.471      34.849
2015    3        3    16  21    5.7575   453.5    6.475      34.874
2015    3        3    16  26    5.7630   453.6    6.478      34.900
2015    3        3    16  32    5.7685   453.6    6.482      34.925
2015    3        3    16  37    5.7740   453.6    6.485      34.950
2015    3        3    16  42    5.7795   453.6    6.488      34.974
2015    3        3    16  48    5.7850   453.7    6.491      34.998
2015    3        3    16  53    5.7905   453.7    6.494      35.023
2015    3        3    16  59    5.7960   453.7    6.498      35.047
2015    3        3    17   4    5.8015   453.8    6.501      35.071
2015    3        3    17   9    5.8070   453.8    6.504      35.094
2015    3        3    17  15    5.8125   453.8    6.507      35.118
2015    3        3    17  20    5.8180   453.8    6.510      35.142
2015    3        3    17  25    5.8236   453.9    6.513      35.166
2015    3        3    17  31    5.8291   453.9    6.516      35.189
2015    3        3    17  36    5.8346   453.9    6.519      35.213
2015    3        3    17  42    5.8402   454.0    6.522      35.237
2015    3        3    17  47    5.8458   454.0    6.525      35.261
2015    3        3    17  52    5.8514   454.0    6.528      35.285
2015    3        3    17  58    5.8569   454.1    6.531      35.310
2015    3        3    18   3    5.8625   454.1    6.535      35.334
2015    3        3    18   8    5.8681   454.1    6.538      35.359
2015    3        3    18  14    5.8737   454.2    6.541      35.385
2015    3        3    18  19    5.8793   454.2    6.545      35.410
2015    3        3    18  25    5.8849   454.2    6.548      35.437
2015    3        3    18  30    5.8905   454.3    6.552      35.463
2015    3        3    18  35    5.8961   454.3    6.555      35.490
2015    3        3    18  41    5.9017   454.3    6.559      35.518
2015    3        3    18  46    5.9073   454.4    6.563      35.546
2015    3        3    18  51    5.9130   454.4    6.567      35.575
2015    3        3    18  57    5.9187   454.5    6.571      35.605
2015    3        3    19   2    5.9243   454.5    6.575      35.635
2015    3        3    19   8    5.9300   454.5    6.580      35.666
2015    3        3    19  13    5.9356   454.6    6.584      35.699
2015    3        3    19  18    5.9413   454.6    6.589      35.732
2015    3        3    19  24    5.9469   454.7    6.593      35.767
2015    3        3    19  29    5.9525   454.7    6.598      35.802
2015    3        3    19  35    5.9582   454.8    6.603      35.839
2015    3        3    19  40    5.9639   454.8    6.608      35.876
2015    3        3    19  45    5.9694   454.9    6.612      35.914
2015    3        3    19  51    5.9752   454.9    6.617      35.953
2015    3        3    19  56    5.9808   455.0    6.622      35.993
2015    3        3    20   1    5.9865   455.0    6.628      36.034
2015    3        3    20   7    5.9920   455.1    6.633      36.075
2015    3        3    20  12    5.9977   455.1    6.638      36.117
2015    3        3    20  18    6.0034   455.2    6.643      36.159
2015    3        3    20  23    6.0090   455.3    6.648      36.202
2015    3        3    20  28    6.0146   455.3    6.654      36.245
2015    3        3    20  34    6.0203   455.4    6.659      36.288
2015    3        3    20  39    6.0259   455.4    6.665      36.333
2015    3        3    20  44    6.0314   455.5    6.670      36.378
2015    3        3    20  50    6.0371   455.6    6.676      36.423
2015    3        3    20  55    6.0427   455.6    6.681      36.470
2015    3        3    21   1    6.0483   455.7    6.687      36.517
2015    3        3    21   6    6.0539   455.8    6.692      36.565
2015    3        3    21  11    6.0594   455.8    6.697      36.614
2015    3        3    21  17    6.0649   455.9    6.703      36.663
2015    3        3    21  22    6.0704   456.0    6.707      36.713
2015    3        3    21  27    6.0758   456.1    6.712      36.762
2015    3        3    21  33    6.0812   456.2    6.717      36.812
2015    3        3    21  38    6.0866   456.2    6.721      36.861
2015    3        3    21  44    6.0919   456.3    6.725      36.911
2015    3        3    21  49    6.0972   456.4    6.729      36.960
2015    3        3    21  54    6.1024   456.5    6.733      37.009
2015    3        3    22   0    6.1077   456.6    6.736      37.058
2015    3        3    22   5    6.1129   456.7    6.740      37.105
2015    3        3    22  10    6.1181   456.8    6.743      37.153
2015    3        3    22  16    6.1232   456.8    6.746      37.199
2015    3        3    22  21    6.1283   456.9    6.749      37.244
2015    3        3    22  27    6.1334   457.0    6.751      37.289
2015    3        3    22  32    6.1385   457.1    6.754      37.333
2015    3        3    22  37    6.1436   457.2    6.756      37.377
2015    3        3    22  43    6.1486   457.3    6.758      37.420
2015    3        3    22  48    6.1537   457.4    6.760      37.462
2015    3        3    22  54    6.1587   457.4    6.762      37.504
2015    3        3    22  59    6.1637   457.5    6.764      37.545
2015    3        3    23   4    6.1687   457.6    6.766      37.586
2015    3        3    23  10    6.1738   457.7    6.768      37.627
2015    3        3    23  15    6.1788   457.8    6.770      37.667
2015    3        3    23  20    6.1838   457.9    6.771      37.706
2015    3        3    23  26    6.1888   458.0    6.773      37.746
2015    3        3    23  31    6.1939   458.1    6.774      37.785
2015    3        3    23  37    6.1988   458.1    6.776      37.823
2015    3        3    23  42    6.2039   458.2    6.778      37.861
2015    3        3    23  47    6.2090   458.3    6.779      37.900
2015    3        3    23  53    6.2140   458.4    6.781      37.937
2015    3        3    23  58    6.2192   458.5    6.782      37.975
2015    3        4     0   3    6.2243   458.6    6.784      38.013
2015    3        4     0   9    6.2295   458.7    6.786      38.050
2015    3        4     0  14    6.2347   458.7    6.788      38.088
2015    3        4     0  20    6.2399   458.8    6.790      38.126
2015    3        4     0  25    6.2451   458.9    6.792      38.164
2015    3        4     0  30    6.2505   459.0    6.794      38.202
2015    3        4     0  36    6.2559   459.1    6.797      38.241
2015    3        4     0  41    6.2613   459.2    6.800      38.280
2015    3        4     0  46    6.2668   459.3    6.802      38.319
2015    3        4     0  52    6.2723   459.4    6.805      38.361
2015    3        4     0  57    6.2778   459.5    6.808      38.403
2015    3        4     1   3    6.2834   459.6    6.812      38.447
2015    3        4     1   8    6.2889   459.7    6.815      38.492
2015    3        4     1  13    6.2945   459.8    6.818      38.539
2015    3        4     1  19    6.3001   459.9    6.821      38.586
2015    3        4     1  24    6.3056   460.0    6.824      38.635
2015    3        4     1  29    6.3112   460.1    6.827      38.684
2015    3        4     1  35    6.3167   460.2    6.830      38.733
2015    3        4     1  40    6.3222   460.3    6.833      38.783
2015    3        4     1  46    6.3276   460.4    6.836      38.833
2015    3        4     1  51    6.3330   460.5    6.838      38.884
2015    3        4     1  56    6.3384   460.6    6.841      38.936
2015    3        4     2   2    6.3437   460.8    6.843      38.987
2015    3        4     2   7    6.3489   460.9    6.845      39.038
2015    3        4     2  13    6.3541   461.0    6.847      39.089
2015    3        4     2  18    6.3593   461.1    6.848      39.140
2015    3        4     2  23    6.3644   461.2    6.850      39.190
2015    3        4     2  29    6.3694   461.4    6.851      39.241
2015    3        4     2  34    6.3745   461.5    6.853      39.291
2015    3        4     2  39    6.3794   461.6    6.854      39.341
2015    3        4     2  45    6.3844   461.7    6.855      39.391
2015    3        4     2  50    6.3893   461.8    6.856      39.441
2015    3        4     2  56    6.3941   462.0    6.856      39.491
2015    3        4     3   1    6.3990   462.1    6.857      39.541
2015    3        4     3   6    6.4038   462.2    6.858      39.590
2015    3        4     3  12    6.4086   462.3    6.858      39.640
2015    3        4     3  17    6.4134   462.5    6.859      39.689
2015    3        4     3  22    6.4181   462.6    6.859      39.739
2015    3        4     3  28    6.4228   462.7    6.860      39.788
2015    3        4     3  33    6.4276   462.8    6.860      39.837
2015    3        4     3  39    6.4323   462.9    6.860      39.886
2015    3        4     3  44    6.4370   463.1    6.860      39.935
2015    3        4     3  49    6.4417   463.2    6.861      39.984
2015    3        4     3  55    6.4463   463.3    6.861      40.033
2015    3        4     4   0    6.4510   463.4    6.861      40.083
2015    3        4     4   5    6.4556   463.6    6.861      40.132
2015    3        4     4  11    6.4603   463.7    6.861      40.183
2015    3        4     4  16    6.4649   463.8    6.862      40.233
2015    3        4     4  22    6.4695   464.0    6.861      40.284
2015    3        4     4  27    6.4741   464.1    6.861      40.336
2015    3        4     4  32    6.4786   464.2    6.861      40.387
2015    3        4     4  38    6.4832   464.3    6.861      40.438
2015    3        4     4  43    6.4876   464.5    6.861      40.489
2015    3        4     4  48    6.4922   464.6    6.860      40.541
2015    3        4     4  54    6.4967   464.7    6.859      40.592
2015    3        4     4  59    6.5011   464.9    6.859      40.643
2015    3        4     5   5    6.5056   465.0    6.858      40.694
2015    3        4     5  10    6.5101   465.1    6.857      40.744
2015    3        4     5  15    6.5145   465.3    6.856      40.794
2015    3        4     5  21    6.5189   465.4    6.855      40.844
2015    3        4     5  26    6.5233   465.5    6.854      40.893
2015    3        4     5  32    6.5277   465.7    6.853      40.942
2015    3        4     5  37    6.5321   465.8    6.851      40.990
2015    3        4     5  42    6.5365   465.9    6.850      41.038
2015    3        4     5  48    6.5409   466.1    6.849      41.085
2015    3        4     5  53    6.5453   466.2    6.848      41.132
2015    3        4     5  58    6.5496   466.3    6.846      41.179
2015    3        4     6   4    6.5540   466.5    6.845      41.225
2015    3        4     6   9    6.5584   466.6    6.844      41.272
2015    3        4     6  15    6.5628   466.7    6.842      41.318
2015    3        4     6  20    6.5672   466.9    6.841      41.364
2015    3        4     6  25    6.5717   467.0    6.840      41.410
2015    3        4     6  31    6.5761   467.1    6.839      41.455
2015    3        4     6  36    6.5805   467.3    6.838      41.501
2015    3        4     6  41    6.5851   467.4    6.837      41.547
2015    3        4     6  47    6.5896   467.5    6.837      41.594
2015    3        4     6  52    6.5941   467.6    6.836      41.640
2015    3        4     6  58    6.5987   467.8    6.836      41.687
2015    3        4     7   3    6.6033   467.9    6.835      41.734
2015    3        4     7   8    6.6080   468.0    6.835      41.782
2015    3        4     7  14    6.6127   468.2    6.836      41.830
2015    3        4     7  19    6.6174   468.3    6.836      41.879
2015    3        4     7  24    6.6222   468.4    6.837      41.928
2015    3        4     7  30    6.6271   468.5    6.838      41.978
2015    3        4     7  35    6.6320   468.7    6.839      42.029
2015    3        4     7  41    6.6370   468.8    6.841      42.081
2015    3        4     7  46    6.6421   468.9    6.843      42.135
2015    3        4     7  51    6.6473   469.1    6.845      42.189
2015    3        4     7  57    6.6525   469.2    6.848      42.246
2015    3        4     8   2    6.6578   469.3    6.851      42.304
2015    3        4     8   7    6.6632   469.4    6.855      42.363
2015    3        4     8  13    6.6686   469.6    6.859      42.424
2015    3        4     8  18    6.6741   469.7    6.863      42.489
2015    3        4     8  24    6.6795   469.9    6.868      42.556
2015    3        4     8  29    6.6849   470.0    6.872      42.626
2015    3        4     8  34    6.6905   470.2    6.877      42.698
2015    3        4     8  40    6.6959   470.3    6.882      42.772
2015    3        4     8  45    6.7013   470.5    6.887      42.847
2015    3        4     8  51    6.7067   470.6    6.892      42.925
2015    3        4     8  56    6.7120   470.8    6.896      43.002
2015    3        4     9   1    6.7172   471.0    6.900      43.081
2015    3        4     9   7    6.7224   471.1    6.904      43.159
2015    3        4     9  12    6.7274   471.3    6.908      43.237
2015    3        4     9  17    6.7324   471.5    6.911      43.316
2015    3        4     9  23    6.7372   471.7    6.914      43.394
2015    3        4     9  28    6.7420   471.9    6.917      43.471
2015    3        4     9  34    6.7467   472.0    6.919      43.547
2015    3        4     9  39    6.7512   472.2    6.921      43.621
2015    3        4     9  44    6.7558   472.4    6.922      43.693
2015    3        4     9  50    6.7603   472.6    6.923      43.764
2015    3        4     9  55    6.7646   472.8    6.923      43.834
2015    3        4    10   0    6.7690   473.0    6.924      43.901
2015    3        4    10   6    6.7732   473.1    6.924      43.968
2015    3        4    10  11    6.7774   473.3    6.923      44.033
2015    3        4    10  17    6.7816   473.5    6.922      44.097
2015    3        4    10  22    6.7857   473.7    6.921      44.160
2015    3        4    10  27    6.7898   473.9    6.920      44.221
2015    3        4    10  33    6.7939   474.1    6.919      44.282
2015    3        4    10  38    6.7979   474.3    6.917      44.341
2015    3        4    10  43    6.8019   474.4    6.915      44.399
2015    3        4    10  49    6.8059   474.6    6.913      44.457
2015    3        4    10  54    6.8099   474.8    6.911      44.514
2015    3        4    11   0    6.8138   475.0    6.908      44.569
2015    3        4    11   5    6.8178   475.2    6.906      44.624
2015    3        4    11  10    6.8217   475.4    6.903      44.678
2015    3        4    11  16    6.8256   475.6    6.900      44.732
2015    3        4    11  21    6.8295   475.8    6.897      44.785
2015    3        4    11  26    6.8333   476.0    6.894      44.837
2015    3        4    11  32    6.8372   476.1    6.891      44.889
2015    3        4    11  37    6.8410   476.3    6.887      44.940
2015    3        4    11  43    6.8449   476.5    6.884      44.990
2015    3        4    11  48    6.8487   476.7    6.880      45.040
2015    3        4    11  53    6.8525   476.9    6.877      45.090
2015    3        4    11  59    6.8563   477.1    6.873      45.139
2015    3        4    12   4    6.8601   477.3    6.870      45.188
2015    3        4    12  10    6.8638   477.5    6.866      45.236
2015    3        4    12  15    6.8677   477.7    6.862      45.284
2015    3        4    12  20    6.8715   477.9    6.859      45.332
2015    3        4    12  26    6.8753   478.1    6.855      45.379
2015    3        4    12  31    6.8790   478.2    6.851      45.426
2015    3        4    12  36    6.8828   478.4    6.848      45.473
2015    3        4    12  42    6.8866   478.6    6.844      45.520
2015    3        4    12  47    6.8903   478.8    6.840      45.567
2015    3        4    12  53    6.8942   479.0    6.837      45.614
2015    3        4    12  58    6.8979   479.2    6.833      45.660
2015    3        4    13   3    6.9018   479.4    6.830      45.707
2015    3        4    13   9    6.9056   479.6    6.826      45.754
2015    3        4    13  14    6.9094   479.8    6.823      45.801
2015    3        4    13  19    6.9132   480.0    6.820      45.848
2015    3        4    13  25    6.9171   480.2    6.817      45.897
2015    3        4    13  30    6.9208   480.4    6.814      45.945
2015    3        4    13  36    6.9247   480.6    6.811      45.995
2015    3        4    13  41    6.9287   480.7    6.808      46.044
2015    3        4    13  46    6.9326   480.9    6.805      46.095
2015    3        4    13  52    6.9366   481.1    6.803      46.146
2015    3        4    13  57    6.9405   481.3    6.801      46.198
2015    3        4    14   2    6.9445   481.5    6.799      46.251
2015    3        4    14   8    6.9485   481.7    6.797      46.304
2015    3        4    14  13    6.9524   481.9    6.795      46.359
2015    3        4    14  19    6.9566   482.1    6.793      46.414
2015    3        4    14  24    6.9606   482.3    6.792      46.471
2015    3        4    14  29    6.9648   482.5    6.791      46.528
2015    3        4    14  35    6.9690   482.7    6.791      46.586
2015    3        4    14  40    6.9732   482.9    6.790      46.645
2015    3        4    14  45    6.9775   483.1    6.790      46.706
2015    3        4    14  51    6.9819   483.3    6.791      46.768
2015    3        4    14  56    6.9862   483.5    6.791      46.833
2015    3        4    15   2    6.9905   483.8    6.792      46.901
2015    3        4    15   7    6.9951   484.0    6.793      46.970
2015    3        4    15  12    6.9996   484.2    6.795      47.042
2015    3        4    15  18    7.0041   484.4    6.796      47.116
2015    3        4    15  23    7.0086   484.6    6.798      47.191
2015    3        4    15  29    7.0131   484.8    6.800      47.268
2015    3        4    15  34    7.0175   485.0    6.801      47.346
2015    3        4    15  39    7.0220   485.3    6.803      47.426
2015    3        4    15  45    7.0264   485.5    6.805      47.508
2015    3        4    15  50    7.0307   485.7    6.807      47.590
2015    3        4    15  55    7.0350   486.0    6.808      47.673
2015    3        4    16   1    7.0392   486.2    6.809      47.757
2015    3        4    16   6    7.0433   486.4    6.810      47.840
2015    3        4    16  12    7.0474   486.7    6.811      47.922
2015    3        4    16  17    7.0514   486.9    6.812      48.003
2015    3        4    16  22    7.0552   487.1    6.812      48.083
2015    3        4    16  28    7.0592   487.4    6.812      48.162
2015    3        4    16  33    7.0629   487.6    6.811      48.240
2015    3        4    16  38    7.0667   487.9    6.810      48.317
2015    3        4    16  44    7.0703   488.1    6.809      48.392
2015    3        4    16  49    7.0739   488.4    6.807      48.466
2015    3        4    16  55    7.0773   488.6    6.805      48.538
2015    3        4    17   0    7.0809   488.9    6.803      48.609
2015    3        4    17   5    7.0843   489.1    6.800      48.678
2015    3        4    17  11    7.0877   489.4    6.798      48.745
2015    3        4    17  16    7.0910   489.6    6.794      48.811
2015    3        4    17  21    7.0942   489.9    6.791      48.876
2015    3        4    17  27    7.0975   490.1    6.787      48.939
2015    3        4    17  32    7.1006   490.4    6.783      49.000
2015    3        4    17  38    7.1038   490.7    6.779      49.061
2015    3        4    17  43    7.1068   490.9    6.774      49.120
2015    3        4    17  48    7.1099   491.2    6.769      49.178
2015    3        4    17  54    7.1129   491.4    6.764      49.235
2015    3        4    17  59    7.1159   491.7    6.759      49.291
2015    3        4    18   4    7.1189   492.0    6.754      49.346
2015    3        4    18  10    7.1218   492.2    6.748      49.400
2015    3        4    18  15    7.1246   492.5    6.743      49.453
2015    3        4    18  21    7.1275   492.8    6.737      49.505
2015    3        4    18  26    7.1303   493.0    6.731      49.556
2015    3        4    18  31    7.1331   493.3    6.725      49.607
2015    3        4    18  37    7.1359   493.6    6.719      49.657
2015    3        4    18  42    7.1386   493.8    6.713      49.706
2015    3        4    18  48    7.1413   494.1    6.707      49.755
2015    3        4    18  53    7.1440   494.4    6.701      49.803
2015    3        4    18  58    7.1467   494.6    6.695      49.851
2015    3        4    19   4    7.1493   494.9    6.689      49.898
2015    3        4    19   9    7.1520   495.2    6.683      49.945
2015    3        4    19  14    7.1546   495.4    6.676      49.992
2015    3        4    19  20    7.1573   495.7    6.670      50.039
2015    3        4    19  25    7.1599   496.0    6.664      50.086
2015    3        4    19  31    7.1625   496.2    6.658      50.132
2015    3        4    19  36    7.1651   496.5    6.652      50.179
2015    3        4    19  41    7.1678   496.8    6.646      50.226
2015    3        4    19  47    7.1704   497.0    6.641      50.273
2015    3        4    19  52    7.1731   497.3    6.635      50.320
2015    3        4    19  57    7.1757   497.6    6.629      50.367
2015    3        4    20   3    7.1782   497.8    6.624      50.415
2015    3        4    20   8    7.1810   498.1    6.618      50.464
2015    3        4    20  14    7.1836   498.4    6.613      50.512
2015    3        4    20  19    7.1861   498.7    6.608      50.562
2015    3        4    20  24    7.1889   498.9    6.603      50.612
2015    3        4    20  30    7.1915   499.2    6.598      50.663
2015    3        4    20  35    7.1941   499.5    6.593      50.714
2015    3        4    20  40    7.1967   499.8    6.588      50.766
2015    3        4    20  46    7.1993   500.1    6.584      50.818
2015    3        4    20  51    7.2018   500.3    6.579      50.871
2015    3        4    20  57    7.2044   500.6    6.575      50.924
2015    3        4    21   2    7.2070   500.9    6.570      50.978
2015    3        4    21   7    7.2096   501.2    6.566      51.032
2015    3        4    21  13    7.2120   501.5    6.562      51.089
2015    3        4    21  18    7.2147   501.8    6.558      51.146
2015    3        4    21  23    7.2173   502.1    6.554      51.204
2015    3        4    21  29    7.2199   502.4    6.550      51.263
2015    3        4    21  34    7.2222   502.7    6.546      51.323
2015    3        4    21  40    7.2250   503.0    6.543      51.384
2015    3        4    21  45    7.2273   503.3    6.539      51.446
2015    3        4    21  50    7.2300   503.6    6.535      51.510
2015    3        4    21  56    7.2325   503.9    6.532      51.575
2015    3        4    22   1    7.2347   504.2    6.528      51.642
2015    3        4    22   7    7.2373   504.5    6.524      51.710
2015    3        4    22  12    7.2396   504.8    6.520      51.779
2015    3        4    22  17    7.2419   505.1    6.516      51.848
2015    3        4    22  23    7.2441   505.5    6.512      51.917
2015    3        4    22  28    7.2463   505.8    6.507      51.986
2015    3        4    22  33    7.2484   506.1    6.503      52.056
2015    3        4    22  39    7.2504   506.4    6.498      52.125
2015    3        4    22  44    7.2523   506.7    6.493      52.194
2015    3        4    22  50    7.2542   507.1    6.487      52.263
2015    3        4    22  55    7.2560   507.4    6.482      52.332
2015    3        4    23   0    7.2578   507.7    6.476      52.399
2015    3        4    23   6    7.2595   508.0    6.470      52.466
2015    3        4    23  11    7.2611   508.4    6.464      52.532
2015    3        4    23  16    7.2627   508.7    6.458      52.596
2015    3        4    23  22    7.2642   509.0    6.451      52.661
2015    3        4    23  27    7.2656   509.3    6.445      52.724
2015    3        4    23  33    7.2670   509.7    6.438      52.787
2015    3        4    23  38    7.2682   510.0    6.431      52.848
2015    3        4    23  43    7.2697   510.3    6.424      52.910
2015    3        4    23  49    7.2710   510.6    6.417      52.970
2015    3        4    23  54    7.2720   511.0    6.409      53.030
2015    3        4    23  59    7.2734   511.3    6.402      53.089
2015    3        5     0   5    7.2745   511.6    6.394      53.147
2015    3        5     0  10    7.2756   512.0    6.387      53.205
2015    3        5     0  16    7.2767   512.3    6.379      53.262
2015    3        5     0  21    7.2777   512.6    6.371      53.319
2015    3        5     0  26    7.2786   513.0    6.363      53.375
2015    3        5     0  32    7.2796   513.3    6.355      53.430
2015    3        5     0  37    7.2804   513.6    6.347      53.485
2015    3        5     0  42    7.2813   514.0    6.339      53.539
2015    3        5     0  48    7.2821   514.3    6.331      53.593
2015    3        5     0  53    7.2829   514.6    6.323      53.646
2015    3        5     0  59    7.2836   514.9    6.315      53.699
2015    3        5     1   4    7.2844   515.3    6.306      53.751
2015    3        5     1   9    7.2851   515.6    6.298      53.803
2015    3        5     1  15    7.2857   515.9    6.290      53.855
2015    3        5     1  20    7.2864   516.3    6.282      53.906
2015    3        5     1  25    7.2870   516.6    6.273      53.957
2015    3        5     1  31    7.2876   516.9    6.265      54.008
2015    3        5     1  36    7.2879   517.3    6.257      54.058
2015    3        5     1  42    7.2886   517.6    6.249      54.108
2015    3        5     1  47    7.2891   517.9    6.240      54.159
2015    3        5     1  52    7.2896   518.3    6.232      54.209
2015    3        5     1  58    7.2900   518.6    6.224      54.259
2015    3        5     2   3    7.2904   518.9    6.215      54.309
2015    3        5     2   9    7.2907   519.2    6.207      54.359
2015    3        5     2  14    7.2911   519.6    6.199      54.409
2015    3        5     2  19    7.2913   519.9    6.190      54.460
2015    3        5     2  25    7.2916   520.2    6.182      54.511
2015    3        5     2  30    7.2918   520.6    6.174      54.562
2015    3        5     2  35    7.2920   520.9    6.165      54.613
2015    3        5     2  41    7.2922   521.2    6.157      54.665
2015    3        5     2  46    7.2923   521.5    6.149      54.717
2015    3        5     2  52    7.2924   521.9    6.140      54.770
2015    3        5     2  57    7.2925   522.2    6.132      54.823
2015    3        5     3   2    7.2926   522.5    6.124      54.876
2015    3        5     3   8    7.2926   522.9    6.115      54.929
2015    3        5     3  13    7.2925   523.2    6.107      54.983
2015    3        5     3  18    7.2925   523.5    6.099      55.037
2015    3        5     3  24    7.2924   523.8    6.090      55.091
2015    3        5     3  29    7.2923   524.2    6.082      55.146
2015    3        5     3  35    7.2921   524.5    6.073      55.200
2015    3        5     3  40    7.2919   524.8    6.065      55.254
2015    3        5     3  45    7.2917   525.2    6.056      55.309
2015    3        5     3  51    7.2915   525.5    6.048      55.363
2015    3        5     3  56    7.2912   525.8    6.039      55.417
2015    3        5     4   1    7.2908   526.2    6.030      55.471
2015    3        5     4   7    7.2905   526.5    6.022      55.525
2015    3        5     4  12    7.2900   526.8    6.013      55.579
2015    3        5     4  18    7.2896   527.2    6.005      55.632
2015    3        5     4  23    7.2891   527.5    5.996      55.685
2015    3        5     4  28    7.2886   527.8    5.987      55.737
2015    3        5     4  34    7.2877   528.2    5.978      55.790
2015    3        5     4  39    7.2874   528.5    5.970      55.842
2015    3        5     4  45    7.2868   528.8    5.961      55.894
2015    3        5     4  50    7.2861   529.2    5.952      55.946
2015    3        5     4  55    7.2854   529.5    5.943      55.997
2015    3        5     5   1    7.2846   529.8    5.935      56.048
2015    3        5     5   6    7.2838   530.2    5.926      56.099
2015    3        5     5  11    7.2830   530.5    5.917      56.150
2015    3        5     5  17    7.2821   530.8    5.908      56.200
2015    3        5     5  22    7.2813   531.2    5.900      56.251
2015    3        5     5  28    7.2803   531.5    5.891      56.301
2015    3        5     5  33    7.2794   531.8    5.882      56.351
2015    3        5     5  38    7.2783   532.1    5.873      56.401
2015    3        5     5  44    7.2773   532.5    5.864      56.450
2015    3        5     5  49    7.2762   532.8    5.856      56.499
2015    3        5     5  54    7.2752   533.1    5.847      56.548
2015    3        5     6   0    7.2740   533.5    5.838      56.597
2015    3        5     6   5    7.2728   533.8    5.829      56.646
2015    3        5     6  11    7.2716   534.1    5.820      56.694
2015    3        5     6  16    7.2703   534.5    5.811      56.742
2015    3        5     6  21    7.2690   534.8    5.803      56.790
2015    3        5     6  27    7.2676   535.1    5.794      56.838
2015    3        5     6  32    7.2662   535.5    5.785      56.885
2015    3        5     6  37    7.2644   535.8    5.776      56.932
2015    3        5     6  43    7.2633   536.1    5.767      56.979
2015    3        5     6  48    7.2617   536.5    5.758      57.025
2015    3        5     6  54    7.2597   536.8    5.750      57.071
2015    3        5     6  59    7.2585   537.1    5.741      57.117
2015    3        5     7   4    7.2568   537.4    5.732      57.161
2015    3        5     7  10    7.2551   537.8    5.723      57.206
2015    3        5     7  15    7.2533   538.1    5.715      57.251
2015    3        5     7  20    7.2515   538.4    5.706      57.295
2015    3        5     7  26    7.2496   538.7    5.697      57.339
2015    3        5     7  31    7.2478   539.1    5.688      57.382
2015    3        5     7  37    7.2459   539.4    5.680      57.425
2015    3        5     7  42    7.2439   539.7    5.671      57.468
2015    3        5     7  47    7.2419   540.0    5.663      57.511
2015    3        5     7  53    7.2396   540.4    5.654      57.554
2015    3        5     7  58    7.2379   540.7    5.645      57.596
2015    3        5     8   3    7.2358   541.0    5.637      57.638
2015    3        5     8   9    7.2337   541.3    5.628      57.680
2015    3        5     8  14    7.2316   541.6    5.620      57.721
2015    3        5     8  20    7.2295   542.0    5.611      57.763
2015    3        5     8  25    7.2273   542.3    5.602      57.804
2015    3        5     8  30    7.2252   542.6    5.594      57.844
2015    3        5     8  36    7.2230   542.9    5.585      57.885
2015    3        5     8  41    7.2207   543.2    5.576      57.925
2015    3        5     8  47    7.2181   543.6    5.567      57.964
2015    3        5     8  52    7.2162   543.9    5.559      58.002
2015    3        5     8  57    7.2139   544.2    5.550      58.041
2015    3        5     9   3    7.2116   544.5    5.541      58.078
2015    3        5     9   8    7.2092   544.8    5.532      58.115
2015    3        5     9  13    7.2069   545.1    5.523      58.151
2015    3        5     9  19    7.2042   545.4    5.515      58.187
2015    3        5     9  24    7.2021   545.7    5.506      58.223
2015    3        5     9  30    7.1997   546.0    5.497      58.258
2015    3        5     9  35    7.1973   546.3    5.489      58.293
2015    3        5     9  40    7.1948   546.6    5.480      58.328
2015    3        5     9  46    7.1924   546.9    5.472      58.363
2015    3        5     9  51    7.1900   547.2    5.463      58.398
2015    3        5     9  56    7.1875   547.5    5.455      58.435
2015    3        5    10   2    7.1850   547.8    5.447      58.472
2015    3        5    10   7    7.1826   548.1    5.438      58.510
2015    3        5    10  13    7.1801   548.4    5.430      58.548
2015    3        5    10  18    7.1776   548.7    5.422      58.586
2015    3        5    10  23    7.1751   549.0    5.414      58.625
2015    3        5    10  29    7.1726   549.3    5.407      58.664
2015    3        5    10  34    7.1697   549.6    5.399      58.703
2015    3        5    10  39    7.1672   550.0    5.391      58.742
2015    3        5    10  45    7.1649   550.3    5.383      58.781
2015    3        5    10  50    7.1620   550.6    5.375      58.821
2015    3        5    10  56    7.1596   550.9    5.367      58.860
2015    3        5    11   1    7.1569   551.2    5.360      58.898
2015    3        5    11   6    7.1541   551.5    5.352      58.936
2015    3        5    11  12    7.1511   551.8    5.344      58.974
2015    3        5    11  17    7.1485   552.1    5.337      59.011
2015    3        5    11  22    7.1457   552.4    5.329      59.049
2015    3        5    11  28    7.1428   552.7    5.322      59.086
2015    3        5    11  33    7.1399   553.0    5.314      59.123
2015    3        5    11  39    7.1370   553.3    5.307      59.159
2015    3        5    11  44    7.1341   553.6    5.299      59.196
2015    3        5    11  49    7.1311   553.9    5.292      59.233
2015    3        5    11  55    7.1281   554.2    5.285      59.270
2015    3        5    12   0    7.1252   554.5    5.277      59.307
2015    3        5    12   6    7.1222   554.8    5.270      59.343
2015    3        5    12  11    7.1193   555.1    5.263      59.380
2015    3        5    12  16    7.1163   555.4    5.256      59.416
2015    3        5    12  22    7.1133   555.7    5.249      59.452
2015    3        5    12  27    7.1104   556.0    5.242      59.489
2015    3        5    12  32    7.1075   556.3    5.235      59.525
2015    3        5    12  38    7.1045   556.5    5.228      59.561
2015    3        5    12  43    7.1016   556.8    5.221      59.597
2015    3        5    12  49    7.0987   557.1    5.214      59.633
2015    3        5    12  54    7.0957   557.4    5.207      59.669
2015    3        5    12  59    7.0929   557.7    5.200      59.704
2015    3        5    13   5    7.0900   557.9    5.193      59.740
2015    3        5    13  10    7.0871   558.2    5.186      59.776
2015    3        5    13  15    7.0842   558.5    5.180      59.812
2015    3        5    13  21    7.0814   558.7    5.173      59.847
2015    3        5    13  26    7.0786   559.0    5.166      59.883
2015    3        5    13  32    7.0758   559.3    5.160      59.919
2015    3        5    13  37    7.0730   559.5    5.153      59.955
2015    3        5    13  42    7.0702   559.8    5.146      59.991
2015    3        5    13  48    7.0675   560.1    5.140      60.027
2015    3        5    13  53    7.0647   560.3    5.133      60.062
2015    3        5    13  58    7.0621   560.6    5.127      60.098
2015    3        5    14   4    7.0593   560.9    5.120      60.133
2015    3        5    14   9    7.0567   561.1    5.114      60.169
2015    3        5    14  15    7.0541   561.4    5.107      60.204
2015    3        5    14  20    7.0515   561.6    5.101      60.239
2015    3        5    14  25    7.0489   561.9    5.094      60.274
2015    3        5    14  31    7.0463   562.1    5.088      60.309
2015    3        5    14  36    7.0438   562.4    5.081      60.343
2015    3        5    14  41    7.0412   562.7    5.075      60.377
2015    3        5    14  47    7.0387   562.9    5.068      60.411
2015    3        5    14  52    7.0362   563.2    5.062      60.445
2015    3        5    14  58    7.0337   563.4    5.055      60.478
2015    3        5    15   3    7.0312   563.7    5.049      60.511
2015    3        5    15   8    7.0287   563.9    5.042      60.545
2015    3        5    15  14    7.0262   564.2    5.036      60.577
2015    3        5    15  19    7.0237   564.5    5.030      60.610
2015    3        5    15  24    7.0212   564.7    5.023      60.642
2015    3        5    15  30    7.0188   565.0    5.017      60.675
2015    3        5    15  35    7.0163   565.2    5.010      60.707
2015    3        5    15  41    7.0138   565.5    5.004      60.739
2015    3        5    15  46    7.0113   565.7    4.998      60.771
2015    3        5    15  51    7.0088   566.0    4.991      60.803
2015    3        5    15  57    7.0064   566.2    4.985      60.835
2015    3        5    16   2    7.0039   566.5    4.979      60.867
2015    3        5    16   8    7.0014   566.8    4.973      60.899
2015    3        5    16  13    6.9989   567.0    4.967      60.931
2015    3        5    16  18    6.9964   567.3    4.961      60.964
2015    3        5    16  24    6.9939   567.5    4.955      60.997
2015    3        5    16  29    6.9914   567.8    4.949      61.030
2015    3        5    16  34    6.9889   568.0    4.943      61.064
2015    3        5    16  40    6.9864   568.3    4.937      61.098
2015    3        5    16  45    6.9840   568.5    4.932      61.132
2015    3        5    16  51    6.9815   568.8    4.926      61.167
2015    3        5    16  56    6.9790   569.1    4.920      61.202
2015    3        5    17   1    6.9765   569.3    4.915      61.238
2015    3        5    17   7    6.9740   569.6    4.910      61.275
2015    3        5    17  12    6.9715   569.8    4.904      61.313
2015    3        5    17  17    6.9691   570.1    4.899      61.351
2015    3        5    17  23    6.9666   570.4    4.893      61.389
2015    3        5    17  28    6.9641   570.6    4.888      61.428
2015    3        5    17  34    6.9616   570.9    4.883      61.466
2015    3        5    17  39    6.9590   571.2    4.877      61.505
2015    3        5    17  44    6.9565   571.4    4.872      61.544
2015    3        5    17  50    6.9539   571.7    4.867      61.582
2015    3        5    17  55    6.9514   571.9    4.861      61.620
2015    3        5    18   0    6.9488   572.2    4.856      61.658
2015    3        5    18   6    6.9462   572.5    4.850      61.696
2015    3        5    18  11    6.9436   572.7    4.845      61.733
2015    3        5    18  17    6.9409   573.0    4.839      61.769
2015    3        5    18  22    6.9383   573.2    4.834      61.805
2015    3        5    18  27    6.9356   573.5    4.828      61.840
2015    3        5    18  33    6.9329   573.8    4.822      61.875
2015    3        5    18  38    6.9302   574.0    4.817      61.909
2015    3        5    18  44    6.9276   574.3    4.811      61.943
2015    3        5    18  49    6.9249   574.5    4.805      61.976
2015    3        5    18  54    6.9222   574.8    4.800      62.009
2015    3        5    19   0    6.9194   575.0    4.794      62.041
2015    3        5    19   5    6.9167   575.3    4.788      62.072
2015    3        5    19  10    6.9140   575.5    4.783      62.104
2015    3        5    19  16    6.9112   575.8    4.777      62.135
2015    3        5    19  21    6.9085   576.0    4.771      62.165
2015    3        5    19  27    6.9057   576.3    4.765      62.195
2015    3        5    19  32    6.9030   576.5    4.760      62.225
2015    3        5    19  37    6.9002   576.8    4.754      62.254
2015    3        5    19  43    6.8975   577.0    4.748      62.283
2015    3        5    19  48    6.8947   577.3    4.742      62.312
2015    3        5    19  53    6.8919   577.5    4.736      62.340
2015    3        5    19  59    6.8892   577.8    4.730      62.368
2015    3        5    20   4    6.8864   578.0    4.724      62.396
2015    3        5    20  10    6.8837   578.3    4.719      62.424
2015    3        5    20  15    6.8809   578.5    4.713      62.451
2015    3        5    20  20    6.8781   578.7    4.707      62.478
2015    3        5    20  26    6.8754   579.0    4.701      62.504
2015    3        5    20  31    6.8726   579.2    4.695      62.530
2015    3        5    20  36    6.8699   579.5    4.689      62.556
2015    3        5    20  42    6.8672   579.7    4.683      62.582
2015    3        5    20  47    6.8644   579.9    4.677      62.607
2015    3        5    20  53    6.8617   580.2    4.671      62.632
2015    3        5    20  58    6.8590   580.4    4.665      62.657
2015    3        5    21   3    6.8563   580.6    4.660      62.682
2015    3        5    21   9    6.8537   580.9    4.654      62.707
2015    3        5    21  14    6.8510   581.1    4.648      62.731
2015    3        5    21  19    6.8483   581.4    4.642      62.756
2015    3        5    21  25    6.8457   581.6    4.637      62.780
2015    3        5    21  30    6.8430   581.8    4.631      62.805
2015    3        5    21  36    6.8404   582.1    4.626      62.829
2015    3        5    21  41    6.8378   582.3    4.620      62.854
2015    3        5    21  46    6.8352   582.5    4.615      62.879
2015    3        5    21  52    6.8326   582.8    4.610      62.905
2015    3        5    21  57    6.8300   583.0    4.604      62.931
2015    3        5    22   2    6.8274   583.2    4.599      62.958
2015    3        5    22   8    6.8248   583.5    4.594      62.985
2015    3        5    22  13    6.8222   583.7    4.588      63.012
2015    3        5    22  19    6.8196   583.9    4.583      63.040
2015    3        5    22  24    6.8170   584.2    4.578      63.067
2015    3        5    22  29    6.8144   584.4    4.573      63.095
2015    3        5    22  35    6.8117   584.6    4.567      63.122
2015    3        5    22  40    6.8091   584.9    4.562      63.150
2015    3        5    22  46    6.8064   585.1    4.557      63.178
2015    3        5    22  51    6.8038   585.3    4.552      63.206
2015    3        5    22  56    6.8011   585.6    4.547      63.233
2015    3        5    23   2    6.7985   585.8    4.542      63.260
2015    3        5    23   7    6.7958   586.0    4.537      63.288
2015    3        5    23  12    6.7932   586.2    4.532      63.315
2015    3        5    23  18    6.7905   586.5    4.527      63.343
2015    3        5    23  23    6.7879   586.7    4.522      63.372
2015    3        5    23  29    6.7852   586.9    4.517      63.400
2015    3        5    23  34    6.7826   587.1    4.512      63.429
2015    3        5    23  39    6.7800   587.4    4.508      63.458
2015    3        5    23  45    6.7774   587.6    4.503      63.487
2015    3        5    23  50    6.7748   587.8    4.498      63.517
2015    3        5    23  55    6.7722   588.0    4.494      63.546
2015    3        6     0   1    6.7696   588.3    4.489      63.575
2015    3        6     0   6    6.7669   588.5    4.485      63.606
2015    3        6     0  12    6.7644   588.7    4.480      63.636
2015    3        6     0  17    6.7618   588.9    4.475      63.666
2015    3        6     0  22    6.7591   589.1    4.471      63.697
2015    3        6     0  28    6.7565   589.4    4.466      63.727
2015    3        6     0  33    6.7539   589.6    4.462      63.758
2015    3        6     0  38    6.7513   589.8    4.457      63.788
2015    3        6     0  44    6.7486   590.0    4.453      63.818
2015    3        6     0  49    6.7460   590.3    4.448      63.847
2015    3        6     0  55    6.7433   590.5    4.443      63.876
2015    3        6     1   0    6.7406   590.7    4.439      63.905
2015    3        6     1   5    6.7379   590.9    4.434      63.933
2015    3        6     1  11    6.7352   591.2    4.429      63.961
2015    3        6     1  16    6.7324   591.4    4.424      63.988
2015    3        6     1  21    6.7297   591.6    4.419      64.014
2015    3        6     1  27    6.7269   591.8    4.414      64.040
2015    3        6     1  32    6.7241   592.1    4.409      64.065
2015    3        6     1  38    6.7213   592.3    4.404      64.090
2015    3        6     1  43    6.7185   592.5    4.399      64.114
2015    3        6     1  48    6.7156   592.7    4.393      64.138
2015    3        6     1  54    6.7128   592.9    4.388      64.161
2015    3        6     1  59    6.7100   593.1    4.383      64.184
2015    3        6     2   5    6.7071   593.4    4.378      64.207
2015    3        6     2  10    6.7043   593.6    4.373      64.230
2015    3        6     2  15    6.7014   593.8    4.368      64.252
2015    3        6     2  21    6.6986   594.0    4.362      64.274
2015    3        6     2  26    6.6957   594.2    4.357      64.295
2015    3        6     2  31    6.6929   594.4    4.352      64.317
2015    3        6     2  37    6.6901   594.6    4.347      64.338
2015    3        6     2  42    6.6872   594.8    4.342      64.359
2015    3        6     2  48    6.6844   595.1    4.337      64.380
2015    3        6     2  53    6.6815   595.3    4.332      64.401
2015    3        6     2  58    6.6787   595.5    4.327      64.422
2015    3        6     3   4    6.6758   595.7    4.322      64.443
2015    3        6     3   9    6.6730   595.9    4.317      64.463
2015    3        6     3  14    6.6702   596.1    4.312      64.484
2015    3        6     3  20    6.6674   596.3    4.307      64.504
2015    3        6     3  25    6.6646   596.5    4.302      64.524
2015    3        6     3  31    6.6618   596.7    4.297      64.545
2015    3        6     3  36    6.6590   596.9    4.293      64.566
2015    3        6     3  41    6.6562   597.1    4.288      64.586
2015    3        6     3  47    6.6534   597.3    4.283      64.607
2015    3        6     3  52    6.6507   597.5    4.279      64.627
2015    3        6     3  57    6.6479   597.7    4.274      64.648
2015    3        6     4   3    6.6452   598.0    4.270      64.669
2015    3        6     4   8    6.6424   598.2    4.265      64.689
2015    3        6     4  14    6.6397   598.4    4.261      64.710
2015    3        6     4  19    6.6370   598.6    4.256      64.730
2015    3        6     4  24    6.6343   598.8    4.252      64.751
2015    3        6     4  30    6.6316   599.0    4.247      64.772
2015    3        6     4  35    6.6289   599.2    4.243      64.792
2015    3        6     4  40    6.6262   599.4    4.239      64.813
2015    3        6     4  46    6.6235   599.6    4.235      64.833
2015    3        6     4  51    6.6209   599.8    4.231      64.854
2015    3        6     4  57    6.6182   600.0    4.227      64.875
2015    3        6     5   2    6.6156   600.2    4.223      64.897
2015    3        6     5   7    6.6129   600.4    4.219      64.920
2015    3        6     5  13    6.6102   600.6    4.215      64.944
2015    3        6     5  18    6.6076   600.8    4.211      64.968
2015    3        6     5  23    6.6049   601.0    4.207      64.992
2015    3        6     5  29    6.6023   601.2    4.203      65.016
2015    3        6     5  34    6.5996   601.4    4.199      65.041
2015    3        6     5  40    6.5969   601.6    4.195      65.066
2015    3        6     5  45    6.5942   601.8    4.190      65.090
2015    3        6     5  50    6.5915   602.0    4.186      65.114
2015    3        6     5  56    6.5888   602.2    4.182      65.139
2015    3        6     6   1    6.5861   602.4    4.178      65.163
2015    3        6     6   6    6.5833   602.6    4.174      65.186
2015    3        6     6  12    6.5805   602.8    4.170      65.210
2015    3        6     6  17    6.5778   603.0    4.166      65.233
2015    3        6     6  23    6.5750   603.2    4.161      65.255
2015    3        6     6  28    6.5723   603.4    4.157      65.278
2015    3        6     6  33    6.5695   603.6    4.153      65.300
2015    3        6     6  39    6.5667   603.8    4.149      65.322
2015    3        6     6  44    6.5639   604.0    4.144      65.344
2015    3        6     6  50    6.5611   604.2    4.140      65.365
2015    3        6     6  55    6.5583   604.4    4.136      65.386
2015    3        6     7   0    6.5555   604.6    4.131      65.407
2015    3        6     7   6    6.5527   604.8    4.127      65.428
2015    3        6     7  11    6.5499   605.0    4.123      65.448
2015    3        6     7  16    6.5470   605.2    4.118      65.468
2015    3        6     7  22    6.5442   605.4    4.114      65.487
2015    3        6     7  27    6.5414   605.6    4.110      65.506
2015    3        6     7  33    6.5385   605.8    4.105      65.525
2015    3        6     7  38    6.5357   605.9    4.101      65.543
2015    3        6     7  43    6.5328   606.1    4.096      65.561
2015    3        6     7  49    6.5300   606.3    4.092      65.579
2015    3        6     7  54    6.5271   606.5    4.087      65.596
2015    3        6     7  59    6.5243   606.7    4.083      65.613
2015    3        6     8   5    6.5214   606.9    4.078      65.631
2015    3        6     8  10    6.5186   607.1    4.074      65.648
2015    3        6     8  16    6.5157   607.3    4.070      65.665
2015    3        6     8  21    6.5128   607.4    4.065      65.682
2015    3        6     8  26    6.5100   607.6    4.061      65.699
2015    3        6     8  32    6.5071   607.8    4.056      65.716
2015    3        6     8  37    6.5042   608.0    4.052      65.732
2015    3        6     8  42    6.5013   608.2    4.048      65.749
2015    3        6     8  48    6.4985   608.4    4.043      65.765
2015    3        6     8  53    6.4956   608.5    4.039      65.781
2015    3        6     8  59    6.4927   608.7    4.034      65.797
2015    3        6     9   4    6.4898   608.9    4.030      65.813
2015    3        6     9   9    6.4869   609.1    4.025      65.828
2015    3        6     9  15    6.4840   609.3    4.021      65.843
2015    3        6     9  20    6.4811   609.5    4.017      65.858
2015    3        6     9  26    6.4782   609.6    4.012      65.873
2015    3        6     9  31    6.4752   609.8    4.008      65.888
2015    3        6     9  36    6.4723   610.0    4.004      65.902
2015    3        6     9  42    6.4694   610.2    3.999      65.916
2015    3        6     9  47    6.4665   610.3    3.995      65.930
2015    3        6     9  52    6.4636   610.5    3.991      65.944
2015    3        6     9  58    6.4607   610.7    3.987      65.958
2015    3        6    10   3    6.4578   610.9    3.983      65.972
2015    3        6    10   9    6.4549   611.0    3.978      65.986
2015    3        6    10  14    6.4520   611.2    3.974      66.000
2015    3        6    10  19    6.4491   611.4    3.970      66.014
2015    3        6    10  25    6.4462   611.6    3.966      66.028
2015    3        6    10  30    6.4433   611.7    3.962      66.043
2015    3        6    10  35    6.4404   611.9    3.958      66.057
2015    3        6    10  41    6.4375   612.1    3.955      66.072
2015    3        6    10  46    6.4347   612.2    3.951      66.088
2015    3        6    10  52    6.4318   612.4    3.947      66.103
2015    3        6    10  57    6.4289   612.6    3.943      66.119
2015    3        6    11   2    6.4261   612.8    3.939      66.135
2015    3        6    11   8    6.4232   612.9    3.936      66.151
2015    3        6    11  13    6.4204   613.1    3.932      66.167
2015    3        6    11  18    6.4176   613.3    3.928      66.183
2015    3        6    11  24    6.4147   613.5    3.925      66.199
2015    3        6    11  29    6.4119   613.6    3.921      66.216
2015    3        6    11  35    6.4091   613.8    3.917      66.232
2015    3        6    11  40    6.4062   614.0    3.914      66.248
2015    3        6    11  45    6.4034   614.1    3.910      66.264
2015    3        6    11  51    6.4006   614.3    3.906      66.280
2015    3        6    11  56    6.3978   614.5    3.903      66.296
2015    3        6    12   1    6.3950   614.6    3.899      66.311
2015    3        6    12   7    6.3922   614.8    3.896      66.327
2015    3        6    12  12    6.3894   615.0    3.892      66.343
2015    3        6    12  18    6.3866   615.1    3.889      66.359
2015    3        6    12  23    6.3839   615.3    3.885      66.375
2015    3        6    12  28    6.3811   615.5    3.882      66.391
2015    3        6    12  34    6.3784   615.6    3.878      66.407
2015    3        6    12  39    6.3756   615.8    3.875      66.423
2015    3        6    12  44    6.3729   616.0    3.871      66.438
2015    3        6    12  50    6.3701   616.1    3.868      66.454
2015    3        6    12  55    6.3674   616.3    3.865      66.469
2015    3        6    13   1    6.3647   616.5    3.861      66.485
2015    3        6    13   6    6.3619   616.6    3.858      66.501
2015    3        6    13  11    6.3591   616.8    3.855      66.517
2015    3        6    13  17    6.3563   617.0    3.851      66.532
2015    3        6    13  22    6.3536   617.1    3.848      66.548
2015    3        6    13  27    6.3507   617.3    3.844      66.563
2015    3        6    13  33    6.3479   617.5    3.841      66.579
2015    3        6    13  38    6.3451   617.6    3.837      66.593
2015    3        6    13  44    6.3423   617.8    3.834      66.608
2015    3        6    13  49    6.3394   618.0    3.830      66.622
2015    3        6    13  54    6.3365   618.1    3.827      66.636
2015    3        6    14   0    6.3337   618.3    3.823      66.650
2015    3        6    14   5    6.3308   618.4    3.820      66.663
2015    3        6    14  11    6.3280   618.6    3.816      66.676
2015    3        6    14  16    6.3251   618.7    3.813      66.689
2015    3        6    14  21    6.3222   618.9    3.809      66.701
2015    3        6    14  27    6.3193   619.1    3.806      66.713
2015    3        6    14  32    6.3164   619.2    3.802      66.724
2015    3        6    14  37    6.3135   619.4    3.798      66.736
2015    3        6    14  43    6.3106   619.5    3.795      66.747
2015    3        6    14  48    6.3077   619.7    3.791      66.759
2015    3        6    14  54    6.3048   619.8    3.788      66.770
2015    3        6    14  59    6.3019   620.0    3.784      66.781
2015    3        6    15   4    6.2990   620.1    3.781      66.791
2015    3        6    15  10    6.2961   620.3    3.777      66.802
2015    3        6    15  15    6.2932   620.4    3.773      66.812
2015    3        6    15  20    6.2903   620.6    3.770      66.822
2015    3        6    15  26    6.2873   620.7    3.766      66.832
2015    3        6    15  31    6.2844   620.9    3.763      66.841
2015    3        6    15  37    6.2815   621.0    3.759      66.850
2015    3        6    15  42    6.2786   621.2    3.755      66.859
2015    3        6    15  47    6.2757   621.3    3.751      66.867
2015    3        6    15  53    6.2728   621.4    3.748      66.875
2015    3        6    15  58    6.2698   621.6    3.744      66.883
2015    3        6    16   3    6.2669   621.7    3.740      66.890
2015    3        6    16   9    6.2639   621.9    3.736      66.897
2015    3        6    16  14    6.2610   622.0    3.733      66.904
2015    3        6    16  20    6.2580   622.2    3.729      66.910
2015    3        6    16  25    6.2550   622.3    3.725      66.915
2015    3        6    16  30    6.2521   622.5    3.721      66.921
2015    3        6    16  36    6.2491   622.6    3.717      66.925
2015    3        6    16  41    6.2461   622.7    3.713      66.930
2015    3        6    16  47    6.2431   622.9    3.709      66.934
2015    3        6    16  52    6.2401   623.0    3.705      66.938
2015    3        6    16  57    6.2372   623.1    3.701      66.941
2015    3        6    17   3    6.2342   623.3    3.698      66.944
2015    3        6    17   8    6.2312   623.4    3.694      66.947
2015    3        6    17  13    6.2282   623.5    3.690      66.950
2015    3        6    17  19    6.2252   623.7    3.686      66.953
2015    3        6    17  24    6.2222   623.8    3.682      66.955
2015    3        6    17  30    6.2192   623.9    3.678      66.958
2015    3        6    17  35    6.2163   624.1    3.674      66.960
2015    3        6    17  40    6.2133   624.2    3.671      66.963
2015    3        6    17  46    6.2103   624.3    3.667      66.965
2015    3        6    17  51    6.2073   624.5    3.663      66.968
2015    3        6    17  56    6.2044   624.6    3.659      66.971
2015    3        6    18   2    6.2014   624.7    3.656      66.974
2015    3        6    18   7    6.1985   624.8    3.652      66.977
2015    3        6    18  13    6.1955   625.0    3.648      66.981
2015    3        6    18  18    6.1926   625.1    3.645      66.984
2015    3        6    18  23    6.1896   625.2    3.641      66.989
2015    3        6    18  29    6.1867   625.4    3.638      66.993
2015    3        6    18  34    6.1838   625.5    3.634      66.998
2015    3        6    18  39    6.1809   625.6    3.631      67.002
2015    3        6    18  45    6.1780   625.7    3.628      67.008
2015    3        6    18  50    6.1751   625.8    3.625      67.013
2015    3        6    18  56    6.1723   626.0    3.621      67.019
2015    3        6    19   1    6.1694   626.1    3.618      67.026
2015    3        6    19   6    6.1666   626.2    3.615      67.032
2015    3        6    19  12    6.1637   626.3    3.613      67.039
2015    3        6    19  17    6.1609   626.5    3.610      67.047
2015    3        6    19  22    6.1581   626.6    3.607      67.055
2015    3        6    19  28    6.1554   626.7    3.604      67.063
2015    3        6    19  33    6.1526   626.8    3.602      67.071
2015    3        6    19  39    6.1499   626.9    3.599      67.081
2015    3        6    19  44    6.1472   627.0    3.597      67.091
2015    3        6    19  49    6.1445   627.2    3.595      67.102
2015    3        6    19  55    6.1418   627.3    3.592      67.114
2015    3        6    20   0    6.1391   627.4    3.590      67.127
2015    3        6    20   5    6.1364   627.5    3.588      67.140
2015    3        6    20  11    6.1337   627.7    3.586      67.153
2015    3        6    20  16    6.1310   627.8    3.584      67.166
2015    3        6    20  22    6.1283   627.9    3.582      67.180
2015    3        6    20  27    6.1256   628.0    3.580      67.194
2015    3        6    20  32    6.1229   628.2    3.578      67.209
2015    3        6    20  38    6.1201   628.3    3.576      67.224
2015    3        6    20  43    6.1174   628.4    3.573      67.238
2015    3        6    20  48    6.1147   628.5    3.571      67.252
2015    3        6    20  54    6.1119   628.7    3.569      67.266
2015    3        6    20  59    6.1092   628.8    3.567      67.280
2015    3        6    21   5    6.1064   628.9    3.565      67.293
2015    3        6    21  10    6.1036   629.0    3.562      67.306
2015    3        6    21  15    6.1009   629.2    3.560      67.319
2015    3        6    21  21    6.0982   629.3    3.558      67.331
2015    3        6    21  26    6.0953   629.4    3.555      67.343
2015    3        6    21  31    6.0926   629.5    3.553      67.354
2015    3        6    21  37    6.0898   629.6    3.550      67.364
2015    3        6    21  42    6.0870   629.7    3.548      67.373
2015    3        6    21  48    6.0843   629.9    3.545      67.382
2015    3        6    21  53    6.0815   630.0    3.542      67.391
2015    3        6    21  58    6.0787   630.1    3.540      67.398
2015    3        6    22   4    6.0759   630.2    3.537      67.405
2015    3        6    22   9    6.0732   630.3    3.534      67.411
2015    3        6    22  15    6.0704   630.4    3.531      67.416
2015    3        6    22  20    6.0676   630.5    3.528      67.421
2015    3        6    22  25    6.0648   630.7    3.525      67.425
2015    3        6    22  31    6.0621   630.8    3.522      67.428
2015    3        6    22  36    6.0593   630.9    3.519      67.430
2015    3        6    22  41    6.0565   631.0    3.516      67.432
2015    3        6    22  47    6.0537   631.1    3.513      67.432
2015    3        6    22  52    6.0509   631.2    3.510      67.432
2015    3        6    22  58    6.0481   631.3    3.507      67.431
2015    3        6    23   3    6.0454   631.4    3.503      67.429
2015    3        6    23   8    6.0425   631.5    3.500      67.427
2015    3        6    23  14    6.0397   631.6    3.497      67.423
2015    3        6    23  19    6.0369   631.7    3.493      67.419
2015    3        6    23  24    6.0340   631.8    3.490      67.415
2015    3        6    23  30    6.0312   631.9    3.486      67.409
2015    3        6    23  35    6.0284   632.0    3.483      67.404
2015    3        6    23  41    6.0255   632.1    3.479      67.397
2015    3        6    23  46    6.0227   632.2    3.476      67.390
2015    3        6    23  51    6.0198   632.3    3.472      67.383
2015    3        6    23  57    6.0170   632.4    3.469      67.375
2015    3        7     0   2    6.0141   632.5    3.465      67.367
2015    3        7     0   7    6.0113   632.6    3.462      67.359
2015    3        7     0  13    6.0084   632.7    3.458      67.350
2015    3        7     0  18    6.0056   632.8    3.454      67.341
2015    3        7     0  24    6.0027   632.8    3.451      67.332
2015    3        7     0  29    5.9998   632.9    3.447      67.323
2015    3        7     0  34    5.9970   633.0    3.444      67.314
2015    3        7     0  40    5.9941   633.1    3.440      67.305
2015    3        7     0  45    5.9912   633.2    3.437      67.296
2015    3        7     0  51    5.9884   633.3    3.434      67.288
2015    3        7     0  56    5.9855   633.3    3.430      67.279
2015    3        7     1   1    5.9826   633.4    3.427      67.271
2015    3        7     1   7    5.9798   633.5    3.424      67.263
2015    3        7     1  12    5.9770   633.6    3.420      67.256
2015    3        7     1  17    5.9741   633.6    3.417      67.249
2015    3        7     1  23    5.9713   633.7    3.414      67.242
2015    3        7     1  28    5.9685   633.8    3.411      67.236
2015    3        7     1  34    5.9657   633.9    3.408      67.230
2015    3        7     1  39    5.9629   633.9    3.405      67.225
2015    3        7     1  44    5.9601   634.0    3.402      67.220
2015    3        7     1  50    5.9573   634.1    3.400      67.216
2015    3        7     1  55    5.9545   634.2    3.397      67.213
2015    3        7     2   0    5.9518   634.2    3.394      67.210
2015    3        7     2   6    5.9490   634.3    3.392      67.208
2015    3        7     2  11    5.9463   634.4    3.389      67.206
2015    3        7     2  17    5.9436   634.4    3.387      67.206
2015    3        7     2  22    5.9409   634.5    3.385      67.205
2015    3        7     2  27    5.9383   634.6    3.383      67.206
2015    3        7     2  33    5.9356   634.6    3.381      67.207
2015    3        7     2  38    5.9330   634.7    3.379      67.210
2015    3        7     2  43    5.9303   634.8    3.377      67.212
2015    3        7     2  49    5.9278   634.8    3.375      67.216
2015    3        7     2  54    5.9252   634.9    3.374      67.221
2015    3        7     3   0    5.9226   635.0    3.372      67.228
2015    3        7     3   5    5.9200   635.0    3.371      67.235
2015    3        7     3  10    5.9175   635.1    3.370      67.243
2015    3        7     3  16    5.9150   635.2    3.368      67.252
2015    3        7     3  21    5.9124   635.3    3.367      67.262
2015    3        7     3  26    5.9099   635.3    3.366      67.273
2015    3        7     3  32    5.9074   635.4    3.365      67.285
2015    3        7     3  37    5.9049   635.5    3.364      67.297
2015    3        7     3  43    5.9024   635.6    3.362      67.310
2015    3        7     3  48    5.8998   635.6    3.361      67.323
2015    3        7     3  53    5.8974   635.7    3.360      67.335
2015    3        7     3  59    5.8948   635.8    3.359      67.347
2015    3        7     4   4    5.8924   635.9    3.357      67.359
2015    3        7     4   9    5.8898   635.9    3.356      67.370
2015    3        7     4  15    5.8873   636.0    3.355      67.381
2015    3        7     4  20    5.8849   636.1    3.353      67.391
2015    3        7     4  26    5.8823   636.2    3.352      67.401
2015    3        7     4  31    5.8798   636.2    3.350      67.410
2015    3        7     4  36    5.8773   636.3    3.349      67.419
2015    3        7     4  42    5.8749   636.4    3.347      67.426
2015    3        7     4  47    5.8723   636.4    3.345      67.433
2015    3        7     4  52    5.8698   636.5    3.344      67.439
2015    3        7     4  58    5.8674   636.6    3.342      67.444
2015    3        7     5   3    5.8649   636.7    3.340      67.449
2015    3        7     5   9    5.8624   636.7    3.338      67.452
2015    3        7     5  14    5.8599   636.8    3.336      67.455
2015    3        7     5  19    5.8574   636.9    3.334      67.457
2015    3        7     5  25    5.8549   636.9    3.332      67.457
2015    3        7     5  30    5.8525   637.0    3.330      67.457
2015    3        7     5  35    5.8499   637.1    3.328      67.457
2015    3        7     5  41    5.8474   637.1    3.326      67.455
2015    3        7     5  46    5.8449   637.2    3.324      67.452
2015    3        7     5  52    5.8424   637.3    3.321      67.449
2015    3        7     5  57    5.8399   637.3    3.319      67.445
2015    3        7     6   2    5.8374   637.4    3.317      67.440
2015    3        7     6   8    5.8349   637.4    3.314      67.435
2015    3        7     6  13    5.8324   637.5    3.312      67.429
2015    3        7     6  19    5.8299   637.6    3.310      67.422
2015    3        7     6  24    5.8274   637.6    3.307      67.415
2015    3        7     6  29    5.8249   637.7    3.305      67.407
2015    3        7     6  35    5.8224   637.7    3.302      67.399
2015    3        7     6  40    5.8199   637.8    3.300      67.390
2015    3        7     6  45    5.8174   637.9    3.297      67.381
2015    3        7     6  51    5.8148   637.9    3.294      67.371
2015    3        7     6  56    5.8123   638.0    3.292      67.361
2015    3        7     7   2    5.8098   638.0    3.289      67.350
2015    3        7     7   7    5.8073   638.1    3.287      67.340
2015    3        7     7  12    5.8047   638.1    3.284      67.329
2015    3        7     7  18    5.8022   638.2    3.281      67.318
2015    3        7     7  23    5.7997   638.2    3.279      67.306
2015    3        7     7  28    5.7972   638.3    3.276      67.295
2015    3        7     7  34    5.7946   638.3    3.274      67.284
2015    3        7     7  39    5.7921   638.4    3.271      67.272
2015    3        7     7  45    5.7895   638.4    3.268      67.261
2015    3        7     7  50    5.7870   638.4    3.266      67.250
2015    3        7     7  55    5.7845   638.5    3.263      67.239
2015    3        7     8   1    5.7819   638.5    3.261      67.228
2015    3        7     8   6    5.7794   638.6    3.258      67.217
2015    3        7     8  11    5.7768   638.6    3.256      67.206
2015    3        7     8  17    5.7743   638.6    3.253      67.196
2015    3        7     8  22    5.7718   638.7    3.251      67.186
2015    3        7     8  28    5.7693   638.7    3.249      67.176
2015    3        7     8  33    5.7667   638.7    3.246      67.167
2015    3        7     8  38    5.7642   638.8    3.244      67.158
2015    3        7     8  44    5.7617   638.8    3.242      67.149
2015    3        7     8  49    5.7592   638.8    3.239      67.141
2015    3        7     8  54    5.7567   638.9    3.237      67.133
2015    3        7     9   0    5.7542   638.9    3.235      67.126
2015    3        7     9   5    5.7518   638.9    3.233      67.119
2015    3        7     9  11    5.7493   639.0    3.231      67.113
2015    3        7     9  16    5.7468   639.0    3.229      67.107
2015    3        7     9  21    5.7444   639.0    3.227      67.101
2015    3        7     9  27    5.7419   639.0    3.225      67.096
2015    3        7     9  32    5.7396   639.0    3.223      67.091
2015    3        7     9  37    5.7371   639.1    3.222      67.087
2015    3        7     9  43    5.7348   639.1    3.220      67.084
2015    3        7     9  48    5.7323   639.1    3.218      67.080
2015    3        7     9  54    5.7300   639.1    3.217      67.077
2015    3        7     9  59    5.7277   639.2    3.215      67.075
2015    3        7    10   4    5.7253   639.2    3.214      67.073
2015    3        7    10  10    5.7230   639.2    3.213      67.071
2015    3        7    10  15    5.7207   639.2    3.211      67.069
2015    3        7    10  20    5.7184   639.2    3.210      67.068
2015    3        7    10  26    5.7161   639.3    3.209      67.067
2015    3        7    10  31    5.7138   639.3    3.208      67.067
2015    3        7    10  37    5.7116   639.3    3.207      67.067
2015    3        7    10  42    5.7094   639.3    3.206      67.068
2015    3        7    10  47    5.7072   639.3    3.205      67.070
2015    3        7    10  53    5.7050   639.4    3.204      67.072
2015    3        7    10  58    5.7028   639.4    3.203      67.074
2015    3        7    11   3    5.7007   639.4    3.203      67.077
2015    3        7    11   9    5.6985   639.4    3.202      67.079
2015    3        7    11  14    5.6963   639.5    3.201      67.081
2015    3        7    11  20    5.6942   639.5    3.200      67.083
2015    3        7    11  25    5.6921   639.5    3.199      67.085
2015    3        7    11  30    5.6900   639.5    3.198      67.087
2015    3        7    11  36    5.6878   639.6    3.197      67.088
2015    3        7    11  41    5.6856   639.6    3.196      67.089
2015    3        7    11  47    5.6835   639.6    3.195      67.089
2015    3        7    11  52    5.6814   639.6    3.194      67.088
2015    3        7    11  57    5.6792   639.6    3.193      67.087
2015    3        7    12   3    5.6771   639.7    3.192      67.086
2015    3        7    12   8    5.6749   639.7    3.190      67.084
2015    3        7    12  13    5.6728   639.7    3.189      67.082
2015    3        7    12  19    5.6707   639.7    3.188      67.079
2015    3        7    12  24    5.6685   639.8    3.187      67.075
2015    3        7    12  30    5.6664   639.8    3.185      67.071
2015    3        7    12  35    5.6642   639.8    3.184      67.067
2015    3        7    12  40    5.6621   639.8    3.182      67.062
2015    3        7    12  46    5.6599   639.8    3.181      67.056
2015    3        7    12  51    5.6578   639.8    3.180      67.050
2015    3        7    12  56    5.6556   639.9    3.178      67.044
2015    3        7    13   2    5.6535   639.9    3.177      67.037
2015    3        7    13   7    5.6513   639.9    3.175      67.029
2015    3        7    13  13    5.6492   639.9    3.173      67.021
2015    3        7    13  18    5.6470   639.9    3.172      67.013
2015    3        7    13  23    5.6449   639.9    3.170      67.004
2015    3        7    13  29    5.6427   640.0    3.169      66.995
2015    3        7    13  34    5.6406   640.0    3.167      66.986
2015    3        7    13  39    5.6385   640.0    3.165      66.976
2015    3        7    13  45    5.6363   640.0    3.164      66.966
2015    3        7    13  50    5.6341   640.0    3.162      66.956
2015    3        7    13  56    5.6320   640.0    3.160      66.946
2015    3        7    14   1    5.6299   640.0    3.159      66.936
2015    3        7    14   6    5.6277   640.0    3.157      66.926
2015    3        7    14  12    5.6256   640.0    3.156      66.916
2015    3        7    14  17    5.6235   640.0    3.154      66.906
2015    3        7    14  23    5.6214   640.0    3.152      66.896
2015    3        7    14  28    5.6193   640.0    3.151      66.886
2015    3        7    14  33    5.6172   640.1    3.149      66.877
2015    3        7    14  39    5.6151   640.1    3.148      66.868
2015    3        7    14  44    5.6130   640.1    3.147      66.859
2015    3        7    14  49    5.6109   640.1    3.145      66.851
2015    3        7    14  55    5.6089   640.1    3.144      66.844
2015    3        7    15   0    5.6068   640.1    3.143      66.836
2015    3        7    15   6    5.6048   640.1    3.141      66.830
2015    3        7    15  11    5.6027   640.1    3.140      66.823
2015    3        7    15  16    5.6007   640.1    3.139      66.818
2015    3        7    15  22    5.5987   640.1    3.138      66.813
2015    3        7    15  27    5.5967   640.1    3.137      66.808
2015    3        7    15  32    5.5946   640.1    3.136      66.805
2015    3        7    15  38    5.5926   640.1    3.135      66.802
2015    3        7    15  43    5.5906   640.1    3.134      66.799
2015    3        7    15  49    5.5886   640.1    3.133      66.797
2015    3        7    15  54    5.5866   640.1    3.132      66.795
2015    3        7    15  59    5.5846   640.1    3.131      66.793
2015    3        7    16   5    5.5826   640.1    3.130      66.792
2015    3        7    16  10    5.5806   640.1    3.129      66.791
2015    3        7    16  15    5.5787   640.1    3.129      66.790
2015    3        7    16  21    5.5767   640.1    3.128      66.789
2015    3        7    16  26    5.5747   640.1    3.127      66.788
2015    3        7    16  32    5.5727   640.1    3.126      66.788
2015    3        7    16  37    5.5708   640.1    3.125      66.787
2015    3        7    16  42    5.5688   640.1    3.124      66.786
2015    3        7    16  48    5.5668   640.0    3.124      66.785
2015    3        7    16  53    5.5649   640.0    3.123      66.784
2015    3        7    16  58    5.5629   640.0    3.122      66.783
2015    3        7    17   4    5.5610   640.0    3.121      66.781
2015    3        7    17   9    5.5590   640.0    3.120      66.779
2015    3        7    17  15    5.5571   640.0    3.120      66.776
2015    3        7    17  20    5.5552   640.0    3.119      66.773
2015    3        7    17  25    5.5532   640.0    3.118      66.770
2015    3        7    17  31    5.5513   640.0    3.117      66.766
2015    3        7    17  36    5.5494   640.0    3.116      66.762
2015    3        7    17  41    5.5475   640.0    3.115      66.757
2015    3        7    17  47    5.5455   640.0    3.114      66.751
2015    3        7    17  52    5.5437   640.0    3.113      66.745
2015    3        7    17  58    5.5417   639.9    3.112      66.738
2015    3        7    18   3    5.5398   639.9    3.111      66.730
2015    3        7    18   8    5.5379   639.9    3.110      66.722
2015    3        7    18  14    5.5360   639.9    3.109      66.714
2015    3        7    18  19    5.5341   639.9    3.108      66.704
2015    3        7    18  24    5.5323   639.9    3.107      66.695
2015    3        7    18  30    5.5303   639.9    3.106      66.684
2015    3        7    18  35    5.5285   639.8    3.105      66.673
2015    3        7    18  41    5.5266   639.8    3.104      66.662
2015    3        7    18  46    5.5247   639.8    3.103      66.650
2015    3        7    18  51    5.5228   639.8    3.102      66.638
2015    3        7    18  57    5.5210   639.8    3.101      66.626
2015    3        7    19   2    5.5191   639.8    3.100      66.612
2015    3        7    19   7    5.5172   639.7    3.099      66.599
2015    3        7    19  13    5.5154   639.7    3.098      66.586
2015    3        7    19  18    5.5135   639.7    3.097      66.572
2015    3        7    19  24    5.5117   639.7    3.095      66.558
2015    3        7    19  29    5.5098   639.6    3.094      66.544
2015    3        7    19  34    5.5080   639.6    3.093      66.530
2015    3        7    19  40    5.5061   639.6    3.092      66.515
2015    3        7    19  45    5.5043   639.6    3.091      66.501
2015    3        7    19  51    5.5025   639.5    3.090      66.486
2015    3        7    19  56    5.5006   639.5    3.089      66.472
2015    3        7    20   1    5.4988   639.5    3.088      66.458
2015    3        7    20   7    5.4970   639.4    3.087      66.444
2015    3        7    20  12    5.4952   639.4    3.085      66.430
2015    3        7    20  17    5.4933   639.4    3.084      66.416
2015    3        7    20  23    5.4915   639.3    3.083      66.403
2015    3        7    20  28    5.4897   639.3    3.082      66.389
2015    3        7    20  34    5.4879   639.3    3.081      66.376
2015    3        7    20  39    5.4861   639.2    3.080      66.364
2015    3        7    20  44    5.4843   639.2    3.079      66.352
2015    3        7    20  50    5.4825   639.2    3.078      66.340
2015    3        7    20  55    5.4807   639.1    3.077      66.329
2015    3        7    21   0    5.4790   639.1    3.077      66.318
2015    3        7    21   6    5.4772   639.1    3.076      66.308
2015    3        7    21  11    5.4754   639.0    3.075      66.298
2015    3        7    21  17    5.4736   639.0    3.074      66.289
2015    3        7    21  22    5.4719   639.0    3.073      66.281
2015    3        7    21  27    5.4701   638.9    3.073      66.272
2015    3        7    21  33    5.4684   638.9    3.072      66.265
2015    3        7    21  38    5.4666   638.8    3.071      66.258
2015    3        7    21  43    5.4649   638.8    3.071      66.251
2015    3        7    21  49    5.4632   638.8    3.070      66.245
2015    3        7    21  54    5.4615   638.7    3.070      66.239
2015    3        7    22   0    5.4598   638.7    3.069      66.234
2015    3        7    22   5    5.4581   638.7    3.069      66.230
2015    3        7    22  10    5.4565   638.6    3.069      66.225
2015    3        7    22  16    5.4548   638.6    3.068      66.222
2015    3        7    22  21    5.4531   638.5    3.068      66.219
2015    3        7    22  26    5.4515   638.5    3.068      66.216
2015    3        7    22  32    5.4499   638.5    3.068      66.213
2015    3        7    22  37    5.4483   638.4    3.068      66.211
2015    3        7    22  43    5.4467   638.4    3.068      66.210
2015    3        7    22  48    5.4451   638.4    3.068      66.209
2015    3        7    22  53    5.4435   638.3    3.068      66.209
2015    3        7    22  59    5.4419   638.3    3.068      66.209
2015    3        7    23   4    5.4403   638.3    3.068      66.210
2015    3        7    23  10    5.4388   638.2    3.068      66.211
2015    3        7    23  15    5.4372   638.2    3.068      66.212
2015    3        7    23  20    5.4356   638.2    3.069      66.213
2015    3        7    23  26    5.4341   638.1    3.069      66.215
2015    3        7    23  31    5.4325   638.1    3.069      66.216
2015    3        7    23  36    5.4309   638.1    3.069      66.218
2015    3        7    23  42    5.4294   638.0    3.069      66.220
2015    3        7    23  47    5.4278   638.0    3.069      66.221
2015    3        7    23  53    5.4262   638.0    3.069      66.222
2015    3        7    23  58    5.4246   638.0    3.069      66.223
2015    3        8     0   3    5.4230   637.9    3.069      66.224
2015    3        8     0   9    5.4215   637.9    3.069      66.224
2015    3        8     0  14    5.4198   637.9    3.069      66.224
2015    3        8     0  19    5.4182   637.8    3.069      66.223
2015    3        8     0  25    5.4167   637.8    3.069      66.221
2015    3        8     0  30    5.4151   637.8    3.068      66.219
2015    3        8     0  36    5.4135   637.7    3.068      66.216
2015    3        8     0  41    5.4119   637.7    3.068      66.213
2015    3        8     0  46    5.4103   637.7    3.068      66.209
2015    3        8     0  52    5.4087   637.6    3.067      66.204
2015    3        8     0  57    5.4071   637.6    3.067      66.199
2015    3        8     1   2    5.4055   637.6    3.066      66.194
2015    3        8     1   8    5.4039   637.5    3.066      66.188
2015    3        8     1  13    5.4023   637.5    3.066      66.181
2015    3        8     1  19    5.4007   637.5    3.065      66.174
2015    3        8     1  24    5.3991   637.4    3.065      66.167
2015    3        8     1  29    5.3975   637.4    3.064      66.159
2015    3        8     1  35    5.3959   637.4    3.063      66.150
2015    3        8     1  40    5.3943   637.3    3.063      66.141
2015    3        8     1  45    5.3927   637.3    3.062      66.131
2015    3        8     1  51    5.3910   637.2    3.062      66.121
2015    3        8     1  56    5.3895   637.2    3.061      66.109
2015    3        8     2   2    5.3878   637.2    3.060      66.097
2015    3        8     2   7    5.3861   637.1    3.059      66.085
2015    3        8     2  12    5.3845   637.1    3.059      66.071
2015    3        8     2  18    5.3829   637.0    3.058      66.058
2015    3        8     2  23    5.3812   637.0    3.057      66.043
2015    3        8     2  28    5.3796   636.9    3.056      66.028
2015    3        8     2  34    5.3779   636.9    3.056      66.013
2015    3        8     2  39    5.3763   636.8    3.055      65.997
2015    3        8     2  45    5.3746   636.8    3.054      65.981
2015    3        8     2  50    5.3730   636.7    3.053      65.965
2015    3        8     2  55    5.3713   636.7    3.052      65.949
2015    3        8     3   1    5.3697   636.6    3.052      65.933
2015    3        8     3   6    5.3681   636.6    3.051      65.916
2015    3        8     3  11    5.3664   636.5    3.050      65.900
2015    3        8     3  17    5.3648   636.4    3.050      65.884
2015    3        8     3  22    5.3632   636.4    3.049      65.868
2015    3        8     3  28    5.3616   636.3    3.048      65.852
2015    3        8     3  33    5.3600   636.3    3.048      65.837
2015    3        8     3  38    5.3584   636.2    3.047      65.822
2015    3        8     3  44    5.3568   636.1    3.046      65.806
2015    3        8     3  49    5.3552   636.1    3.046      65.792
2015    3        8     3  55    5.3536   636.0    3.045      65.777
2015    3        8     4   0    5.3520   636.0    3.045      65.763
2015    3        8     4   5    5.3504   635.9    3.044      65.749
2015    3        8     4  11    5.3489   635.8    3.044      65.736
2015    3        8     4  16    5.3473   635.8    3.043      65.722
2015    3        8     4  21    5.3457   635.7    3.043      65.709
2015    3        8     4  27    5.3441   635.6    3.043      65.696
2015    3        8     4  32    5.3426   635.6    3.042      65.683
2015    3        8     4  38    5.3410   635.5    3.042      65.671
2015    3        8     4  43    5.3394   635.5    3.041      65.658
2015    3        8     4  48    5.3379   635.4    3.041      65.646
2015    3        8     4  54    5.3363   635.3    3.041      65.634
2015    3        8     4  59    5.3347   635.3    3.040      65.623
2015    3        8     5   4    5.3332   635.2    3.040      65.611
2015    3        8     5  10    5.3316   635.1    3.040      65.600
2015    3        8     5  15    5.3301   635.1    3.039      65.589
2015    3        8     5  21    5.3285   635.0    3.039      65.579
2015    3        8     5  26    5.3270   634.9    3.039      65.569
2015    3        8     5  31    5.3255   634.9    3.039      65.560
2015    3        8     5  37    5.3240   634.8    3.039      65.551
2015    3        8     5  42    5.3225   634.7    3.039      65.542
2015    3        8     5  47    5.3211   634.6    3.039      65.534
2015    3        8     5  53    5.3197   634.6    3.039      65.527
2015    3        8     5  58    5.3182   634.5    3.039      65.520
2015    3        8     6   4    5.3168   634.5    3.039      65.514
2015    3        8     6   9    5.3154   634.4    3.039      65.508
2015    3        8     6  14    5.3141   634.3    3.039      65.503
2015    3        8     6  20    5.3127   634.3    3.039      65.498
2015    3        8     6  25    5.3113   634.2    3.040      65.493
2015    3        8     6  30    5.3099   634.1    3.040      65.490
2015    3        8     6  36    5.3086   634.1    3.040      65.487
2015    3        8     6  41    5.3072   634.0    3.041      65.484
2015    3        8     6  47    5.3058   634.0    3.041      65.481
2015    3        8     6  52    5.3045   633.9    3.041      65.480
2015    3        8     6  57    5.3031   633.8    3.042      65.478
2015    3        8     7   3    5.3017   633.8    3.042      65.476
2015    3        8     7   8    5.3003   633.7    3.042      65.475
2015    3        8     7  13    5.2989   633.7    3.043      65.473
2015    3        8     7  19    5.2975   633.6    3.043      65.472
2015    3        8     7  24    5.2961   633.6    3.043      65.470
2015    3        8     7  30    5.2947   633.5    3.044      65.469
2015    3        8     7  35    5.2933   633.4    3.044      65.467
2015    3        8     7  40    5.2919   633.4    3.044      65.464
2015    3        8     7  46    5.2905   633.3    3.044      65.462
2015    3        8     7  51    5.2891   633.3    3.044      65.459
2015    3        8     7  56    5.2877   633.2    3.045      65.456
2015    3        8     8   2    5.2864   633.1    3.045      65.453
2015    3        8     8   7    5.2850   633.1    3.045      65.450
2015    3        8     8  13    5.2836   633.0    3.045      65.447
2015    3        8     8  18    5.2822   633.0    3.045      65.444
2015    3        8     8  23    5.2808   632.9    3.045      65.441
2015    3        8     8  29    5.2794   632.9    3.045      65.438
2015    3        8     8  34    5.2780   632.8    3.045      65.434
2015    3        8     8  39    5.2766   632.8    3.045      65.430
2015    3        8     8  45    5.2752   632.7    3.045      65.425
2015    3        8     8  50    5.2738   632.6    3.045      65.420
2015    3        8     8  56    5.2723   632.6    3.045      65.415
2015    3        8     9   1    5.2709   632.5    3.045      65.409
2015    3        8     9   6    5.2694   632.5    3.045      65.401
2015    3        8     9  12    5.2679   632.4    3.045      65.394
2015    3        8     9  17    5.2664   632.4    3.045      65.385
2015    3        8     9  23    5.2649   632.3    3.044      65.376
2015    3        8     9  28    5.2634   632.2    3.044      65.366
2015    3        8     9  33    5.2618   632.2    3.044      65.355
2015    3        8     9  39    5.2603   632.1    3.043      65.344
2015    3        8     9  44    5.2587   632.1    3.043      65.331
2015    3        8     9  49    5.2571   632.0    3.043      65.318
2015    3        8     9  55    5.2556   631.9    3.042      65.305
2015    3        8    10   0    5.2540   631.9    3.042      65.290
2015    3        8    10   6    5.2524   631.8    3.041      65.275
2015    3        8    10  11    5.2508   631.7    3.041      65.259
2015    3        8    10  16    5.2491   631.6    3.040      65.242
2015    3        8    10  22    5.2475   631.6    3.040      65.225
2015    3        8    10  27    5.2459   631.5    3.040      65.207
2015    3        8    10  32    5.2443   631.4    3.039      65.189
2015    3        8    10  38    5.2427   631.3    3.039      65.171
2015    3        8    10  43    5.2410   631.2    3.038      65.152
2015    3        8    10  49    5.2394   631.2    3.038      65.133
2015    3        8    10  54    5.2378   631.1    3.037      65.114
2015    3        8    10  59    5.2362   631.0    3.037      65.094
2015    3        8    11   5    5.2346   630.9    3.037      65.075
2015    3        8    11  10    5.2331   630.8    3.036      65.056
2015    3        8    11  15    5.2315   630.7    3.036      65.038
2015    3        8    11  21    5.2299   630.6    3.036      65.019
2015    3        8    11  26    5.2284   630.6    3.036      65.002
2015    3        8    11  32    5.2269   630.5    3.036      64.985
2015    3        8    11  37    5.2255   630.4    3.035      64.968
2015    3        8    11  42    5.2240   630.3    3.035      64.952
2015    3        8    11  48    5.2226   630.2    3.036      64.937
2015    3        8    11  53    5.2212   630.1    3.036      64.923
2015    3        8    11  58    5.2198   630.0    3.036      64.910
2015    3        8    12   4    5.2184   629.9    3.036      64.899
2015    3        8    12   9    5.2171   629.8    3.036      64.888
2015    3        8    12  15    5.2157   629.7    3.036      64.878
2015    3        8    12  20    5.2143   629.7    3.036      64.870
2015    3        8    12  25    5.2130   629.6    3.037      64.861
2015    3        8    12  31    5.2116   629.5    3.037      64.853
2015    3        8    12  36    5.2102   629.4    3.037      64.845
2015    3        8    12  42    5.2089   629.3    3.037      64.838
2015    3        8    12  47    5.2075   629.2    3.037      64.831
2015    3        8    12  52    5.2061   629.2    3.037      64.824
2015    3        8    12  58    5.2047   629.1    3.038      64.817
2015    3        8    13   3    5.2033   629.0    3.038      64.809
2015    3        8    13   8    5.2019   628.9    3.038      64.802
2015    3        8    13  14    5.2005   628.8    3.038      64.794
2015    3        8    13  19    5.1991   628.7    3.038      64.786
2015    3        8    13  25    5.1977   628.7    3.038      64.778
2015    3        8    13  30    5.1963   628.6    3.038      64.770
2015    3        8    13  35    5.1948   628.5    3.038      64.761
2015    3        8    13  41    5.1934   628.4    3.038      64.753
2015    3        8    13  46    5.1919   628.3    3.039      64.744
2015    3        8    13  51    5.1905   628.2    3.039      64.735
2015    3        8    13  57    5.1890   628.2    3.039      64.726
2015    3        8    14   2    5.1875   628.1    3.039      64.717
2015    3        8    14   8    5.1861   628.0    3.039      64.707
2015    3        8    14  13    5.1846   627.9    3.039      64.698
2015    3        8    14  18    5.1831   627.8    3.039      64.688
2015    3        8    14  24    5.1816   627.8    3.039      64.678
2015    3        8    14  29    5.1801   627.7    3.039      64.667
2015    3        8    14  34    5.1786   627.6    3.039      64.657
2015    3        8    14  40    5.1771   627.5    3.039      64.646
2015    3        8    14  45    5.1756   627.4    3.040      64.635
2015    3        8    14  51    5.1741   627.4    3.040      64.624
2015    3        8    14  56    5.1726   627.3    3.040      64.613
2015    3        8    15   1    5.1711   627.2    3.040      64.601
2015    3        8    15   7    5.1696   627.1    3.040      64.590
2015    3        8    15  12    5.1681   627.0    3.040      64.579
2015    3        8    15  17    5.1666   627.0    3.040      64.568
2015    3        8    15  23    5.1651   626.9    3.040      64.557
2015    3        8    15  28    5.1636   626.8    3.040      64.546
2015    3        8    15  34    5.1621   626.7    3.040      64.535
2015    3        8    15  39    5.1606   626.6    3.041      64.525
2015    3        8    15  44    5.1591   626.6    3.041      64.515
2015    3        8    15  50    5.1576   626.5    3.041      64.505
2015    3        8    15  55    5.1561   626.4    3.041      64.496
2015    3        8    16   0    5.1547   626.3    3.041      64.486
2015    3        8    16   6    5.1532   626.2    3.041      64.477
2015    3        8    16  11    5.1517   626.2    3.041      64.468
2015    3        8    16  17    5.1502   626.1    3.041      64.459
2015    3        8    16  22    5.1487   626.0    3.042      64.450
2015    3        8    16  27    5.1472   625.9    3.042      64.441
2015    3        8    16  33    5.1457   625.8    3.042      64.432
2015    3        8    16  38    5.1442   625.7    3.042      64.422
2015    3        8    16  43    5.1427   625.7    3.042      64.413
2015    3        8    16  49    5.1412   625.6    3.042      64.403
2015    3        8    16  54    5.1396   625.5    3.042      64.394
2015    3        8    17   0    5.1381   625.4    3.042      64.384
2015    3        8    17   5    5.1366   625.3    3.042      64.373
2015    3        8    17  10    5.1350   625.2    3.042      64.362
2015    3        8    17  16    5.1335   625.2    3.042      64.351
2015    3        8    17  21    5.1319   625.1    3.042      64.339
2015    3        8    17  26    5.1303   625.0    3.042      64.327
2015    3        8    17  32    5.1287   624.9    3.042      64.314
2015    3        8    17  37    5.1271   624.8    3.042      64.301
2015    3        8    17  43    5.1255   624.7    3.042      64.286
2015    3        8    17  48    5.1239   624.6    3.042      64.271
2015    3        8    17  53    5.1223   624.5    3.042      64.255
2015    3        8    17  59    5.1206   624.4    3.041      64.239
2015    3        8    18   4    5.1190   624.3    3.041      64.221
2015    3        8    18  10    5.1173   624.2    3.041      64.203
2015    3        8    18  15    5.1156   624.1    3.041      64.184
2015    3        8    18  20    5.1139   624.0    3.040      64.164
2015    3        8    18  26    5.1122   623.9    3.040      64.144
2015    3        8    18  31    5.1105   623.8    3.040      64.123
2015    3        8    18  36    5.1088   623.7    3.040      64.102
2015    3        8    18  42    5.1071   623.6    3.039      64.080
2015    3        8    18  47    5.1053   623.5    3.039      64.058
2015    3        8    18  53    5.1036   623.4    3.039      64.036
2015    3        8    18  58    5.1019   623.3    3.039      64.014
2015    3        8    19   3    5.1002   623.2    3.038      63.992
2015    3        8    19   9    5.0984   623.1    3.038      63.969
2015    3        8    19  14    5.0967   622.9    3.038      63.947
2015    3        8    19  19    5.0950   622.8    3.038      63.926
2015    3        8    19  25    5.0933   622.7    3.038      63.905
2015    3        8    19  30    5.0916   622.6    3.038      63.884
2015    3        8    19  36    5.0899   622.5    3.038      63.864
2015    3        8    19  41    5.0882   622.4    3.038      63.844
2015    3        8    19  46    5.0865   622.3    3.038      63.826
2015    3        8    19  52    5.0849   622.1    3.038      63.809
2015    3        8    19  57    5.0832   622.0    3.039      63.792
2015    3        8    20   2    5.0815   621.9    3.039      63.776
2015    3        8    20   8    5.0798   621.8    3.039      63.761
2015    3        8    20  13    5.0781   621.7    3.039      63.745
2015    3        8    20  19    5.0763   621.6    3.039      63.731
2015    3        8    20  24    5.0746   621.5    3.040      63.716
2015    3        8    20  29    5.0729   621.3    3.040      63.702
2015    3        8    20  35    5.0711   621.2    3.040      63.688
2015    3        8    20  40    5.0694   621.1    3.040      63.675
2015    3        8    20  46    5.0676   621.0    3.041      63.661
2015    3        8    20  51    5.0658   620.9    3.041      63.647
2015    3        8    20  56    5.0640   620.8    3.041      63.634
2015    3        8    21   2    5.0623   620.6    3.041      63.620
2015    3        8    21   7    5.0605   620.5    3.042      63.607
2015    3        8    21  12    5.0588   620.4    3.042      63.593
2015    3        8    21  18    5.0570   620.3    3.042      63.580
2015    3        8    21  23    5.0553   620.2    3.043      63.568
2015    3        8    21  29    5.0536   620.0    3.043      63.556
2015    3        8    21  34    5.0518   619.9    3.044      63.544
2015    3        8    21  39    5.0501   619.8    3.044      63.532
2015    3        8    21  45    5.0484   619.7    3.044      63.521
2015    3        8    21  50    5.0467   619.6    3.045      63.510
2015    3        8    21  55    5.0450   619.5    3.045      63.499
2015    3        8    22   1    5.0433   619.4    3.045      63.487
2015    3        8    22   6    5.0417   619.2    3.046      63.476
2015    3        8    22  12    5.0400   619.1    3.046      63.464
2015    3        8    22  17    5.0383   619.0    3.046      63.452
2015    3        8    22  22    5.0367   618.9    3.047      63.440
2015    3        8    22  28    5.0350   618.8    3.047      63.428
2015    3        8    22  33    5.0334   618.7    3.047      63.415
2015    3        8    22  38    5.0317   618.6    3.047      63.402
2015    3        8    22  44    5.0300   618.4    3.048      63.388
2015    3        8    22  49    5.0284   618.3    3.048      63.374
2015    3        8    22  55    5.0267   618.2    3.048      63.360
2015    3        8    23   0    5.0251   618.1    3.048      63.346
2015    3        8    23   5    5.0234   618.0    3.048      63.332
2015    3        8    23  11    5.0218   617.9    3.049      63.317
2015    3        8    23  16    5.0201   617.8    3.049      63.303
2015    3        8    23  21    5.0185   617.7    3.049      63.288
2015    3        8    23  27    5.0168   617.6    3.049      63.273
2015    3        8    23  32    5.0152   617.5    3.049      63.259
2015    3        8    23  38    5.0135   617.4    3.050      63.244
2015    3        8    23  43    5.0119   617.3    3.050      63.229
2015    3        8    23  48    5.0102   617.1    3.050      63.214
2015    3        8    23  54    5.0086   617.0    3.050      63.199
2015    3        8    23  59    5.0069   616.9    3.050      63.184
2015    3        9     0   4    5.0052   616.8    3.051      63.169
2015    3        9     0  10    5.0035   616.7    3.051      63.153
2015    3        9     0  15    5.0018   616.6    3.051      63.138
2015    3        9     0  21    5.0001   616.5    3.051      63.123
2015    3        9     0  26    4.9984   616.4    3.051      63.107
2015    3        9     0  31    4.9966   616.3    3.051      63.091
2015    3        9     0  37    4.9949   616.2    3.052      63.075
2015    3        9     0  42    4.9931   616.1    3.052      63.059
2015    3        9     0  47    4.9913   616.0    3.052      63.043
2015    3        9     0  53    4.9895   615.9    3.052      63.027
2015    3        9     0  58    4.9877   615.8    3.052      63.010
2015    3        9     1   4    4.9858   615.6    3.052      62.994
2015    3        9     1   9    4.9840   615.5    3.052      62.977
2015    3        9     1  14    4.9821   615.4    3.053      62.960
2015    3        9     1  20    4.9802   615.3    3.053      62.942
2015    3        9     1  25    4.9783   615.2    3.053      62.925
2015    3        9     1  30    4.9764   615.1    3.053      62.907
2015    3        9     1  36    4.9745   615.0    3.053      62.888
2015    3        9     1  41    4.9725   614.8    3.053      62.870
2015    3        9     1  47    4.9706   614.7    3.053      62.851
2015    3        9     1  52    4.9686   614.6    3.053      62.832
2015    3        9     1  57    4.9666   614.5    3.053      62.812
2015    3        9     2   3    4.9646   614.4    3.053      62.792
2015    3        9     2   8    4.9626   614.2    3.053      62.772
2015    3        9     2  14    4.9605   614.1    3.053      62.751
2015    3        9     2  19    4.9585   614.0    3.053      62.729
2015    3        9     2  24    4.9565   613.9    3.053      62.707
2015    3        9     2  30    4.9544   613.7    3.053      62.684
2015    3        9     2  35    4.9523   613.6    3.053      62.661
2015    3        9     2  40    4.9502   613.5    3.053      62.638
2015    3        9     2  46    4.9482   613.3    3.053      62.614
2015    3        9     2  51    4.9460   613.2    3.053      62.589
2015    3        9     2  57    4.9439   613.1    3.053      62.564
2015    3        9     3   2    4.9418   612.9    3.053      62.538
2015    3        9     3   7    4.9397   612.8    3.053      62.512
2015    3        9     3  13    4.9376   612.6    3.053      62.486
2015    3        9     3  18    4.9355   612.5    3.053      62.459
2015    3        9     3  23    4.9333   612.3    3.052      62.432
2015    3        9     3  29    4.9312   612.2    3.052      62.405
2015    3        9     3  34    4.9291   612.0    3.052      62.378
2015    3        9     3  40    4.9270   611.9    3.052      62.351
2015    3        9     3  45    4.9249   611.7    3.052      62.324
2015    3        9     3  50    4.9228   611.5    3.053      62.298
2015    3        9     3  56    4.9207   611.4    3.053      62.272
2015    3        9     4   1    4.9187   611.2    3.053      62.246
2015    3        9     4   6    4.9166   611.1    3.053      62.221
2015    3        9     4  12    4.9146   610.9    3.053      62.196
2015    3        9     4  17    4.9126   610.8    3.053      62.172
2015    3        9     4  23    4.9106   610.6    3.054      62.148
2015    3        9     4  28    4.9086   610.4    3.054      62.126
2015    3        9     4  33    4.9067   610.3    3.054      62.104
2015    3        9     4  39    4.9048   610.1    3.055      62.083
2015    3        9     4  44    4.9029   610.0    3.055      62.062
2015    3        9     4  49    4.9010   609.8    3.056      62.042
2015    3        9     4  55    4.8991   609.7    3.056      62.023
2015    3        9     5   0    4.8972   609.5    3.057      62.004
2015    3        9     5   6    4.8954   609.4    3.058      61.986
2015    3        9     5  11    4.8935   609.2    3.058      61.968
2015    3        9     5  16    4.8917   609.1    3.059      61.951
2015    3        9     5  22    4.8899   608.9    3.059      61.934
2015    3        9     5  27    4.8881   608.8    3.060      61.917
2015    3        9     5  32    4.8863   608.6    3.061      61.901
2015    3        9     5  38    4.8845   608.5    3.061      61.884
2015    3        9     5  43    4.8826   608.3    3.062      61.868
2015    3        9     5  49    4.8808   608.2    3.062      61.851
2015    3        9     5  54    4.8790   608.0    3.063      61.835
2015    3        9     5  59    4.8772   607.9    3.064      61.819
2015    3        9     6   5    4.8753   607.8    3.064      61.802
2015    3        9     6  10    4.8735   607.6    3.065      61.785
2015    3        9     6  15    4.8717   607.5    3.065      61.769
2015    3        9     6  21    4.8698   607.3    3.066      61.752
2015    3        9     6  26    4.8680   607.2    3.066      61.734
2015    3        9     6  32    4.8661   607.0    3.067      61.717
2015    3        9     6  37    4.8643   606.9    3.067      61.699
2015    3        9     6  42    4.8624   606.8    3.068      61.681
2015    3        9     6  48    4.8605   606.6    3.068      61.663
2015    3        9     6  53    4.8587   606.5    3.068      61.644
2015    3        9     6  58    4.8568   606.3    3.069      61.625
2015    3        9     7   4    4.8549   606.2    3.069      61.606
2015    3        9     7   9    4.8530   606.1    3.070      61.587
2015    3        9     7  15    4.8511   605.9    3.070      61.568
2015    3        9     7  20    4.8492   605.8    3.070      61.549
2015    3        9     7  25    4.8473   605.6    3.071      61.529
2015    3        9     7  31    4.8453   605.5    3.071      61.509
2015    3        9     7  36    4.8434   605.4    3.071      61.489
2015    3        9     7  42    4.8414   605.2    3.072      61.469
2015    3        9     7  47    4.8394   605.1    3.072      61.449
2015    3        9     7  52    4.8374   604.9    3.072      61.428
2015    3        9     7  58    4.8354   604.8    3.073      61.408
2015    3        9     8   3    4.8334   604.7    3.073      61.387
2015    3        9     8   8    4.8314   604.5    3.074      61.366
2015    3        9     8  14    4.8293   604.4    3.074      61.345
2015    3        9     8  19    4.8273   604.2    3.074      61.324
2015    3        9     8  25    4.8252   604.1    3.075      61.303
2015    3        9     8  30    4.8232   604.0    3.075      61.282
2015    3        9     8  35    4.8211   603.8    3.076      61.261
2015    3        9     8  41    4.8190   603.7    3.076      61.239
2015    3        9     8  46    4.8169   603.5    3.076      61.218
2015    3        9     8  51    4.8148   603.4    3.077      61.197
2015    3        9     8  57    4.8128   603.2    3.077      61.176
2015    3        9     9   2    4.8106   603.1    3.078      61.155
2015    3        9     9   8    4.8085   603.0    3.078      61.133
2015    3        9     9  13    4.8064   602.8    3.079      61.112
2015    3        9     9  18    4.8043   602.7    3.080      61.091
2015    3        9     9  24    4.8022   602.5    3.080      61.071
2015    3        9     9  29    4.8001   602.4    3.081      61.050
2015    3        9     9  34    4.7980   602.2    3.081      61.029
2015    3        9     9  40    4.7959   602.1    3.082      61.008
2015    3        9     9  45    4.7938   601.9    3.083      60.987
2015    3        9     9  51    4.7916   601.8    3.083      60.966
2015    3        9     9  56    4.7895   601.6    3.084      60.946
2015    3        9    10   1    4.7874   601.5    3.085      60.925
2015    3        9    10   7    4.7852   601.3    3.085      60.904
2015    3        9    10  12    4.7831   601.2    3.086      60.884
2015    3        9    10  18    4.7810   601.0    3.087      60.863
2015    3        9    10  23    4.7789   600.9    3.088      60.842
2015    3        9    10  28    4.7767   600.7    3.088      60.821
2015    3        9    10  34    4.7746   600.5    3.089      60.800
2015    3        9    10  39    4.7724   600.4    3.090      60.780
2015    3        9    10  44    4.7703   600.2    3.091      60.759
2015    3        9    10  50    4.7681   600.1    3.091      60.738
2015    3        9    10  55    4.7660   599.9    3.092      60.717
2015    3        9    11   1    4.7638   599.7    3.093      60.696
2015    3        9    11   6    4.7617   599.6    3.094      60.675
2015    3        9    11  11    4.7595   599.4    3.094      60.653
2015    3        9    11  17    4.7574   599.2    3.095      60.632
2015    3        9    11  22    4.7553   599.1    3.096      60.610
2015    3        9    11  27    4.7532   598.9    3.096      60.588
2015    3        9    11  33    4.7511   598.8    3.097      60.566
2015    3        9    11  38    4.7489   598.6    3.097      60.544
2015    3        9    11  44    4.7468   598.4    3.098      60.521
2015    3        9    11  49    4.7447   598.3    3.099      60.498
2015    3        9    11  54    4.7426   598.1    3.099      60.475
2015    3        9    12   0    4.7405   597.9    3.100      60.451
2015    3        9    12   5    4.7385   597.8    3.100      60.427
2015    3        9    12  10    4.7364   597.6    3.100      60.402
2015    3        9    12  16    4.7343   597.4    3.101      60.377
2015    3        9    12  21    4.7322   597.3    3.101      60.352
2015    3        9    12  27    4.7301   597.1    3.102      60.326
2015    3        9    12  32    4.7281   596.9    3.102      60.299
2015    3        9    12  37    4.7260   596.8    3.102      60.272
2015    3        9    12  43    4.7239   596.6    3.102      60.245
2015    3        9    12  48    4.7219   596.4    3.103      60.217
2015    3        9    12  53    4.7198   596.3    3.103      60.188
2015    3        9    12  59    4.7178   596.1    3.103      60.160
2015    3        9    13   4    4.7157   595.9    3.103      60.130
2015    3        9    13  10    4.7137   595.8    3.103      60.101
2015    3        9    13  15    4.7117   595.6    3.103      60.071
2015    3        9    13  20    4.7097   595.4    3.104      60.041
2015    3        9    13  26    4.7077   595.3    3.104      60.011
2015    3        9    13  31    4.7057   595.1    3.104      59.981
2015    3        9    13  36    4.7037   594.9    3.104      59.950
2015    3        9    13  42    4.7017   594.7    3.104      59.920
2015    3        9    13  47    4.6998   594.6    3.104      59.890
2015    3        9    13  53    4.6978   594.4    3.104      59.859
2015    3        9    13  58    4.6959   594.2    3.104      59.829
2015    3        9    14   3    4.6940   594.1    3.105      59.799
2015    3        9    14   9    4.6920   593.9    3.105      59.769
2015    3        9    14  14    4.6901   593.7    3.105      59.738
2015    3        9    14  19    4.6881   593.5    3.105      59.708
2015    3        9    14  25    4.6861   593.4    3.105      59.677
2015    3        9    14  30    4.6842   593.2    3.105      59.647
2015    3        9    14  36    4.6822   593.0    3.105      59.617
2015    3        9    14  41    4.6802   592.9    3.106      59.586
2015    3        9    14  46    4.6783   592.7    3.106      59.555
2015    3        9    14  52    4.6762   592.5    3.106      59.525
2015    3        9    14  57    4.6742   592.3    3.106      59.494
2015    3        9    15   2    4.6722   592.2    3.106      59.463
2015    3        9    15   8    4.6702   592.0    3.106      59.432
2015    3        9    15  13    4.6682   591.8    3.107      59.401
2015    3        9    15  19    4.6661   591.6    3.107      59.370
2015    3        9    15  24    4.6641   591.5    3.107      59.339
2015    3        9    15  29    4.6620   591.3    3.107      59.308
2015    3        9    15  35    4.6600   591.1    3.107      59.277
2015    3        9    15  40    4.6579   591.0    3.108      59.246
2015    3        9    15  46    4.6558   590.8    3.108      59.215
2015    3        9    15  51    4.6537   590.6    3.108      59.184
2015    3        9    15  56    4.6516   590.4    3.108      59.153
2015    3        9    16   2    4.6495   590.3    3.109      59.122
2015    3        9    16   7    4.6475   590.1    3.109      59.091
2015    3        9    16  12    4.6454   589.9    3.109      59.061
2015    3        9    16  18    4.6433   589.7    3.110      59.031
2015    3        9    16  23    4.6412   589.6    3.110      59.001
2015    3        9    16  29    4.6391   589.4    3.111      58.972
2015    3        9    16  34    4.6370   589.2    3.111      58.943
2015    3        9    16  39    4.6349   589.0    3.112      58.914
2015    3        9    16  45    4.6329   588.9    3.112      58.886
2015    3        9    16  50    4.6308   588.7    3.113      58.859
2015    3        9    16  55    4.6287   588.5    3.114      58.833
2015    3        9    17   1    4.6267   588.3    3.115      58.807
2015    3        9    17   6    4.6246   588.2    3.115      58.781
2015    3        9    17  12    4.6225   588.0    3.116      58.757
2015    3        9    17  17    4.6205   587.8    3.117      58.733
2015    3        9    17  22    4.6184   587.7    3.118      58.710
2015    3        9    17  28    4.6163   587.5    3.120      58.688
2015    3        9    17  33    4.6142   587.3    3.121      58.667
2015    3        9    17  38    4.6121   587.1    3.122      58.646
2015    3        9    17  44    4.6100   587.0    3.123      58.625
2015    3        9    17  49    4.6079   586.8    3.125      58.605
2015    3        9    17  55    4.6057   586.6    3.126      58.586
2015    3        9    18   0    4.6036   586.5    3.127      58.566
2015    3        9    18   5    4.6014   586.3    3.129      58.547
2015    3        9    18  11    4.5992   586.1    3.130      58.529
2015    3        9    18  16    4.5970   586.0    3.131      58.510
2015    3        9    18  21    4.5948   585.8    3.133      58.490
2015    3        9    18  27    4.5926   585.6    3.134      58.471
2015    3        9    18  32    4.5903   585.5    3.135      58.451
2015    3        9    18  38    4.5881   585.3    3.137      58.431
2015    3        9    18  43    4.5858   585.1    3.138      58.411
2015    3        9    18  48    4.5835   584.9    3.139      58.390
2015    3        9    18  54    4.5812   584.8    3.141      58.368
2015    3        9    18  59    4.5789   584.6    3.142      58.346
2015    3        9    19   5    4.5766   584.4    3.143      58.323
2015    3        9    19  10    4.5743   584.2    3.144      58.300
2015    3        9    19  15    4.5720   584.0    3.146      58.276
2015    3        9    19  21    4.5696   583.8    3.147      58.251
2015    3        9    19  26    4.5673   583.7    3.148      58.226
2015    3        9    19  31    4.5651   583.5    3.149      58.200
2015    3        9    19  37    4.5628   583.3    3.150      58.174
2015    3        9    19  42    4.5605   583.1    3.151      58.148
2015    3        9    19  48    4.5582   582.9    3.153      58.121
2015    3        9    19  53    4.5560   582.7    3.154      58.094
2015    3        9    19  58    4.5538   582.5    3.155      58.066
2015    3        9    20   4    4.5516   582.3    3.156      58.039
2015    3        9    20   9    4.5495   582.1    3.157      58.012
2015    3        9    20  14    4.5474   582.0    3.158      57.985
2015    3        9    20  20    4.5453   581.8    3.159      57.959
2015    3        9    20  25    4.5432   581.6    3.161      57.933
2015    3        9    20  31    4.5412   581.4    3.162      57.907
2015    3        9    20  36    4.5393   581.2    3.163      57.882
2015    3        9    20  41    4.5373   581.0    3.164      57.856
2015    3        9    20  47    4.5354   580.8    3.165      57.831
2015    3        9    20  52    4.5334   580.6    3.166      57.806
2015    3        9    20  57    4.5315   580.4    3.167      57.780
2015    3        9    21   3    4.5297   580.2    3.168      57.754
2015    3        9    21   8    4.5278   580.1    3.169      57.729
2015    3        9    21  14    4.5259   579.9    3.170      57.703
2015    3        9    21  19    4.5241   579.7    3.171      57.677
2015    3        9    21  24    4.5222   579.5    3.171      57.650
2015    3        9    21  30    4.5204   579.3    3.172      57.623
2015    3        9    21  35    4.5185   579.1    3.173      57.595
2015    3        9    21  40    4.5167   578.9    3.174      57.567
2015    3        9    21  46    4.5148   578.8    3.174      57.539
2015    3        9    21  51    4.5129   578.6    3.175      57.510
2015    3        9    21  57    4.5111   578.4    3.175      57.480
2015    3        9    22   2    4.5092   578.2    3.176      57.451
2015    3        9    22   7    4.5073   578.0    3.177      57.420
2015    3        9    22  13    4.5054   577.8    3.177      57.390
2015    3        9    22  18    4.5035   577.7    3.178      57.358
2015    3        9    22  23    4.5016   577.5    3.178      57.326
2015    3        9    22  29    4.4996   577.3    3.178      57.294
2015    3        9    22  34    4.4977   577.1    3.179      57.261
2015    3        9    22  40    4.4957   576.9    3.179      57.227
2015    3        9    22  45    4.4938   576.7    3.179      57.193
2015    3        9    22  50    4.4918   576.5    3.180      57.158
2015    3        9    22  56    4.4898   576.4    3.180      57.123
2015    3        9    23   1    4.4878   576.2    3.180      57.087
2015    3        9    23   6    4.4858   576.0    3.180      57.050
2015    3        9    23  12    4.4838   575.8    3.180      57.014
2015    3        9    23  17    4.4818   575.6    3.180      56.976
2015    3        9    23  23    4.4798   575.4    3.180      56.938
2015    3        9    23  28    4.4778   575.3    3.180      56.899
2015    3        9    23  33    4.4757   575.1    3.180      56.861
2015    3        9    23  39    4.4737   574.9    3.180      56.821
2015    3        9    23  44    4.4716   574.7    3.180      56.782
2015    3        9    23  50    4.4696   574.5    3.180      56.742
2015    3        9    23  55    4.4675   574.3    3.180      56.701
2015    3       10     0   0    4.4655   574.1    3.180      56.661
2015    3       10     0   6    4.4634   573.9    3.180      56.620
2015    3       10     0  11    4.4614   573.7    3.179      56.579
2015    3       10     0  16    4.4593   573.6    3.179      56.538
2015    3       10     0  22    4.4572   573.4    3.179      56.498
2015    3       10     0  27    4.4551   573.2    3.179      56.457
2015    3       10     0  33    4.4530   573.0    3.179      56.416
2015    3       10     0  38    4.4510   572.8    3.179      56.376
2015    3       10     0  43    4.4489   572.6    3.179      56.335
2015    3       10     0  49    4.4468   572.4    3.179      56.295
2015    3       10     0  54    4.4447   572.2    3.179      56.255
2015    3       10     0  59    4.4426   572.0    3.179      56.215
2015    3       10     1   5    4.4405   571.8    3.179      56.175
2015    3       10     1  10    4.4384   571.7    3.179      56.136
2015    3       10     1  16    4.4363   571.5    3.179      56.096
2015    3       10     1  21    4.4341   571.3    3.180      56.057
2015    3       10     1  26    4.4320   571.1    3.180      56.018
2015    3       10     1  32    4.4299   570.9    3.180      55.979
2015    3       10     1  37    4.4277   570.7    3.180      55.940
2015    3       10     1  42    4.4255   570.5    3.181      55.901
2015    3       10     1  48    4.4234   570.3    3.181      55.862
2015    3       10     1  53    4.4212   570.1    3.181      55.823
2015    3       10     1  59    4.4190   569.9    3.182      55.784
2015    3       10     2   4    4.4168   569.7    3.182      55.745
2015    3       10     2   9    4.4146   569.5    3.183      55.706
2015    3       10     2  15    4.4124   569.3    3.183      55.668
2015    3       10     2  20    4.4102   569.1    3.184      55.629
2015    3       10     2  25    4.4080   568.9    3.184      55.590
2015    3       10     2  31    4.4058   568.7    3.185      55.552
2015    3       10     2  36    4.4036   568.5    3.186      55.514
2015    3       10     2  42    4.4014   568.3    3.186      55.475
2015    3       10     2  47    4.3992   568.1    3.187      55.438
2015    3       10     2  52    4.3971   567.8    3.188      55.400
2015    3       10     2  58    4.3949   567.6    3.189      55.363
2015    3       10     3   3    4.3928   567.4    3.190      55.327
2015    3       10     3   8    4.3907   567.2    3.191      55.291
2015    3       10     3  14    4.3887   567.0    3.192      55.256
2015    3       10     3  19    4.3866   566.8    3.193      55.222
2015    3       10     3  25    4.3846   566.6    3.194      55.188
2015    3       10     3  30    4.3827   566.3    3.196      55.156
2015    3       10     3  35    4.3807   566.1    3.197      55.125
2015    3       10     3  41    4.3788   565.9    3.199      55.096
2015    3       10     3  46    4.3769   565.7    3.200      55.067
2015    3       10     3  51    4.3751   565.5    3.202      55.040
2015    3       10     3  57    4.3733   565.3    3.204      55.014
2015    3       10     4   2    4.3715   565.1    3.205      54.989
2015    3       10     4   8    4.3697   564.9    3.207      54.964
2015    3       10     4  13    4.3680   564.7    3.209      54.940
2015    3       10     4  18    4.3662   564.5    3.211      54.916
2015    3       10     4  24    4.3644   564.3    3.212      54.893
2015    3       10     4  29    4.3626   564.0    3.214      54.869
2015    3       10     4  34    4.3608   563.8    3.216      54.846
2015    3       10     4  40    4.3590   563.6    3.218      54.823
2015    3       10     4  45    4.3572   563.4    3.219      54.799
2015    3       10     4  51    4.3554   563.2    3.221      54.775
2015    3       10     4  56    4.3536   563.0    3.223      54.750
2015    3       10     5   1    4.3517   562.8    3.224      54.724
2015    3       10     5   7    4.3498   562.6    3.226      54.698
2015    3       10     5  12    4.3479   562.4    3.227      54.672
2015    3       10     5  18    4.3460   562.2    3.229      54.645
2015    3       10     5  23    4.3441   562.0    3.230      54.617
2015    3       10     5  28    4.3421   561.8    3.232      54.589
2015    3       10     5  34    4.3402   561.6    3.233      54.560
2015    3       10     5  39    4.3383   561.4    3.235      54.530
2015    3       10     5  44    4.3363   561.2    3.236      54.501
2015    3       10     5  50    4.3344   561.0    3.238      54.470
2015    3       10     5  55    4.3324   560.7    3.239      54.439
2015    3       10     6   1    4.3305   560.5    3.240      54.408
2015    3       10     6   6    4.3285   560.3    3.241      54.376
2015    3       10     6  11    4.3265   560.1    3.243      54.344
2015    3       10     6  17    4.3246   559.9    3.244      54.311
2015    3       10     6  22    4.3226   559.7    3.245      54.278
2015    3       10     6  27    4.3207   559.5    3.246      54.245
2015    3       10     6  33    4.3187   559.3    3.248      54.212
2015    3       10     6  38    4.3168   559.0    3.249      54.178
2015    3       10     6  44    4.3149   558.8    3.250      54.144
2015    3       10     6  49    4.3130   558.6    3.251      54.109
2015    3       10     6  54    4.3111   558.4    3.252      54.075
2015    3       10     7   0    4.3093   558.2    3.253      54.041
2015    3       10     7   5    4.3074   558.0    3.254      54.006
2015    3       10     7  10    4.3056   557.7    3.255      53.971
2015    3       10     7  16    4.3038   557.5    3.256      53.936
2015    3       10     7  21    4.3020   557.3    3.257      53.900
2015    3       10     7  27    4.3002   557.1    3.259      53.865
2015    3       10     7  32    4.2984   556.9    3.260      53.829
2015    3       10     7  37    4.2966   556.7    3.261      53.794
2015    3       10     7  43    4.2948   556.4    3.261      53.759
2015    3       10     7  48    4.2930   556.2    3.262      53.723
2015    3       10     7  53    4.2912   556.0    3.263      53.688
2015    3       10     7  59    4.2895   555.8    3.264      53.653
2015    3       10     8   4    4.2877   555.6    3.265      53.617
2015    3       10     8  10    4.2859   555.4    3.266      53.582
2015    3       10     8  15    4.2842   555.2    3.267      53.546
2015    3       10     8  20    4.2824   554.9    3.267      53.510
2015    3       10     8  26    4.2806   554.7    3.268      53.474
2015    3       10     8  31    4.2789   554.5    3.269      53.438
2015    3       10     8  37    4.2770   554.3    3.269      53.402
2015    3       10     8  42    4.2752   554.1    3.270      53.365
2015    3       10     8  47    4.2735   553.9    3.270      53.328
2015    3       10     8  53    4.2717   553.7    3.271      53.291
2015    3       10     8  58    4.2699   553.4    3.271      53.253
2015    3       10     9   3    4.2681   553.2    3.272      53.214
2015    3       10     9   9    4.2663   553.0    3.272      53.176
2015    3       10     9  14    4.2645   552.8    3.273      53.136
2015    3       10     9  20    4.2627   552.6    3.273      53.097
2015    3       10     9  25    4.2609   552.4    3.273      53.057
2015    3       10     9  30    4.2591   552.1    3.274      53.017
2015    3       10     9  36    4.2573   551.9    3.274      52.977
2015    3       10     9  41    4.2555   551.7    3.274      52.936
2015    3       10     9  46    4.2538   551.5    3.275      52.895
2015    3       10     9  52    4.2520   551.3    3.275      52.854
2015    3       10     9  57    4.2501   551.0    3.275      52.813
2015    3       10    10   3    4.2484   550.8    3.275      52.771
2015    3       10    10   8    4.2465   550.6    3.276      52.730
2015    3       10    10  13    4.2447   550.4    3.276      52.688
2015    3       10    10  19    4.2429   550.2    3.277      52.647
2015    3       10    10  24    4.2411   550.0    3.277      52.605
2015    3       10    10  29    4.2393   549.7    3.277      52.564
2015    3       10    10  35    4.2376   549.5    3.278      52.523
2015    3       10    10  40    4.2358   549.3    3.278      52.482
2015    3       10    10  46    4.2340   549.1    3.279      52.442
2015    3       10    10  51    4.2324   548.9    3.279      52.401
2015    3       10    10  56    4.2305   548.6    3.280      52.361
2015    3       10    11   2    4.2288   548.4    3.280      52.321
2015    3       10    11   7    4.2270   548.2    3.281      52.281
2015    3       10    11  12    4.2253   548.0    3.282      52.242
2015    3       10    11  18    4.2235   547.8    3.282      52.203
2015    3       10    11  23    4.2218   547.5    3.283      52.164
2015    3       10    11  29    4.2200   547.3    3.284      52.125
2015    3       10    11  34    4.2183   547.1    3.285      52.086
2015    3       10    11  39    4.2165   546.9    3.285      52.047
2015    3       10    11  45    4.2147   546.7    3.286      52.009
2015    3       10    11  50    4.2130   546.4    3.287      51.971
2015    3       10    11  55    4.2111   546.2    3.288      51.932
2015    3       10    12   1    4.2093   546.0    3.289      51.893
2015    3       10    12   6    4.2075   545.8    3.289      51.855
2015    3       10    12  12    4.2057   545.5    3.290      51.816
2015    3       10    12  17    4.2038   545.3    3.291      51.777
2015    3       10    12  22    4.2020   545.1    3.292      51.737
2015    3       10    12  28    4.2001   544.8    3.293      51.698
2015    3       10    12  33    4.1983   544.6    3.294      51.658
2015    3       10    12  38    4.1964   544.4    3.295      51.618
2015    3       10    12  44    4.1945   544.1    3.296      51.578
2015    3       10    12  49    4.1926   543.9    3.297      51.538
2015    3       10    12  55    4.1908   543.7    3.298      51.497
2015    3       10    13   0    4.1889   543.4    3.299      51.457
2015    3       10    13   5    4.1870   543.2    3.300      51.416
2015    3       10    13  11    4.1851   542.9    3.301      51.376
2015    3       10    13  16    4.1833   542.7    3.302      51.335
2015    3       10    13  22    4.1814   542.5    3.303      51.295
2015    3       10    13  27    4.1796   542.2    3.304      51.255
2015    3       10    13  32    4.1778   542.0    3.305      51.215
2015    3       10    13  38    4.1761   541.7    3.307      51.176
2015    3       10    13  43    4.1743   541.5    3.308      51.138
2015    3       10    13  48    4.1726   541.2    3.309      51.099
2015    3       10    13  54    4.1710   541.0    3.311      51.062
2015    3       10    13  59    4.1693   540.7    3.312      51.024
2015    3       10    14   5    4.1677   540.5    3.314      50.988
2015    3       10    14  10    4.1661   540.2    3.316      50.952
2015    3       10    14  15    4.1646   540.0    3.318      50.917
2015    3       10    14  21    4.1631   539.7    3.319      50.883
2015    3       10    14  26    4.1617   539.5    3.321      50.849
2015    3       10    14  31    4.1603   539.2    3.324      50.816
2015    3       10    14  37    4.1589   539.0    3.326      50.784
2015    3       10    14  42    4.1576   538.7    3.328      50.753
2015    3       10    14  48    4.1563   538.5    3.330      50.723
2015    3       10    14  53    4.1550   538.2    3.333      50.693
2015    3       10    14  58    4.1537   538.0    3.335      50.664
2015    3       10    15   4    4.1525   537.8    3.337      50.636
2015    3       10    15   9    4.1513   537.5    3.340      50.608
2015    3       10    15  14    4.1501   537.3    3.342      50.581
2015    3       10    15  20    4.1489   537.0    3.345      50.555
2015    3       10    15  25    4.1477   536.8    3.347      50.529
2015    3       10    15  31    4.1465   536.6    3.350      50.502
2015    3       10    15  36    4.1453   536.3    3.352      50.477
2015    3       10    15  41    4.1441   536.1    3.355      50.451
2015    3       10    15  47    4.1428   535.9    3.357      50.425
2015    3       10    15  52    4.1416   535.6    3.359      50.400
2015    3       10    15  57    4.1403   535.4    3.362      50.374
2015    3       10    16   3    4.1391   535.2    3.364      50.348
2015    3       10    16   8    4.1378   534.9    3.366      50.322
2015    3       10    16  14    4.1366   534.7    3.369      50.295
2015    3       10    16  19    4.1353   534.5    3.371      50.269
2015    3       10    16  24    4.1340   534.2    3.373      50.242
2015    3       10    16  30    4.1327   534.0    3.375      50.215
2015    3       10    16  35    4.1314   533.8    3.377      50.187
2015    3       10    16  41    4.1300   533.5    3.379      50.159
2015    3       10    16  46    4.1287   533.3    3.381      50.131
2015    3       10    16  51    4.1274   533.1    3.383      50.102
2015    3       10    16  57    4.1260   532.8    3.385      50.074
2015    3       10    17   2    4.1247   532.6    3.386      50.044
2015    3       10    17   7    4.1233   532.4    3.388      50.015
2015    3       10    17  13    4.1219   532.2    3.390      49.985
2015    3       10    17  18    4.1205   531.9    3.392      49.955
2015    3       10    17  24    4.1192   531.7    3.393      49.924
2015    3       10    17  29    4.1178   531.5    3.395      49.893
2015    3       10    17  34    4.1164   531.2    3.396      49.861
2015    3       10    17  40    4.1150   531.0    3.398      49.830
2015    3       10    17  45    4.1135   530.8    3.399      49.797
2015    3       10    17  50    4.1121   530.5    3.401      49.765
2015    3       10    17  56    4.1107   530.3    3.402      49.732
2015    3       10    18   1    4.1093   530.1    3.404      49.698
2015    3       10    18   7    4.1078   529.8    3.405      49.665
2015    3       10    18  12    4.1064   529.6    3.406      49.631
2015    3       10    18  17    4.1049   529.4    3.407      49.596
2015    3       10    18  23    4.1035   529.1    3.409      49.562
2015    3       10    18  28    4.1020   528.9    3.410      49.527
2015    3       10    18  33    4.1006   528.7    3.411      49.492
2015    3       10    18  39    4.0991   528.4    3.412      49.456
2015    3       10    18  44    4.0976   528.2    3.414      49.420
2015    3       10    18  50    4.0962   527.9    3.415      49.385
2015    3       10    18  55    4.0947   527.7    3.416      49.348
2015    3       10    19   0    4.0933   527.5    3.417      49.312
2015    3       10    19   6    4.0918   527.2    3.418      49.275
2015    3       10    19  11    4.0903   527.0    3.419      49.239
2015    3       10    19  16    4.0888   526.8    3.420      49.201
2015    3       10    19  22    4.0874   526.5    3.421      49.164
2015    3       10    19  27    4.0859   526.3    3.422      49.127
2015    3       10    19  33    4.0844   526.0    3.423      49.089
2015    3       10    19  38    4.0830   525.8    3.424      49.050
2015    3       10    19  43    4.0815   525.6    3.425      49.012
2015    3       10    19  49    4.0800   525.3    3.425      48.974
2015    3       10    19  54    4.0785   525.1    3.426      48.934
2015    3       10    19  59    4.0771   524.8    3.427      48.895
2015    3       10    20   5    4.0756   524.6    3.428      48.856
2015    3       10    20  10    4.0741   524.3    3.429      48.816
2015    3       10    20  16    4.0727   524.1    3.430      48.777
2015    3       10    20  21    4.0713   523.9    3.431      48.737
2015    3       10    20  26    4.0698   523.6    3.431      48.697
2015    3       10    20  32    4.0684   523.4    3.432      48.656
2015    3       10    20  37    4.0670   523.1    3.433      48.616
2015    3       10    20  42    4.0656   522.9    3.434      48.576
2015    3       10    20  48    4.0642   522.6    3.435      48.536
2015    3       10    20  53    4.0629   522.4    3.436      48.496
2015    3       10    20  59    4.0615   522.1    3.437      48.456
2015    3       10    21   4    4.0602   521.9    3.438      48.417
2015    3       10    21   9    4.0589   521.6    3.439      48.377
2015    3       10    21  15    4.0577   521.4    3.441      48.338
2015    3       10    21  20    4.0564   521.1    3.442      48.300
2015    3       10    21  25    4.0552   520.9    3.443      48.262
2015    3       10    21  31    4.0540   520.6    3.445      48.224
2015    3       10    21  36    4.0528   520.4    3.446      48.187
2015    3       10    21  42    4.0517   520.1    3.447      48.150
2015    3       10    21  47    4.0505   519.9    3.449      48.113
2015    3       10    21  52    4.0494   519.6    3.451      48.077
2015    3       10    21  58    4.0484   519.4    3.452      48.041
2015    3       10    22   3    4.0473   519.1    3.454      48.006
2015    3       10    22   9    4.0462   518.9    3.456      47.971
2015    3       10    22  14    4.0453   518.6    3.458      47.937
2015    3       10    22  19    4.0442   518.4    3.460      47.903
2015    3       10    22  25    4.0432   518.1    3.462      47.869
2015    3       10    22  30    4.0422   517.9    3.464      47.836
2015    3       10    22  35    4.0412   517.7    3.466      47.803
2015    3       10    22  41    4.0403   517.4    3.468      47.770
2015    3       10    22  46    4.0393   517.2    3.470      47.737
2015    3       10    22  52    4.0383   516.9    3.472      47.705
2015    3       10    22  57    4.0373   516.7    3.475      47.672
2015    3       10    23   2    4.0364   516.4    3.477      47.640
2015    3       10    23   8    4.0354   516.2    3.479      47.608
2015    3       10    23  13    4.0344   515.9    3.481      47.576
2015    3       10    23  18    4.0334   515.7    3.484      47.544
2015    3       10    23  24    4.0325   515.5    3.486      47.512
2015    3       10    23  29    4.0315   515.2    3.488      47.480
2015    3       10    23  35    4.0305   515.0    3.491      47.449
2015    3       10    23  40    4.0295   514.7    3.493      47.417
2015    3       10    23  45    4.0285   514.5    3.495      47.386
2015    3       10    23  51    4.0275   514.2    3.498      47.354
2015    3       10    23  56    4.0266   514.0    3.500      47.323
2015    3       11     0   2    4.0256   513.7    3.503      47.292
