year    month   day   hour  minute  B_enl V_enl   n_enl       T_enl
[year] [month] [day] [hour][minute] [nT]  [km/s]  [cm-3]      [kK]
2015    3       19     0   3    5.7156   569.2    4.718      63.139
2015    3       19     0   9    5.7111   569.4    4.711      63.126
2015    3       19     0  14    5.7065   569.5    4.705      63.114
2015    3       19     0  20    5.7020   569.7    4.698      63.101
2015    3       19     0  25    5.6974   569.8    4.692      63.088
2015    3       19     0  31    5.6928   570.0    4.686      63.075
2015    3       19     0  36    5.6883   570.1    4.680      63.062
2015    3       19     0  42    5.6837   570.2    4.674      63.048
2015    3       19     0  47    5.6791   570.4    4.668      63.034
2015    3       19     0  53    5.6745   570.5    4.662      63.019
2015    3       19     0  58    5.6699   570.6    4.656      63.004
2015    3       19     1   4    5.6653   570.8    4.650      62.989
2015    3       19     1  10    5.6608   570.9    4.644      62.974
2015    3       19     1  15    5.6563   571.0    4.639      62.958
2015    3       19     1  21    5.6517   571.1    4.633      62.943
2015    3       19     1  26    5.6472   571.3    4.628      62.927
2015    3       19     1  32    5.6428   571.4    4.623      62.910
2015    3       19     1  37    5.6383   571.5    4.617      62.894
2015    3       19     1  43    5.6340   571.6    4.612      62.877
2015    3       19     1  48    5.6296   571.7    4.608      62.861
2015    3       19     1  54    5.6253   571.8    4.603      62.845
2015    3       19     1  59    5.6210   571.9    4.598      62.828
2015    3       19     2   5    5.6168   572.1    4.594      62.812
2015    3       19     2  10    5.6126   572.2    4.589      62.795
2015    3       19     2  16    5.6084   572.3    4.585      62.778
2015    3       19     2  21    5.6043   572.4    4.580      62.761
2015    3       19     2  27    5.6002   572.5    4.576      62.745
2015    3       19     2  32    5.5960   572.6    4.572      62.727
2015    3       19     2  38    5.5919   572.7    4.567      62.709
2015    3       19     2  44    5.5878   572.8    4.563      62.691
2015    3       19     2  49    5.5836   572.9    4.558      62.671
2015    3       19     2  55    5.5794   573.0    4.554      62.650
2015    3       19     3   0    5.5752   573.2    4.549      62.628
2015    3       19     3   6    5.5710   573.3    4.544      62.604
2015    3       19     3  11    5.5667   573.4    4.539      62.579
2015    3       19     3  17    5.5624   573.5    4.534      62.553
2015    3       19     3  22    5.5581   573.6    4.528      62.526
2015    3       19     3  28    5.5537   573.7    4.523      62.498
2015    3       19     3  33    5.5494   573.8    4.517      62.468
2015    3       19     3  39    5.5450   573.9    4.512      62.438
2015    3       19     3  44    5.5406   574.0    4.506      62.407
2015    3       19     3  50    5.5362   574.1    4.501      62.375
2015    3       19     3  55    5.5318   574.2    4.495      62.342
2015    3       19     4   1    5.5273   574.3    4.489      62.309
2015    3       19     4   6    5.5229   574.4    4.483      62.275
2015    3       19     4  12    5.5184   574.5    4.477      62.240
2015    3       19     4  17    5.5139   574.6    4.471      62.204
2015    3       19     4  23    5.5094   574.7    4.465      62.167
2015    3       19     4  29    5.5049   574.8    4.459      62.130
2015    3       19     4  34    5.5004   574.9    4.453      62.093
2015    3       19     4  40    5.4959   574.9    4.447      62.054
2015    3       19     4  45    5.4914   575.0    4.441      62.015
2015    3       19     4  51    5.4868   575.1    4.435      61.976
2015    3       19     4  56    5.4823   575.2    4.429      61.935
2015    3       19     5   2    5.4778   575.3    4.423      61.895
2015    3       19     5   7    5.4733   575.4    4.417      61.853
2015    3       19     5  13    5.4688   575.4    4.411      61.812
2015    3       19     5  18    5.4644   575.5    4.405      61.770
2015    3       19     5  24    5.4599   575.6    4.398      61.727
2015    3       19     5  29    5.4554   575.6    4.392      61.683
2015    3       19     5  35    5.4510   575.7    4.386      61.639
2015    3       19     5  40    5.4466   575.8    4.380      61.595
2015    3       19     5  46    5.4422   575.8    4.374      61.550
2015    3       19     5  51    5.4378   575.9    4.368      61.505
2015    3       19     5  57    5.4335   576.0    4.362      61.460
2015    3       19     6   2    5.4291   576.0    4.356      61.414
2015    3       19     6   8    5.4248   576.1    4.350      61.368
2015    3       19     6  14    5.4205   576.1    4.344      61.322
2015    3       19     6  19    5.4162   576.2    4.338      61.275
2015    3       19     6  25    5.4119   576.2    4.333      61.229
2015    3       19     6  30    5.4077   576.3    4.327      61.182
2015    3       19     6  36    5.4034   576.3    4.321      61.136
2015    3       19     6  41    5.3992   576.4    4.316      61.089
2015    3       19     6  47    5.3950   576.4    4.310      61.043
2015    3       19     6  52    5.3908   576.5    4.305      60.997
2015    3       19     6  58    5.3867   576.5    4.299      60.951
2015    3       19     7   3    5.3825   576.5    4.294      60.905
2015    3       19     7   9    5.3784   576.5    4.289      60.860
2015    3       19     7  14    5.3743   576.6    4.284      60.815
2015    3       19     7  20    5.3703   576.6    4.279      60.770
2015    3       19     7  25    5.3662   576.6    4.274      60.727
2015    3       19     7  31    5.3622   576.6    4.270      60.683
2015    3       19     7  36    5.3582   576.7    4.265      60.641
2015    3       19     7  42    5.3542   576.7    4.261      60.599
2015    3       19     7  47    5.3502   576.7    4.257      60.557
2015    3       19     7  53    5.3463   576.7    4.252      60.517
2015    3       19     7  59    5.3424   576.7    4.249      60.477
2015    3       19     8   4    5.3385   576.7    4.245      60.438
2015    3       19     8  10    5.3347   576.7    4.241      60.400
2015    3       19     8  15    5.3309   576.7    4.238      60.363
2015    3       19     8  21    5.3271   576.7    4.234      60.327
2015    3       19     8  26    5.3234   576.7    4.231      60.292
2015    3       19     8  32    5.3198   576.7    4.228      60.258
2015    3       19     8  37    5.3162   576.7    4.226      60.224
2015    3       19     8  43    5.3126   576.7    4.223      60.192
2015    3       19     8  48    5.3092   576.7    4.221      60.161
2015    3       19     8  54    5.3057   576.7    4.218      60.131
2015    3       19     8  59    5.3024   576.7    4.216      60.102
2015    3       19     9   5    5.2991   576.7    4.215      60.074
2015    3       19     9  10    5.2958   576.7    4.213      60.047
2015    3       19     9  16    5.2926   576.7    4.211      60.021
2015    3       19     9  21    5.2894   576.6    4.210      59.995
2015    3       19     9  27    5.2863   576.6    4.209      59.971
2015    3       19     9  32    5.2833   576.6    4.208      59.947
2015    3       19     9  38    5.2802   576.6    4.207      59.924
2015    3       19     9  44    5.2772   576.6    4.206      59.901
2015    3       19     9  49    5.2742   576.6    4.205      59.878
2015    3       19     9  55    5.2711   576.6    4.204      59.855
2015    3       19    10   0    5.2681   576.6    4.202      59.833
2015    3       19    10   6    5.2650   576.6    4.201      59.809
2015    3       19    10  11    5.2619   576.6    4.200      59.785
2015    3       19    10  17    5.2589   576.6    4.198      59.760
2015    3       19    10  22    5.2557   576.6    4.197      59.734
2015    3       19    10  28    5.2526   576.6    4.195      59.707
2015    3       19    10  33    5.2495   576.6    4.194      59.680
2015    3       19    10  39    5.2463   576.6    4.192      59.652
2015    3       19    10  44    5.2432   576.6    4.190      59.624
2015    3       19    10  50    5.2400   576.6    4.188      59.595
2015    3       19    10  55    5.2368   576.6    4.186      59.566
2015    3       19    11   1    5.2337   576.6    4.184      59.536
2015    3       19    11   6    5.2305   576.6    4.182      59.506
2015    3       19    11  12    5.2273   576.6    4.180      59.475
2015    3       19    11  18    5.2241   576.6    4.178      59.444
2015    3       19    11  23    5.2210   576.6    4.176      59.413
2015    3       19    11  29    5.2178   576.6    4.174      59.382
2015    3       19    11  34    5.2146   576.5    4.172      59.351
2015    3       19    11  40    5.2115   576.5    4.170      59.319
2015    3       19    11  45    5.2084   576.5    4.167      59.287
2015    3       19    11  51    5.2052   576.5    4.165      59.255
2015    3       19    11  56    5.2021   576.5    4.163      59.223
2015    3       19    12   2    5.1989   576.5    4.161      59.191
2015    3       19    12   7    5.1958   576.5    4.159      59.158
2015    3       19    12  13    5.1927   576.5    4.157      59.126
2015    3       19    12  18    5.1896   576.5    4.154      59.093
2015    3       19    12  24    5.1865   576.5    4.152      59.061
2015    3       19    12  29    5.1834   576.5    4.150      59.028
2015    3       19    12  35    5.1804   576.5    4.148      58.996
2015    3       19    12  40    5.1773   576.5    4.146      58.963
2015    3       19    12  46    5.1742   576.4    4.144      58.930
2015    3       19    12  51    5.1712   576.4    4.142      58.898
2015    3       19    12  57    5.1682   576.4    4.139      58.865
2015    3       19    13   3    5.1651   576.4    4.137      58.832
2015    3       19    13   8    5.1621   576.4    4.135      58.799
2015    3       19    13  14    5.1591   576.4    4.133      58.767
2015    3       19    13  19    5.1561   576.4    4.131      58.734
2015    3       19    13  25    5.1531   576.4    4.129      58.701
2015    3       19    13  30    5.1502   576.3    4.127      58.668
2015    3       19    13  36    5.1472   576.3    4.125      58.635
2015    3       19    13  41    5.1442   576.3    4.123      58.602
2015    3       19    13  47    5.1413   576.3    4.121      58.569
2015    3       19    13  52    5.1383   576.3    4.119      58.536
2015    3       19    13  58    5.1354   576.3    4.117      58.502
2015    3       19    14   3    5.1325   576.2    4.115      58.469
2015    3       19    14   9    5.1296   576.2    4.113      58.435
2015    3       19    14  14    5.1266   576.2    4.111      58.402
2015    3       19    14  20    5.1238   576.2    4.109      58.368
2015    3       19    14  25    5.1209   576.1    4.107      58.335
2015    3       19    14  31    5.1180   576.1    4.105      58.301
2015    3       19    14  36    5.1151   576.1    4.103      58.267
2015    3       19    14  42    5.1123   576.1    4.101      58.233
2015    3       19    14  48    5.1095   576.0    4.099      58.200
2015    3       19    14  53    5.1067   576.0    4.097      58.166
2015    3       19    14  59    5.1039   576.0    4.095      58.133
2015    3       19    15   4    5.1012   575.9    4.093      58.099
2015    3       19    15  10    5.0984   575.9    4.092      58.065
2015    3       19    15  15    5.0957   575.8    4.090      58.032
2015    3       19    15  21    5.0930   575.8    4.088      57.999
2015    3       19    15  26    5.0904   575.8    4.086      57.966
2015    3       19    15  32    5.0877   575.7    4.084      57.933
2015    3       19    15  37    5.0851   575.7    4.083      57.900
2015    3       19    15  43    5.0826   575.6    4.081      57.867
2015    3       19    15  48    5.0800   575.6    4.079      57.835
2015    3       19    15  54    5.0775   575.6    4.077      57.803
2015    3       19    15  59    5.0750   575.5    4.076      57.770
2015    3       19    16   5    5.0725   575.5    4.074      57.739
2015    3       19    16  10    5.0701   575.4    4.073      57.707
2015    3       19    16  16    5.0677   575.4    4.071      57.675
2015    3       19    16  21    5.0653   575.3    4.069      57.644
2015    3       19    16  27    5.0630   575.3    4.068      57.613
2015    3       19    16  33    5.0606   575.2    4.066      57.582
2015    3       19    16  38    5.0583   575.2    4.065      57.551
2015    3       19    16  44    5.0561   575.1    4.064      57.520
2015    3       19    16  49    5.0538   575.1    4.062      57.489
2015    3       19    16  55    5.0516   575.0    4.061      57.459
2015    3       19    17   0    5.0493   575.0    4.059      57.428
2015    3       19    17   6    5.0471   574.9    4.058      57.398
2015    3       19    17  11    5.0450   574.8    4.057      57.367
2015    3       19    17  17    5.0428   574.8    4.055      57.337
2015    3       19    17  22    5.0406   574.7    4.054      57.307
2015    3       19    17  28    5.0385   574.7    4.053      57.277
2015    3       19    17  33    5.0364   574.6    4.051      57.247
2015    3       19    17  39    5.0343   574.6    4.050      57.217
2015    3       19    17  44    5.0321   574.5    4.049      57.187
2015    3       19    17  50    5.0301   574.4    4.048      57.157
2015    3       19    17  55    5.0280   574.4    4.046      57.127
2015    3       19    18   1    5.0259   574.3    4.045      57.097
2015    3       19    18   6    5.0239   574.3    4.044      57.067
2015    3       19    18  12    5.0219   574.2    4.043      57.038
2015    3       19    18  18    5.0199   574.2    4.042      57.008
2015    3       19    18  23    5.0179   574.1    4.040      56.978
2015    3       19    18  29    5.0159   574.0    4.039      56.948
2015    3       19    18  34    5.0139   574.0    4.038      56.918
2015    3       19    18  40    5.0120   573.9    4.037      56.889
2015    3       19    18  45    5.0100   573.9    4.036      56.859
2015    3       19    18  51    5.0081   573.8    4.035      56.829
2015    3       19    18  56    5.0062   573.7    4.034      56.799
2015    3       19    19   2    5.0043   573.7    4.033      56.769
2015    3       19    19   7    5.0024   573.6    4.032      56.739
2015    3       19    19  13    5.0005   573.6    4.031      56.710
2015    3       19    19  18    4.9986   573.5    4.030      56.680
2015    3       19    19  24    4.9968   573.4    4.029      56.650
2015    3       19    19  29    4.9949   573.4    4.029      56.620
2015    3       19    19  35    4.9931   573.3    4.028      56.591
2015    3       19    19  40    4.9912   573.3    4.027      56.561
2015    3       19    19  46    4.9894   573.2    4.026      56.531
2015    3       19    19  52    4.9876   573.1    4.025      56.502
2015    3       19    19  57    4.9858   573.1    4.025      56.473
2015    3       19    20   3    4.9840   573.0    4.024      56.443
2015    3       19    20   8    4.9821   573.0    4.023      56.414
2015    3       19    20  14    4.9804   572.9    4.023      56.385
2015    3       19    20  19    4.9786   572.8    4.022      56.356
2015    3       19    20  25    4.9768   572.8    4.022      56.328
2015    3       19    20  30    4.9750   572.7    4.021      56.299
2015    3       19    20  36    4.9733   572.7    4.021      56.271
2015    3       19    20  41    4.9715   572.6    4.021      56.242
2015    3       19    20  47    4.9698   572.5    4.020      56.215
2015    3       19    20  52    4.9680   572.5    4.020      56.187
2015    3       19    20  58    4.9663   572.4    4.020      56.159
2015    3       19    21   3    4.9646   572.4    4.020      56.132
2015    3       19    21   9    4.9629   572.3    4.019      56.105
2015    3       19    21  14    4.9612   572.2    4.019      56.078
2015    3       19    21  20    4.9595   572.2    4.019      56.051
2015    3       19    21  25    4.9578   572.1    4.019      56.025
2015    3       19    21  31    4.9561   572.1    4.019      55.998
2015    3       19    21  37    4.9544   572.0    4.019      55.972
2015    3       19    21  42    4.9527   571.9    4.019      55.946
2015    3       19    21  48    4.9511   571.9    4.019      55.920
2015    3       19    21  53    4.9494   571.8    4.019      55.895
2015    3       19    21  59    4.9477   571.7    4.019      55.869
2015    3       19    22   4    4.9461   571.7    4.019      55.844
2015    3       19    22  10    4.9444   571.6    4.019      55.819
2015    3       19    22  15    4.9428   571.5    4.019      55.794
2015    3       19    22  21    4.9412   571.5    4.020      55.769
2015    3       19    22  26    4.9396   571.4    4.020      55.744
2015    3       19    22  32    4.9379   571.3    4.020      55.719
2015    3       19    22  37    4.9363   571.3    4.020      55.695
2015    3       19    22  43    4.9347   571.2    4.020      55.671
2015    3       19    22  48    4.9331   571.1    4.020      55.647
2015    3       19    22  54    4.9315   571.1    4.020      55.623
2015    3       19    22  59    4.9300   571.0    4.020      55.599
2015    3       19    23   5    4.9284   570.9    4.020      55.575
2015    3       19    23  10    4.9268   570.9    4.020      55.551
2015    3       19    23  16    4.9253   570.8    4.020      55.528
2015    3       19    23  22    4.9237   570.7    4.020      55.504
2015    3       19    23  27    4.9222   570.6    4.020      55.480
2015    3       19    23  33    4.9207   570.6    4.020      55.457
2015    3       19    23  38    4.9191   570.5    4.020      55.434
2015    3       19    23  44    4.9176   570.4    4.020      55.411
2015    3       19    23  49    4.9162   570.3    4.020      55.388
2015    3       19    23  55    4.9147   570.2    4.020      55.365
2015    3       20     0   0    4.9132   570.2    4.019      55.343
2015    3       20     0   6    4.9118   570.1    4.019      55.320
2015    3       20     0  11    4.9104   570.0    4.019      55.298
2015    3       20     0  17    4.9090   569.9    4.018      55.276
2015    3       20     0  22    4.9077   569.9    4.018      55.254
2015    3       20     0  28    4.9063   569.8    4.018      55.233
2015    3       20     0  33    4.9050   569.7    4.017      55.211
2015    3       20     0  39    4.9037   569.6    4.017      55.190
2015    3       20     0  44    4.9024   569.5    4.016      55.168
2015    3       20     0  50    4.9011   569.5    4.016      55.147
2015    3       20     0  55    4.8999   569.4    4.016      55.126
2015    3       20     1   1    4.8987   569.3    4.015      55.104
2015    3       20     1   7    4.8975   569.2    4.015      55.082
2015    3       20     1  12    4.8963   569.2    4.014      55.060
2015    3       20     1  18    4.8951   569.1    4.014      55.038
2015    3       20     1  23    4.8940   569.0    4.013      55.016
2015    3       20     1  29    4.8929   568.9    4.013      54.993
2015    3       20     1  34    4.8918   568.8    4.012      54.971
2015    3       20     1  40    4.8907   568.8    4.011      54.947
2015    3       20     1  45    4.8896   568.7    4.011      54.924
2015    3       20     1  51    4.8886   568.6    4.010      54.901
2015    3       20     1  56    4.8876   568.5    4.010      54.877
2015    3       20     2   2    4.8865   568.4    4.009      54.853
2015    3       20     2   7    4.8856   568.4    4.009      54.828
2015    3       20     2  13    4.8846   568.3    4.008      54.804
2015    3       20     2  18    4.8836   568.2    4.007      54.779
2015    3       20     2  24    4.8827   568.1    4.007      54.753
2015    3       20     2  29    4.8817   568.0    4.006      54.728
2015    3       20     2  35    4.8808   568.0    4.005      54.702
2015    3       20     2  40    4.8799   567.9    4.005      54.675
2015    3       20     2  46    4.8790   567.8    4.004      54.649
2015    3       20     2  52    4.8781   567.7    4.004      54.622
2015    3       20     2  57    4.8772   567.6    4.003      54.595
2015    3       20     3   3    4.8763   567.6    4.002      54.568
2015    3       20     3   8    4.8754   567.5    4.002      54.540
2015    3       20     3  14    4.8745   567.4    4.001      54.512
2015    3       20     3  19    4.8736   567.3    4.000      54.484
2015    3       20     3  25    4.8728   567.2    4.000      54.456
2015    3       20     3  30    4.8719   567.2    3.999      54.428
2015    3       20     3  36    4.8711   567.1    3.999      54.400
2015    3       20     3  41    4.8702   567.0    3.998      54.372
2015    3       20     3  47    4.8694   566.9    3.998      54.343
2015    3       20     3  52    4.8685   566.8    3.997      54.315
2015    3       20     3  58    4.8677   566.7    3.997      54.286
2015    3       20     4   3    4.8669   566.7    3.996      54.258
2015    3       20     4   9    4.8661   566.6    3.996      54.230
2015    3       20     4  14    4.8653   566.5    3.995      54.202
2015    3       20     4  20    4.8644   566.4    3.995      54.174
2015    3       20     4  25    4.8636   566.3    3.995      54.146
2015    3       20     4  31    4.8628   566.2    3.995      54.119
2015    3       20     4  37    4.8620   566.2    3.995      54.091
2015    3       20     4  42    4.8613   566.1    3.994      54.064
2015    3       20     4  48    4.8605   566.0    3.994      54.038
2015    3       20     4  53    4.8597   565.9    3.994      54.011
2015    3       20     4  59    4.8589   565.8    3.995      53.985
2015    3       20     5   4    4.8581   565.7    3.995      53.959
2015    3       20     5  10    4.8573   565.6    3.995      53.934
2015    3       20     5  15    4.8566   565.5    3.995      53.909
2015    3       20     5  21    4.8558   565.5    3.996      53.885
2015    3       20     5  26    4.8550   565.4    3.996      53.861
2015    3       20     5  32    4.8543   565.3    3.997      53.838
2015    3       20     5  37    4.8535   565.2    3.997      53.815
2015    3       20     5  43    4.8527   565.1    3.998      53.793
2015    3       20     5  48    4.8520   565.0    3.999      53.771
2015    3       20     5  54    4.8512   564.9    4.000      53.750
2015    3       20     5  59    4.8504   564.8    4.000      53.730
2015    3       20     6   5    4.8497   564.7    4.001      53.710
2015    3       20     6  11    4.8489   564.6    4.002      53.691
2015    3       20     6  16    4.8482   564.5    4.004      53.672
2015    3       20     6  22    4.8475   564.5    4.005      53.654
2015    3       20     6  27    4.8467   564.4    4.006      53.637
2015    3       20     6  33    4.8460   564.3    4.007      53.621
2015    3       20     6  38    4.8453   564.2    4.008      53.605
2015    3       20     6  44    4.8446   564.1    4.010      53.590
2015    3       20     6  49    4.8440   564.0    4.011      53.575
2015    3       20     6  55    4.8433   563.9    4.012      53.561
2015    3       20     7   0    4.8427   563.8    4.013      53.548
2015    3       20     7   6    4.8421   563.7    4.015      53.535
2015    3       20     7  11    4.8414   563.6    4.016      53.522
2015    3       20     7  17    4.8408   563.5    4.017      53.510
2015    3       20     7  22    4.8403   563.5    4.019      53.498
2015    3       20     7  28    4.8397   563.4    4.020      53.485
2015    3       20     7  33    4.8391   563.3    4.021      53.473
2015    3       20     7  39    4.8386   563.2    4.022      53.461
2015    3       20     7  44    4.8380   563.1    4.023      53.448
2015    3       20     7  50    4.8375   563.0    4.024      53.435
2015    3       20     7  56    4.8370   562.9    4.025      53.422
2015    3       20     8   1    4.8365   562.8    4.026      53.408
2015    3       20     8   7    4.8361   562.7    4.027      53.395
2015    3       20     8  12    4.8356   562.6    4.028      53.381
2015    3       20     8  18    4.8352   562.6    4.029      53.366
2015    3       20     8  23    4.8348   562.5    4.030      53.351
2015    3       20     8  29    4.8344   562.4    4.030      53.336
2015    3       20     8  34    4.8340   562.3    4.031      53.321
2015    3       20     8  40    4.8336   562.2    4.031      53.305
2015    3       20     8  45    4.8333   562.1    4.032      53.288
2015    3       20     8  51    4.8330   562.0    4.033      53.272
2015    3       20     8  56    4.8327   561.9    4.033      53.255
2015    3       20     9   2    4.8324   561.8    4.034      53.238
2015    3       20     9   7    4.8321   561.7    4.034      53.220
2015    3       20     9  13    4.8319   561.6    4.034      53.203
2015    3       20     9  18    4.8317   561.6    4.035      53.184
2015    3       20     9  24    4.8315   561.5    4.035      53.166
2015    3       20     9  29    4.8313   561.4    4.035      53.147
2015    3       20     9  35    4.8312   561.3    4.035      53.128
2015    3       20     9  41    4.8310   561.2    4.036      53.109
2015    3       20     9  46    4.8309   561.1    4.036      53.089
2015    3       20     9  52    4.8308   561.0    4.036      53.069
2015    3       20     9  57    4.8307   560.9    4.036      53.049
2015    3       20    10   3    4.8306   560.8    4.036      53.029
2015    3       20    10   8    4.8306   560.7    4.036      53.008
2015    3       20    10  14    4.8305   560.6    4.036      52.988
2015    3       20    10  19    4.8304   560.6    4.036      52.967
2015    3       20    10  25    4.8304   560.5    4.036      52.946
2015    3       20    10  30    4.8304   560.4    4.036      52.925
2015    3       20    10  36    4.8304   560.3    4.036      52.903
2015    3       20    10  41    4.8303   560.2    4.036      52.882
2015    3       20    10  47    4.8303   560.1    4.036      52.861
2015    3       20    10  52    4.8303   560.0    4.036      52.839
2015    3       20    10  58    4.8303   559.9    4.036      52.818
2015    3       20    11   3    4.8304   559.8    4.036      52.797
2015    3       20    11   9    4.8304   559.7    4.036      52.776
2015    3       20    11  14    4.8304   559.6    4.037      52.755
2015    3       20    11  20    4.8305   559.5    4.037      52.734
2015    3       20    11  26    4.8305   559.4    4.037      52.714
2015    3       20    11  31    4.8306   559.3    4.037      52.694
2015    3       20    11  37    4.8307   559.2    4.038      52.674
2015    3       20    11  42    4.8308   559.1    4.038      52.654
2015    3       20    11  48    4.8309   559.0    4.039      52.636
2015    3       20    11  53    4.8311   558.9    4.039      52.618
2015    3       20    11  59    4.8312   558.8    4.040      52.600
2015    3       20    12   4    4.8313   558.7    4.041      52.584
2015    3       20    12  10    4.8315   558.6    4.042      52.568
2015    3       20    12  15    4.8317   558.5    4.043      52.553
2015    3       20    12  21    4.8319   558.4    4.044      52.539
2015    3       20    12  26    4.8321   558.3    4.045      52.526
2015    3       20    12  32    4.8323   558.2    4.046      52.514
2015    3       20    12  37    4.8325   558.1    4.048      52.504
2015    3       20    12  43    4.8327   558.0    4.049      52.494
2015    3       20    12  48    4.8330   557.9    4.051      52.485
2015    3       20    12  54    4.8332   557.9    4.052      52.477
2015    3       20    12  59    4.8334   557.8    4.054      52.469
2015    3       20    13   5    4.8337   557.7    4.056      52.462
2015    3       20    13  11    4.8339   557.6    4.058      52.455
2015    3       20    13  16    4.8342   557.5    4.060      52.448
2015    3       20    13  22    4.8345   557.4    4.062      52.442
2015    3       20    13  27    4.8348   557.3    4.064      52.437
2015    3       20    13  33    4.8351   557.2    4.066      52.431
2015    3       20    13  38    4.8354   557.1    4.068      52.426
2015    3       20    13  44    4.8357   557.0    4.070      52.421
2015    3       20    13  49    4.8361   556.9    4.072      52.417
2015    3       20    13  55    4.8364   556.9    4.075      52.412
2015    3       20    14   0    4.8368   556.8    4.077      52.408
2015    3       20    14   6    4.8371   556.7    4.079      52.404
2015    3       20    14  11    4.8375   556.6    4.082      52.400
2015    3       20    14  17    4.8379   556.5    4.084      52.396
2015    3       20    14  22    4.8383   556.4    4.086      52.392
2015    3       20    14  28    4.8387   556.3    4.088      52.389
2015    3       20    14  33    4.8391   556.2    4.091      52.385
2015    3       20    14  39    4.8396   556.1    4.093      52.381
2015    3       20    14  44    4.8400   556.1    4.095      52.377
2015    3       20    14  50    4.8405   556.0    4.098      52.373
2015    3       20    14  56    4.8409   555.9    4.100      52.369
2015    3       20    15   1    4.8414   555.8    4.102      52.365
2015    3       20    15   7    4.8419   555.7    4.104      52.361
2015    3       20    15  12    4.8425   555.6    4.106      52.357
2015    3       20    15  18    4.8430   555.5    4.108      52.353
2015    3       20    15  23    4.8436   555.4    4.110      52.349
2015    3       20    15  29    4.8443   555.3    4.112      52.344
2015    3       20    15  34    4.8449   555.2    4.114      52.340
2015    3       20    15  40    4.8456   555.1    4.116      52.336
2015    3       20    15  45    4.8463   555.1    4.118      52.332
2015    3       20    15  51    4.8471   555.0    4.121      52.328
2015    3       20    15  56    4.8479   554.9    4.123      52.325
2015    3       20    16   2    4.8487   554.8    4.125      52.321
2015    3       20    16   7    4.8496   554.7    4.127      52.318
2015    3       20    16  13    4.8505   554.6    4.129      52.315
2015    3       20    16  18    4.8515   554.5    4.131      52.312
2015    3       20    16  24    4.8525   554.5    4.133      52.309
2015    3       20    16  30    4.8536   554.4    4.135      52.307
2015    3       20    16  35    4.8547   554.3    4.137      52.305
2015    3       20    16  41    4.8558   554.2    4.139      52.304
2015    3       20    16  46    4.8570   554.1    4.141      52.302
2015    3       20    16  52    4.8582   554.0    4.143      52.301
2015    3       20    16  57    4.8594   554.0    4.145      52.300
2015    3       20    17   3    4.8607   553.9    4.147      52.300
2015    3       20    17   8    4.8619   553.8    4.150      52.299
2015    3       20    17  14    4.8632   553.7    4.152      52.299
2015    3       20    17  19    4.8645   553.7    4.154      52.299
2015    3       20    17  25    4.8658   553.6    4.156      52.299
2015    3       20    17  30    4.8670   553.5    4.158      52.299
2015    3       20    17  36    4.8683   553.5    4.161      52.300
2015    3       20    17  41    4.8696   553.4    4.163      52.300
2015    3       20    17  47    4.8709   553.3    4.165      52.301
2015    3       20    17  52    4.8722   553.3    4.167      52.302
2015    3       20    17  58    4.8735   553.2    4.169      52.303
2015    3       20    18   3    4.8748   553.1    4.172      52.304
2015    3       20    18   9    4.8761   553.1    4.174      52.306
2015    3       20    18  15    4.8774   553.0    4.176      52.307
2015    3       20    18  20    4.8787   553.0    4.178      52.309
2015    3       20    18  26    4.8800   552.9    4.181      52.311
2015    3       20    18  31    4.8814   552.8    4.183      52.314
2015    3       20    18  37    4.8827   552.8    4.185      52.316
2015    3       20    18  42    4.8840   552.7    4.188      52.319
2015    3       20    18  48    4.8854   552.7    4.190      52.322
2015    3       20    18  53    4.8867   552.6    4.193      52.326
2015    3       20    18  59    4.8881   552.5    4.195      52.331
2015    3       20    19   4    4.8895   552.5    4.198      52.336
2015    3       20    19  10    4.8909   552.4    4.200      52.343
2015    3       20    19  15    4.8923   552.4    4.203      52.350
2015    3       20    19  21    4.8937   552.3    4.206      52.358
2015    3       20    19  26    4.8951   552.3    4.209      52.368
2015    3       20    19  32    4.8966   552.2    4.212      52.378
2015    3       20    19  37    4.8980   552.2    4.215      52.390
2015    3       20    19  43    4.8994   552.2    4.218      52.403
2015    3       20    19  48    4.9009   552.1    4.221      52.417
2015    3       20    19  54    4.9023   552.1    4.224      52.431
2015    3       20    20   0    4.9037   552.1    4.227      52.447
2015    3       20    20   5    4.9052   552.0    4.230      52.463
2015    3       20    20  11    4.9066   552.0    4.232      52.480
2015    3       20    20  16    4.9081   552.0    4.235      52.496
2015    3       20    20  22    4.9095   551.9    4.238      52.513
2015    3       20    20  27    4.9109   551.9    4.241      52.530
2015    3       20    20  33    4.9124   551.9    4.244      52.547
2015    3       20    20  38    4.9138   551.8    4.247      52.564
2015    3       20    20  44    4.9153   551.8    4.250      52.580
2015    3       20    20  49    4.9167   551.8    4.252      52.596
2015    3       20    20  55    4.9181   551.8    4.255      52.611
2015    3       20    21   0    4.9195   551.7    4.257      52.625
2015    3       20    21   6    4.9209   551.7    4.260      52.640
2015    3       20    21  11    4.9223   551.7    4.263      52.654
2015    3       20    21  17    4.9237   551.7    4.265      52.667
2015    3       20    21  22    4.9251   551.6    4.267      52.681
2015    3       20    21  28    4.9265   551.6    4.270      52.694
2015    3       20    21  33    4.9279   551.6    4.272      52.707
2015    3       20    21  39    4.9293   551.6    4.274      52.719
2015    3       20    21  45    4.9307   551.5    4.277      52.732
2015    3       20    21  50    4.9321   551.5    4.279      52.744
2015    3       20    21  56    4.9335   551.5    4.281      52.756
2015    3       20    22   1    4.9349   551.4    4.283      52.768
2015    3       20    22   7    4.9363   551.4    4.285      52.780
2015    3       20    22  12    4.9378   551.4    4.288      52.792
2015    3       20    22  18    4.9392   551.4    4.290      52.804
2015    3       20    22  23    4.9407   551.3    4.292      52.817
2015    3       20    22  29    4.9422   551.3    4.294      52.829
2015    3       20    22  34    4.9438   551.3    4.297      52.842
2015    3       20    22  40    4.9453   551.2    4.299      52.855
2015    3       20    22  45    4.9469   551.2    4.302      52.869
2015    3       20    22  51    4.9486   551.2    4.304      52.883
2015    3       20    22  56    4.9502   551.1    4.307      52.898
2015    3       20    23   2    4.9520   551.1    4.310      52.914
2015    3       20    23   7    4.9538   551.1    4.313      52.930
2015    3       20    23  13    4.9556   551.0    4.316      52.948
2015    3       20    23  19    4.9575   551.0    4.319      52.968
2015    3       20    23  24    4.9594   551.0    4.322      52.989
2015    3       20    23  30    4.9614   550.9    4.326      53.011
2015    3       20    23  35    4.9635   550.9    4.330      53.034
2015    3       20    23  41    4.9656   550.9    4.333      53.059
2015    3       20    23  46    4.9677   550.9    4.337      53.086
2015    3       20    23  52    4.9699   550.9    4.341      53.115
2015    3       20    23  57    4.9722   550.8    4.345      53.145
2015    3       21     0   3    4.9744   550.8    4.349      53.176
2015    3       21     0   8    4.9766   550.8    4.353      53.209
2015    3       21     0  14    4.9789   550.9    4.356      53.242
2015    3       21     0  19    4.9811   550.9    4.360      53.274
2015    3       21     0  25    4.9833   550.9    4.363      53.306
2015    3       21     0  30    4.9854   550.9    4.367      53.336
2015    3       21     0  36    4.9876   550.9    4.370      53.365
2015    3       21     0  41    4.9897   550.9    4.373      53.394
2015    3       21     0  47    4.9917   550.9    4.376      53.422
2015    3       21     0  52    4.9938   551.0    4.378      53.449
2015    3       21     0  58    4.9958   551.0    4.381      53.475
2015    3       21     1   4    4.9977   551.0    4.384      53.501
2015    3       21     1   9    4.9997   551.0    4.386      53.526
2015    3       21     1  15    5.0016   551.1    4.388      53.550
2015    3       21     1  20    5.0035   551.1    4.391      53.574
2015    3       21     1  26    5.0054   551.1    4.393      53.597
2015    3       21     1  31    5.0073   551.1    4.395      53.620
2015    3       21     1  37    5.0091   551.2    4.397      53.642
2015    3       21     1  42    5.0109   551.2    4.399      53.664
2015    3       21     1  48    5.0127   551.3    4.401      53.685
2015    3       21     1  53    5.0145   551.3    4.403      53.706
2015    3       21     1  59    5.0163   551.3    4.404      53.727
2015    3       21     2   4    5.0181   551.4    4.406      53.748
2015    3       21     2  10    5.0199   551.4    4.408      53.768
2015    3       21     2  15    5.0216   551.4    4.409      53.788
2015    3       21     2  21    5.0234   551.5    4.411      53.809
2015    3       21     2  26    5.0251   551.5    4.412      53.828
2015    3       21     2  32    5.0268   551.6    4.414      53.848
2015    3       21     2  37    5.0285   551.6    4.415      53.868
2015    3       21     2  43    5.0302   551.7    4.417      53.888
2015    3       21     2  49    5.0319   551.7    4.418      53.908
2015    3       21     2  54    5.0336   551.8    4.419      53.928
2015    3       21     3   0    5.0353   551.8    4.421      53.949
2015    3       21     3   5    5.0370   551.8    4.422      53.969
2015    3       21     3  11    5.0387   551.9    4.423      53.989
2015    3       21     3  16    5.0404   551.9    4.424      54.010
2015    3       21     3  22    5.0420   552.0    4.426      54.031
2015    3       21     3  27    5.0437   552.0    4.427      54.053
2015    3       21     3  33    5.0454   552.1    4.428      54.074
2015    3       21     3  38    5.0471   552.1    4.429      54.096
2015    3       21     3  44    5.0487   552.2    4.430      54.118
2015    3       21     3  49    5.0504   552.2    4.431      54.139
2015    3       21     3  55    5.0520   552.3    4.432      54.160
2015    3       21     4   0    5.0537   552.4    4.433      54.181
2015    3       21     4   6    5.0553   552.4    4.434      54.202
2015    3       21     4  11    5.0569   552.5    4.436      54.223
2015    3       21     4  17    5.0585   552.5    4.437      54.243
2015    3       21     4  22    5.0601   552.6    4.438      54.264
2015    3       21     4  28    5.0617   552.6    4.439      54.285
2015    3       21     4  34    5.0633   552.7    4.440      54.306
2015    3       21     4  39    5.0649   552.7    4.441      54.327
2015    3       21     4  45    5.0666   552.8    4.442      54.348
2015    3       21     4  50    5.0681   552.8    4.443      54.369
2015    3       21     4  56    5.0697   552.9    4.444      54.390
2015    3       21     5   1    5.0713   553.0    4.445      54.412
2015    3       21     5   7    5.0729   553.0    4.447      54.433
2015    3       21     5  12    5.0744   553.1    4.448      54.455
2015    3       21     5  18    5.0760   553.1    4.449      54.476
2015    3       21     5  23    5.0775   553.2    4.450      54.498
2015    3       21     5  29    5.0790   553.3    4.452      54.519
2015    3       21     5  34    5.0806   553.3    4.453      54.541
2015    3       21     5  40    5.0821   553.4    4.454      54.563
2015    3       21     5  45    5.0836   553.4    4.456      54.584
2015    3       21     5  51    5.0851   553.5    4.457      54.606
2015    3       21     5  56    5.0866   553.6    4.459      54.629
2015    3       21     6   2    5.0882   553.6    4.460      54.652
2015    3       21     6   7    5.0897   553.7    4.462      54.676
2015    3       21     6  13    5.0913   553.7    4.463      54.700
2015    3       21     6  19    5.0928   553.8    4.465      54.725
2015    3       21     6  24    5.0944   553.8    4.467      54.751
2015    3       21     6  30    5.0960   553.9    4.469      54.777
2015    3       21     6  35    5.0976   554.0    4.471      54.805
2015    3       21     6  41    5.0992   554.0    4.473      54.834
2015    3       21     6  46    5.1008   554.1    4.475      54.864
2015    3       21     6  52    5.1025   554.1    4.477      54.896
2015    3       21     6  57    5.1042   554.2    4.480      54.928
2015    3       21     7   3    5.1059   554.2    4.482      54.961
2015    3       21     7   8    5.1076   554.3    4.485      54.996
2015    3       21     7  14    5.1093   554.4    4.487      55.032
2015    3       21     7  19    5.1111   554.4    4.490      55.069
2015    3       21     7  25    5.1128   554.5    4.492      55.107
2015    3       21     7  30    5.1145   554.6    4.494      55.147
2015    3       21     7  36    5.1161   554.7    4.496      55.187
2015    3       21     7  41    5.1178   554.8    4.498      55.226
2015    3       21     7  47    5.1194   554.9    4.499      55.264
2015    3       21     7  52    5.1209   554.9    4.501      55.301
2015    3       21     7  58    5.1224   555.0    4.502      55.337
2015    3       21     8   4    5.1239   555.1    4.503      55.371
2015    3       21     8   9    5.1253   555.2    4.504      55.405
2015    3       21     8  15    5.1267   555.3    4.505      55.437
2015    3       21     8  20    5.1281   555.4    4.505      55.468
2015    3       21     8  26    5.1294   555.5    4.506      55.497
2015    3       21     8  31    5.1307   555.6    4.506      55.526
2015    3       21     8  37    5.1320   555.7    4.506      55.553
2015    3       21     8  42    5.1333   555.8    4.506      55.579
2015    3       21     8  48    5.1345   555.9    4.506      55.605
2015    3       21     8  53    5.1357   556.0    4.506      55.629
2015    3       21     8  59    5.1369   556.0    4.505      55.653
2015    3       21     9   4    5.1380   556.1    4.505      55.677
2015    3       21     9  10    5.1392   556.2    4.505      55.699
2015    3       21     9  15    5.1403   556.3    4.504      55.721
2015    3       21     9  21    5.1415   556.4    4.504      55.743
2015    3       21     9  26    5.1426   556.5    4.503      55.764
2015    3       21     9  32    5.1437   556.6    4.503      55.785
2015    3       21     9  38    5.1449   556.7    4.502      55.805
2015    3       21     9  43    5.1460   556.8    4.501      55.825
2015    3       21     9  49    5.1471   556.9    4.501      55.845
2015    3       21     9  54    5.1482   557.0    4.500      55.865
2015    3       21    10   0    5.1493   557.1    4.499      55.885
2015    3       21    10   5    5.1504   557.2    4.499      55.905
2015    3       21    10  11    5.1515   557.3    4.498      55.925
2015    3       21    10  16    5.1526   557.4    4.497      55.945
2015    3       21    10  22    5.1537   557.5    4.497      55.965
2015    3       21    10  27    5.1548   557.6    4.496      55.985
2015    3       21    10  33    5.1559   557.7    4.495      56.005
2015    3       21    10  38    5.1570   557.8    4.495      56.025
2015    3       21    10  44    5.1580   558.0    4.494      56.044
2015    3       21    10  49    5.1590   558.1    4.494      56.063
2015    3       21    10  55    5.1601   558.2    4.493      56.081
2015    3       21    11   0    5.1611   558.3    4.492      56.100
2015    3       21    11   6    5.1620   558.4    4.492      56.118
2015    3       21    11  11    5.1630   558.5    4.491      56.136
2015    3       21    11  17    5.1639   558.6    4.491      56.153
2015    3       21    11  23    5.1649   558.7    4.490      56.170
2015    3       21    11  28    5.1658   558.9    4.490      56.188
2015    3       21    11  34    5.1667   559.0    4.489      56.205
2015    3       21    11  39    5.1676   559.1    4.489      56.222
2015    3       21    11  45    5.1685   559.2    4.489      56.240
2015    3       21    11  50    5.1694   559.3    4.488      56.257
2015    3       21    11  56    5.1703   559.4    4.488      56.275
2015    3       21    12   1    5.1711   559.6    4.488      56.292
2015    3       21    12   7    5.1719   559.7    4.488      56.309
2015    3       21    12  12    5.1728   559.8    4.487      56.327
2015    3       21    12  18    5.1736   559.9    4.487      56.345
2015    3       21    12  23    5.1744   560.0    4.487      56.363
2015    3       21    12  29    5.1753   560.2    4.487      56.381
2015    3       21    12  34    5.1761   560.3    4.487      56.400
2015    3       21    12  40    5.1768   560.4    4.487      56.419
2015    3       21    12  45    5.1776   560.5    4.487      56.438
2015    3       21    12  51    5.1784   560.7    4.487      56.457
2015    3       21    12  56    5.1791   560.8    4.487      56.476
2015    3       21    13   2    5.1799   560.9    4.487      56.496
2015    3       21    13   8    5.1806   561.0    4.487      56.515
2015    3       21    13  13    5.1813   561.2    4.487      56.535
2015    3       21    13  19    5.1819   561.3    4.487      56.556
2015    3       21    13  24    5.1826   561.4    4.487      56.577
2015    3       21    13  30    5.1833   561.6    4.487      56.598
2015    3       21    13  35    5.1840   561.7    4.486      56.621
2015    3       21    13  41    5.1846   561.8    4.486      56.644
2015    3       21    13  46    5.1852   561.9    4.486      56.669
2015    3       21    13  52    5.1859   562.1    4.486      56.694
2015    3       21    13  57    5.1865   562.2    4.486      56.721
2015    3       21    14   3    5.1871   562.3    4.485      56.750
2015    3       21    14   8    5.1876   562.5    4.485      56.780
2015    3       21    14  14    5.1882   562.6    4.484      56.811
2015    3       21    14  19    5.1887   562.7    4.483      56.843
2015    3       21    14  25    5.1891   562.9    4.482      56.875
2015    3       21    14  30    5.1896   563.0    4.481      56.907
2015    3       21    14  36    5.1900   563.1    4.480      56.938
2015    3       21    14  41    5.1903   563.3    4.479      56.968
2015    3       21    14  47    5.1907   563.4    4.477      56.998
2015    3       21    14  53    5.1910   563.5    4.476      57.026
2015    3       21    14  58    5.1913   563.6    4.474      57.054
2015    3       21    15   4    5.1915   563.8    4.472      57.080
2015    3       21    15   9    5.1917   563.9    4.471      57.106
2015    3       21    15  15    5.1920   564.0    4.469      57.130
2015    3       21    15  20    5.1921   564.2    4.467      57.153
2015    3       21    15  26    5.1923   564.3    4.465      57.176
2015    3       21    15  31    5.1925   564.4    4.463      57.197
2015    3       21    15  37    5.1926   564.5    4.461      57.217
2015    3       21    15  42    5.1927   564.7    4.459      57.237
2015    3       21    15  48    5.1928   564.8    4.457      57.256
2015    3       21    15  53    5.1929   564.9    4.455      57.273
2015    3       21    15  59    5.1929   565.0    4.452      57.291
2015    3       21    16   4    5.1930   565.2    4.450      57.307
2015    3       21    16  10    5.1930   565.3    4.448      57.323
2015    3       21    16  15    5.1931   565.4    4.446      57.339
2015    3       21    16  21    5.1931   565.6    4.443      57.354
2015    3       21    16  26    5.1931   565.7    4.441      57.368
2015    3       21    16  32    5.1931   565.8    4.439      57.382
2015    3       21    16  38    5.1931   565.9    4.437      57.396
2015    3       21    16  43    5.1932   566.1    4.434      57.410
2015    3       21    16  49    5.1932   566.2    4.432      57.423
2015    3       21    16  54    5.1932   566.3    4.430      57.437
2015    3       21    17   0    5.1932   566.4    4.428      57.450
2015    3       21    17   5    5.1932   566.6    4.426      57.464
2015    3       21    17  11    5.1932   566.7    4.424      57.477
2015    3       21    17  16    5.1932   566.8    4.422      57.491
2015    3       21    17  22    5.1932   567.0    4.420      57.504
2015    3       21    17  27    5.1932   567.1    4.418      57.518
2015    3       21    17  33    5.1931   567.2    4.416      57.531
2015    3       21    17  38    5.1931   567.4    4.414      57.544
2015    3       21    17  44    5.1930   567.5    4.412      57.557
2015    3       21    17  49    5.1929   567.6    4.410      57.569
2015    3       21    17  55    5.1928   567.8    4.408      57.581
2015    3       21    18   0    5.1926   567.9    4.407      57.593
2015    3       21    18   6    5.1924   568.1    4.405      57.606
2015    3       21    18  11    5.1922   568.2    4.403      57.618
2015    3       21    18  17    5.1920   568.3    4.401      57.630
2015    3       21    18  23    5.1917   568.5    4.399      57.643
2015    3       21    18  28    5.1913   568.6    4.398      57.656
2015    3       21    18  34    5.1910   568.8    4.396      57.669
2015    3       21    18  39    5.1905   568.9    4.394      57.683
2015    3       21    18  45    5.1901   569.1    4.392      57.697
2015    3       21    18  50    5.1896   569.2    4.390      57.710
2015    3       21    18  56    5.1890   569.4    4.388      57.723
2015    3       21    19   1    5.1885   569.6    4.385      57.734
2015    3       21    19   7    5.1878   569.7    4.383      57.745
2015    3       21    19  12    5.1872   569.9    4.381      57.755
2015    3       21    19  18    5.1865   570.0    4.378      57.763
2015    3       21    19  23    5.1857   570.2    4.375      57.771
2015    3       21    19  29    5.1850   570.3    4.373      57.778
2015    3       21    19  34    5.1842   570.5    4.370      57.784
2015    3       21    19  40    5.1834   570.6    4.367      57.789
2015    3       21    19  45    5.1825   570.8    4.364      57.794
2015    3       21    19  51    5.1817   570.9    4.361      57.798
2015    3       21    19  56    5.1808   571.1    4.358      57.801
2015    3       21    20   2    5.1799   571.2    4.355      57.804
2015    3       21    20   8    5.1789   571.3    4.353      57.806
2015    3       21    20  13    5.1780   571.5    4.350      57.809
2015    3       21    20  19    5.1770   571.6    4.347      57.811
2015    3       21    20  24    5.1761   571.8    4.344      57.812
2015    3       21    20  30    5.1751   571.9    4.341      57.814
2015    3       21    20  35    5.1741   572.0    4.338      57.816
2015    3       21    20  41    5.1731   572.2    4.335      57.818
2015    3       21    20  46    5.1721   572.3    4.333      57.821
2015    3       21    20  52    5.1711   572.4    4.330      57.825
2015    3       21    20  57    5.1701   572.6    4.327      57.828
2015    3       21    21   3    5.1690   572.7    4.325      57.833
2015    3       21    21   8    5.1680   572.8    4.322      57.838
2015    3       21    21  14    5.1669   572.9    4.319      57.845
2015    3       21    21  19    5.1658   573.1    4.317      57.852
2015    3       21    21  25    5.1646   573.2    4.314      57.861
2015    3       21    21  30    5.1634   573.4    4.311      57.871
2015    3       21    21  36    5.1622   573.5    4.308      57.882
2015    3       21    21  41    5.1609   573.6    4.305      57.892
2015    3       21    21  47    5.1596   573.8    4.301      57.901
2015    3       21    21  53    5.1583   573.9    4.298      57.909
2015    3       21    21  58    5.1569   574.0    4.295      57.915
2015    3       21    22   4    5.1555   574.1    4.291      57.921
2015    3       21    22   9    5.1540   574.3    4.288      57.925
2015    3       21    22  15    5.1525   574.4    4.284      57.929
2015    3       21    22  20    5.1510   574.5    4.280      57.931
2015    3       21    22  26    5.1495   574.7    4.276      57.933
2015    3       21    22  31    5.1480   574.8    4.273      57.933
2015    3       21    22  37    5.1464   574.9    4.269      57.933
2015    3       21    22  42    5.1449   575.0    4.265      57.932
2015    3       21    22  48    5.1433   575.1    4.261      57.930
2015    3       21    22  53    5.1418   575.3    4.257      57.928
2015    3       21    22  59    5.1402   575.4    4.253      57.925
2015    3       21    23   4    5.1386   575.5    4.249      57.921
2015    3       21    23  10    5.1370   575.6    4.246      57.916
2015    3       21    23  15    5.1354   575.7    4.242      57.911
2015    3       21    23  21    5.1338   575.8    4.238      57.906
2015    3       21    23  26    5.1321   575.9    4.234      57.900
2015    3       21    23  32    5.1305   576.1    4.230      57.893
2015    3       21    23  38    5.1288   576.2    4.226      57.886
2015    3       21    23  43    5.1272   576.3    4.222      57.879
2015    3       21    23  49    5.1254   576.4    4.218      57.871
2015    3       21    23  54    5.1237   576.5    4.214      57.862
2015    3       22     0   0    5.1220   576.6    4.210      57.854
2015    3       22     0   5    5.1203   576.7    4.207      57.844
2015    3       22     0  11    5.1185   576.8    4.203      57.835
2015    3       22     0  16    5.1167   576.9    4.199      57.825
2015    3       22     0  22    5.1150   577.0    4.195      57.814
2015    3       22     0  27    5.1132   577.1    4.191      57.803
2015    3       22     0  33    5.1114   577.2    4.187      57.792
2015    3       22     0  38    5.1096   577.3    4.183      57.780
2015    3       22     0  44    5.1078   577.4    4.180      57.768
2015    3       22     0  49    5.1059   577.4    4.176      57.756
2015    3       22     0  55    5.1041   577.5    4.172      57.743
2015    3       22     1   0    5.1023   577.6    4.168      57.730
2015    3       22     1   6    5.1004   577.7    4.165      57.717
2015    3       22     1  11    5.0986   577.8    4.161      57.703
2015    3       22     1  17    5.0967   577.9    4.158      57.690
2015    3       22     1  23    5.0948   578.0    4.154      57.676
2015    3       22     1  28    5.0930   578.1    4.151      57.662
2015    3       22     1  34    5.0911   578.1    4.147      57.649
2015    3       22     1  39    5.0892   578.2    4.144      57.636
2015    3       22     1  45    5.0873   578.3    4.141      57.623
2015    3       22     1  50    5.0853   578.4    4.137      57.610
2015    3       22     1  56    5.0834   578.5    4.134      57.598
2015    3       22     2   1    5.0814   578.6    4.131      57.586
2015    3       22     2   7    5.0794   578.7    4.127      57.574
2015    3       22     2  12    5.0775   578.8    4.124      57.561
2015    3       22     2  18    5.0755   578.9    4.120      57.547
2015    3       22     2  23    5.0735   579.0    4.117      57.533
2015    3       22     2  29    5.0714   579.0    4.113      57.518
2015    3       22     2  34    5.0694   579.1    4.109      57.502
2015    3       22     2  40    5.0673   579.2    4.106      57.485
2015    3       22     2  45    5.0652   579.3    4.102      57.468
2015    3       22     2  51    5.0631   579.4    4.098      57.449
2015    3       22     2  57    5.0610   579.5    4.094      57.429
2015    3       22     3   2    5.0588   579.6    4.090      57.408
2015    3       22     3   8    5.0567   579.6    4.086      57.387
2015    3       22     3  13    5.0545   579.7    4.082      57.365
2015    3       22     3  19    5.0523   579.8    4.078      57.341
2015    3       22     3  24    5.0501   579.9    4.074      57.317
2015    3       22     3  30    5.0479   579.9    4.070      57.293
2015    3       22     3  35    5.0457   580.0    4.066      57.267
2015    3       22     3  41    5.0434   580.1    4.062      57.241
2015    3       22     3  46    5.0412   580.1    4.057      57.214
2015    3       22     3  52    5.0389   580.2    4.053      57.187
2015    3       22     3  57    5.0366   580.2    4.049      57.158
2015    3       22     4   3    5.0343   580.3    4.045      57.129
2015    3       22     4   8    5.0320   580.4    4.040      57.100
2015    3       22     4  14    5.0297   580.4    4.036      57.070
2015    3       22     4  19    5.0274   580.5    4.032      57.039
2015    3       22     4  25    5.0251   580.5    4.028      57.008
2015    3       22     4  30    5.0227   580.5    4.024      56.975
2015    3       22     4  36    5.0204   580.6    4.020      56.943
2015    3       22     4  42    5.0180   580.6    4.016      56.910
2015    3       22     4  47    5.0157   580.6    4.012      56.877
2015    3       22     4  53    5.0133   580.7    4.008      56.843
2015    3       22     4  58    5.0110   580.7    4.004      56.809
2015    3       22     5   4    5.0086   580.7    4.000      56.775
2015    3       22     5   9    5.0063   580.7    3.996      56.740
2015    3       22     5  15    5.0039   580.8    3.992      56.706
2015    3       22     5  20    5.0016   580.8    3.989      56.672
2015    3       22     5  26    4.9993   580.8    3.985      56.639
2015    3       22     5  31    4.9971   580.8    3.982      56.605
2015    3       22     5  37    4.9948   580.8    3.978      56.573
2015    3       22     5  42    4.9926   580.8    3.975      56.540
2015    3       22     5  48    4.9904   580.8    3.972      56.509
2015    3       22     5  53    4.9882   580.8    3.969      56.477
2015    3       22     5  59    4.9861   580.8    3.967      56.447
2015    3       22     6   4    4.9840   580.8    3.964      56.417
2015    3       22     6  10    4.9819   580.8    3.961      56.388
2015    3       22     6  15    4.9798   580.8    3.959      56.360
2015    3       22     6  21    4.9778   580.8    3.956      56.332
2015    3       22     6  27    4.9758   580.8    3.954      56.306
2015    3       22     6  32    4.9738   580.8    3.952      56.279
2015    3       22     6  38    4.9719   580.8    3.950      56.254
2015    3       22     6  43    4.9699   580.8    3.948      56.229
2015    3       22     6  49    4.9680   580.8    3.946      56.204
2015    3       22     6  54    4.9661   580.8    3.944      56.179
2015    3       22     7   0    4.9642   580.8    3.942      56.155
2015    3       22     7   5    4.9623   580.8    3.940      56.131
2015    3       22     7  11    4.9604   580.7    3.938      56.106
2015    3       22     7  16    4.9585   580.7    3.936      56.082
2015    3       22     7  22    4.9566   580.7    3.935      56.057
2015    3       22     7  27    4.9547   580.7    3.933      56.031
2015    3       22     7  33    4.9527   580.7    3.931      56.004
2015    3       22     7  38    4.9508   580.7    3.929      55.977
2015    3       22     7  44    4.9489   580.6    3.927      55.949
2015    3       22     7  49    4.9469   580.6    3.924      55.921
2015    3       22     7  55    4.9450   580.6    3.922      55.892
2015    3       22     8   0    4.9430   580.6    3.920      55.862
2015    3       22     8   6    4.9410   580.6    3.918      55.832
2015    3       22     8  12    4.9391   580.5    3.916      55.801
2015    3       22     8  17    4.9371   580.5    3.914      55.770
2015    3       22     8  23    4.9352   580.5    3.912      55.738
2015    3       22     8  28    4.9332   580.5    3.910      55.706
2015    3       22     8  34    4.9313   580.4    3.908      55.674
2015    3       22     8  39    4.9294   580.4    3.906      55.641
2015    3       22     8  45    4.9274   580.4    3.904      55.608
2015    3       22     8  50    4.9255   580.3    3.902      55.575
2015    3       22     8  56    4.9236   580.3    3.900      55.542
2015    3       22     9   1    4.9217   580.3    3.898      55.509
2015    3       22     9   7    4.9198   580.3    3.896      55.476
2015    3       22     9  12    4.9180   580.2    3.894      55.442
2015    3       22     9  18    4.9161   580.2    3.892      55.408
2015    3       22     9  23    4.9143   580.2    3.890      55.375
2015    3       22     9  29    4.9125   580.1    3.888      55.341
2015    3       22     9  34    4.9107   580.1    3.886      55.307
2015    3       22     9  40    4.9088   580.1    3.885      55.273
2015    3       22     9  45    4.9070   580.0    3.883      55.238
2015    3       22     9  51    4.9052   580.0    3.881      55.203
2015    3       22     9  57    4.9035   580.0    3.879      55.167
2015    3       22    10   2    4.9017   579.9    3.877      55.131
2015    3       22    10   8    4.8999   579.9    3.875      55.094
2015    3       22    10  13    4.8981   579.9    3.873      55.057
2015    3       22    10  19    4.8963   579.8    3.871      55.019
2015    3       22    10  24    4.8945   579.8    3.868      54.981
2015    3       22    10  30    4.8927   579.8    3.866      54.942
2015    3       22    10  35    4.8909   579.7    3.864      54.904
2015    3       22    10  41    4.8891   579.7    3.862      54.865
2015    3       22    10  46    4.8873   579.7    3.860      54.826
2015    3       22    10  52    4.8855   579.6    3.858      54.786
2015    3       22    10  57    4.8837   579.6    3.856      54.746
2015    3       22    11   3    4.8819   579.5    3.854      54.707
2015    3       22    11   8    4.8802   579.5    3.852      54.667
2015    3       22    11  14    4.8784   579.4    3.849      54.627
2015    3       22    11  19    4.8766   579.4    3.847      54.587
2015    3       22    11  25    4.8749   579.3    3.845      54.547
2015    3       22    11  30    4.8732   579.3    3.843      54.507
2015    3       22    11  36    4.8714   579.2    3.841      54.467
2015    3       22    11  42    4.8697   579.2    3.839      54.427
2015    3       22    11  47    4.8680   579.1    3.837      54.386
2015    3       22    11  53    4.8663   579.0    3.836      54.346
2015    3       22    11  58    4.8647   579.0    3.834      54.307
2015    3       22    12   4    4.8630   578.9    3.832      54.267
2015    3       22    12   9    4.8614   578.8    3.830      54.227
2015    3       22    12  15    4.8597   578.8    3.829      54.188
2015    3       22    12  20    4.8582   578.7    3.827      54.149
2015    3       22    12  26    4.8566   578.6    3.826      54.111
2015    3       22    12  31    4.8550   578.5    3.824      54.073
2015    3       22    12  37    4.8535   578.5    3.823      54.036
2015    3       22    12  42    4.8520   578.4    3.822      53.999
2015    3       22    12  48    4.8505   578.3    3.821      53.963
2015    3       22    12  53    4.8491   578.2    3.820      53.928
2015    3       22    12  59    4.8477   578.1    3.819      53.894
2015    3       22    13   4    4.8463   578.1    3.818      53.860
2015    3       22    13  10    4.8450   578.0    3.818      53.828
2015    3       22    13  15    4.8437   577.9    3.817      53.796
2015    3       22    13  21    4.8425   577.8    3.817      53.765
2015    3       22    13  27    4.8413   577.7    3.816      53.735
2015    3       22    13  32    4.8401   577.6    3.816      53.706
2015    3       22    13  38    4.8390   577.6    3.816      53.679
2015    3       22    13  43    4.8379   577.5    3.816      53.651
2015    3       22    13  49    4.8368   577.4    3.816      53.625
2015    3       22    13  54    4.8358   577.3    3.816      53.599
2015    3       22    14   0    4.8348   577.2    3.816      53.574
2015    3       22    14   5    4.8338   577.1    3.816      53.549
2015    3       22    14  11    4.8329   577.0    3.817      53.525
2015    3       22    14  16    4.8319   577.0    3.817      53.501
2015    3       22    14  22    4.8310   576.9    3.817      53.477
2015    3       22    14  27    4.8301   576.8    3.817      53.453
2015    3       22    14  33    4.8292   576.7    3.818      53.428
2015    3       22    14  38    4.8282   576.6    3.818      53.403
2015    3       22    14  44    4.8272   576.5    3.818      53.377
2015    3       22    14  49    4.8263   576.5    3.818      53.350
2015    3       22    14  55    4.8253   576.4    3.817      53.323
2015    3       22    15   0    4.8243   576.3    3.817      53.295
2015    3       22    15   6    4.8232   576.2    3.817      53.266
2015    3       22    15  12    4.8222   576.1    3.817      53.237
2015    3       22    15  17    4.8212   576.0    3.817      53.207
2015    3       22    15  23    4.8201   576.0    3.816      53.176
2015    3       22    15  28    4.8191   575.9    3.816      53.146
2015    3       22    15  34    4.8180   575.8    3.816      53.115
2015    3       22    15  39    4.8170   575.7    3.815      53.083
2015    3       22    15  45    4.8159   575.6    3.815      53.051
2015    3       22    15  50    4.8148   575.5    3.815      53.020
2015    3       22    15  56    4.8138   575.5    3.814      52.987
2015    3       22    16   1    4.8127   575.4    3.814      52.955
2015    3       22    16   7    4.8116   575.3    3.814      52.922
2015    3       22    16  12    4.8105   575.2    3.813      52.889
2015    3       22    16  18    4.8095   575.1    3.813      52.856
2015    3       22    16  23    4.8084   575.0    3.812      52.823
2015    3       22    16  29    4.8073   575.0    3.812      52.790
2015    3       22    16  34    4.8062   574.9    3.811      52.757
2015    3       22    16  40    4.8052   574.8    3.811      52.724
2015    3       22    16  45    4.8041   574.7    3.811      52.691
2015    3       22    16  51    4.8030   574.6    3.810      52.657
2015    3       22    16  57    4.8020   574.5    3.810      52.624
2015    3       22    17   2    4.8009   574.4    3.809      52.591
2015    3       22    17   8    4.7999   574.4    3.809      52.558
2015    3       22    17  13    4.7988   574.3    3.808      52.525
2015    3       22    17  19    4.7978   574.2    3.808      52.492
2015    3       22    17  24    4.7967   574.1    3.807      52.459
2015    3       22    17  30    4.7957   574.0    3.807      52.426
2015    3       22    17  35    4.7947   573.9    3.806      52.393
2015    3       22    17  41    4.7937   573.8    3.806      52.361
2015    3       22    17  46    4.7926   573.7    3.805      52.328
2015    3       22    17  52    4.7916   573.7    3.805      52.295
2015    3       22    17  57    4.7906   573.6    3.804      52.263
2015    3       22    18   3    4.7896   573.5    3.803      52.230
2015    3       22    18   8    4.7887   573.4    3.803      52.198
2015    3       22    18  14    4.7877   573.3    3.802      52.166
2015    3       22    18  19    4.7867   573.2    3.802      52.133
2015    3       22    18  25    4.7858   573.1    3.801      52.101
2015    3       22    18  30    4.7848   573.0    3.800      52.069
2015    3       22    18  36    4.7839   572.9    3.800      52.037
2015    3       22    18  42    4.7830   572.8    3.799      52.005
2015    3       22    18  47    4.7820   572.7    3.799      51.973
2015    3       22    18  53    4.7811   572.6    3.798      51.942
2015    3       22    18  58    4.7802   572.5    3.797      51.910
2015    3       22    19   4    4.7794   572.4    3.797      51.879
2015    3       22    19   9    4.7785   572.3    3.796      51.847
2015    3       22    19  15    4.7777   572.2    3.796      51.816
2015    3       22    19  20    4.7768   572.1    3.795      51.785
2015    3       22    19  26    4.7760   572.0    3.794      51.754
2015    3       22    19  31    4.7752   571.9    3.794      51.724
2015    3       22    19  37    4.7744   571.8    3.793      51.693
2015    3       22    19  42    4.7736   571.7    3.793      51.662
2015    3       22    19  48    4.7729   571.6    3.792      51.632
2015    3       22    19  53    4.7722   571.5    3.792      51.602
2015    3       22    19  59    4.7715   571.4    3.791      51.571
2015    3       22    20   4    4.7708   571.3    3.790      51.541
2015    3       22    20  10    4.7701   571.2    3.790      51.511
2015    3       22    20  15    4.7695   571.1    3.789      51.481
2015    3       22    20  21    4.7688   571.0    3.789      51.451
2015    3       22    20  27    4.7682   570.9    3.788      51.421
2015    3       22    20  32    4.7676   570.8    3.788      51.392
2015    3       22    20  38    4.7671   570.7    3.787      51.362
2015    3       22    20  43    4.7665   570.6    3.787      51.332
2015    3       22    20  49    4.7660   570.5    3.787      51.303
2015    3       22    20  54    4.7655   570.4    3.786      51.273
2015    3       22    21   0    4.7650   570.3    3.786      51.244
2015    3       22    21   5    4.7645   570.1    3.785      51.214
2015    3       22    21  11    4.7641   570.0    3.785      51.185
2015    3       22    21  16    4.7637   569.9    3.784      51.155
2015    3       22    21  22    4.7632   569.8    3.784      51.126
2015    3       22    21  27    4.7628   569.7    3.784      51.097
2015    3       22    21  33    4.7624   569.6    3.783      51.068
2015    3       22    21  38    4.7621   569.5    3.783      51.039
2015    3       22    21  44    4.7617   569.4    3.782      51.010
2015    3       22    21  49    4.7613   569.3    3.782      50.981
2015    3       22    21  55    4.7610   569.2    3.782      50.952
2015    3       22    22   0    4.7607   569.0    3.782      50.923
2015    3       22    22   6    4.7603   568.9    3.781      50.895
2015    3       22    22  12    4.7600   568.8    3.781      50.867
2015    3       22    22  17    4.7597   568.7    3.781      50.839
2015    3       22    22  23    4.7594   568.6    3.780      50.810
2015    3       22    22  28    4.7591   568.5    3.780      50.783
2015    3       22    22  34    4.7589   568.4    3.780      50.755
2015    3       22    22  39    4.7586   568.3    3.780      50.728
2015    3       22    22  45    4.7583   568.2    3.780      50.701
2015    3       22    22  50    4.7580   568.1    3.780      50.674
2015    3       22    22  56    4.7578   567.9    3.780      50.647
2015    3       22    23   1    4.7575   567.8    3.779      50.620
2015    3       22    23   7    4.7572   567.7    3.779      50.594
2015    3       22    23  12    4.7570   567.6    3.779      50.568
2015    3       22    23  18    4.7567   567.5    3.779      50.542
2015    3       22    23  23    4.7565   567.4    3.779      50.516
2015    3       22    23  29    4.7562   567.3    3.779      50.490
2015    3       22    23  34    4.7560   567.2    3.779      50.465
2015    3       22    23  40    4.7557   567.1    3.780      50.440
2015    3       22    23  46    4.7554   566.9    3.780      50.415
2015    3       22    23  51    4.7552   566.8    3.780      50.390
2015    3       22    23  57    4.7549   566.7    3.780      50.366
2015    3       23     0   2    4.7547   566.6    3.780      50.341
2015    3       23     0   8    4.7544   566.5    3.780      50.317
2015    3       23     0  13    4.7542   566.4    3.781      50.294
2015    3       23     0  19    4.7540   566.3    3.781      50.270
2015    3       23     0  24    4.7537   566.2    3.781      50.247
2015    3       23     0  30    4.7535   566.0    3.782      50.225
2015    3       23     0  35    4.7533   565.9    3.782      50.202
2015    3       23     0  41    4.7531   565.8    3.783      50.180
2015    3       23     0  46    4.7529   565.7    3.783      50.159
2015    3       23     0  52    4.7527   565.6    3.784      50.137
2015    3       23     0  57    4.7525   565.5    3.785      50.116
2015    3       23     1   3    4.7524   565.4    3.785      50.096
2015    3       23     1   8    4.7522   565.3    3.786      50.076
2015    3       23     1  14    4.7521   565.1    3.787      50.056
2015    3       23     1  19    4.7520   565.0    3.788      50.036
2015    3       23     1  25    4.7518   564.9    3.789      50.017
2015    3       23     1  31    4.7517   564.8    3.790      49.998
2015    3       23     1  36    4.7516   564.7    3.791      49.980
2015    3       23     1  42    4.7516   564.6    3.792      49.961
2015    3       23     1  47    4.7515   564.5    3.794      49.943
2015    3       23     1  53    4.7515   564.4    3.795      49.925
2015    3       23     1  58    4.7514   564.2    3.796      49.907
2015    3       23     2   4    4.7514   564.1    3.798      49.890
2015    3       23     2   9    4.7513   564.0    3.799      49.872
2015    3       23     2  15    4.7513   563.9    3.800      49.855
2015    3       23     2  20    4.7513   563.8    3.802      49.837
2015    3       23     2  26    4.7513   563.7    3.803      49.820
2015    3       23     2  31    4.7513   563.6    3.805      49.803
2015    3       23     2  37    4.7514   563.5    3.807      49.785
2015    3       23     2  42    4.7514   563.4    3.808      49.768
2015    3       23     2  48    4.7514   563.3    3.810      49.750
2015    3       23     2  53    4.7514   563.1    3.811      49.733
2015    3       23     2  59    4.7514   563.0    3.813      49.715
2015    3       23     3   4    4.7514   562.9    3.814      49.697
2015    3       23     3  10    4.7514   562.8    3.816      49.678
2015    3       23     3  16    4.7514   562.7    3.817      49.660
2015    3       23     3  21    4.7514   562.6    3.818      49.641
2015    3       23     3  27    4.7514   562.5    3.820      49.621
2015    3       23     3  32    4.7514   562.4    3.821      49.601
2015    3       23     3  38    4.7514   562.3    3.822      49.581
2015    3       23     3  43    4.7514   562.1    3.823      49.561
2015    3       23     3  49    4.7514   562.0    3.824      49.541
2015    3       23     3  54    4.7514   561.9    3.826      49.520
2015    3       23     4   0    4.7515   561.8    3.827      49.500
2015    3       23     4   5    4.7515   561.7    3.828      49.479
2015    3       23     4  11    4.7515   561.6    3.829      49.459
2015    3       23     4  16    4.7515   561.5    3.830      49.438
2015    3       23     4  22    4.7516   561.3    3.831      49.417
2015    3       23     4  27    4.7516   561.2    3.832      49.397
2015    3       23     4  33    4.7516   561.1    3.833      49.376
2015    3       23     4  38    4.7517   561.0    3.834      49.355
2015    3       23     4  44    4.7517   560.9    3.835      49.335
2015    3       23     4  49    4.7518   560.8    3.837      49.315
2015    3       23     4  55    4.7518   560.6    3.838      49.294
2015    3       23     5   1    4.7519   560.5    3.839      49.275
2015    3       23     5   6    4.7519   560.4    3.840      49.255
2015    3       23     5  12    4.7519   560.3    3.842      49.236
2015    3       23     5  17    4.7519   560.2    3.843      49.216
2015    3       23     5  23    4.7520   560.0    3.845      49.198
2015    3       23     5  28    4.7520   559.9    3.846      49.179
2015    3       23     5  34    4.7520   559.8    3.848      49.161
2015    3       23     5  39    4.7520   559.7    3.849      49.144
2015    3       23     5  45    4.7521   559.6    3.851      49.126
2015    3       23     5  50    4.7521   559.4    3.853      49.110
2015    3       23     5  56    4.7522   559.3    3.855      49.094
2015    3       23     6   1    4.7522   559.2    3.857      49.078
2015    3       23     6   7    4.7523   559.1    3.860      49.063
2015    3       23     6  12    4.7524   558.9    3.862      49.049
2015    3       23     6  18    4.7525   558.8    3.865      49.035
2015    3       23     6  23    4.7526   558.7    3.867      49.022
2015    3       23     6  29    4.7528   558.6    3.870      49.010
2015    3       23     6  34    4.7529   558.5    3.873      48.999
2015    3       23     6  40    4.7531   558.3    3.875      48.988
2015    3       23     6  46    4.7533   558.2    3.878      48.977
2015    3       23     6  51    4.7535   558.1    3.881      48.967
2015    3       23     6  57    4.7538   558.0    3.884      48.958
2015    3       23     7   2    4.7540   557.9    3.887      48.949
2015    3       23     7   8    4.7543   557.7    3.890      48.940
2015    3       23     7  13    4.7546   557.6    3.893      48.931
2015    3       23     7  19    4.7549   557.5    3.896      48.923
2015    3       23     7  24    4.7552   557.4    3.898      48.914
2015    3       23     7  30    4.7555   557.3    3.901      48.904
2015    3       23     7  35    4.7558   557.2    3.903      48.894
2015    3       23     7  41    4.7561   557.1    3.906      48.883
2015    3       23     7  46    4.7564   556.9    3.908      48.871
2015    3       23     7  52    4.7567   556.8    3.910      48.859
2015    3       23     7  57    4.7570   556.7    3.912      48.846
2015    3       23     8   3    4.7573   556.6    3.914      48.832
2015    3       23     8   8    4.7577   556.5    3.916      48.819
2015    3       23     8  14    4.7580   556.4    3.917      48.804
2015    3       23     8  19    4.7584   556.3    3.919      48.790
2015    3       23     8  25    4.7588   556.2    3.921      48.775
2015    3       23     8  31    4.7592   556.1    3.922      48.760
2015    3       23     8  36    4.7596   556.0    3.924      48.744
2015    3       23     8  42    4.7600   555.8    3.925      48.728
2015    3       23     8  47    4.7604   555.7    3.927      48.712
2015    3       23     8  53    4.7609   555.6    3.928      48.695
2015    3       23     8  58    4.7614   555.5    3.929      48.678
2015    3       23     9   4    4.7619   555.4    3.931      48.661
2015    3       23     9   9    4.7624   555.3    3.932      48.644
2015    3       23     9  15    4.7629   555.2    3.933      48.626
2015    3       23     9  20    4.7634   555.1    3.934      48.608
2015    3       23     9  26    4.7640   555.0    3.935      48.590
2015    3       23     9  31    4.7646   554.9    3.937      48.572
2015    3       23     9  37    4.7651   554.8    3.938      48.554
2015    3       23     9  42    4.7657   554.7    3.939      48.536
2015    3       23     9  48    4.7663   554.6    3.940      48.517
2015    3       23     9  53    4.7670   554.5    3.941      48.499
2015    3       23     9  59    4.7676   554.4    3.942      48.481
2015    3       23    10   4    4.7683   554.3    3.943      48.463
2015    3       23    10  10    4.7689   554.1    3.944      48.444
2015    3       23    10  16    4.7696   554.0    3.946      48.427
2015    3       23    10  21    4.7702   553.9    3.947      48.409
2015    3       23    10  27    4.7709   553.8    3.948      48.391
2015    3       23    10  32    4.7716   553.7    3.949      48.374
2015    3       23    10  38    4.7724   553.6    3.950      48.357
2015    3       23    10  43    4.7731   553.5    3.952      48.340
2015    3       23    10  49    4.7738   553.4    3.953      48.324
2015    3       23    10  54    4.7745   553.3    3.954      48.309
2015    3       23    11   0    4.7753   553.2    3.956      48.293
2015    3       23    11   5    4.7760   553.1    3.957      48.279
2015    3       23    11  11    4.7768   553.0    3.959      48.264
2015    3       23    11  16    4.7775   552.9    3.961      48.251
2015    3       23    11  22    4.7783   552.8    3.962      48.237
2015    3       23    11  27    4.7791   552.7    3.964      48.225
2015    3       23    11  33    4.7799   552.6    3.966      48.213
2015    3       23    11  38    4.7807   552.5    3.968      48.202
2015    3       23    11  44    4.7815   552.5    3.970      48.192
2015    3       23    11  49    4.7823   552.4    3.972      48.182
2015    3       23    11  55    4.7832   552.3    3.974      48.173
2015    3       23    12   1    4.7840   552.2    3.976      48.165
2015    3       23    12   6    4.7849   552.1    3.979      48.157
2015    3       23    12  12    4.7858   552.0    3.981      48.150
2015    3       23    12  17    4.7867   551.9    3.984      48.144
2015    3       23    12  23    4.7876   551.8    3.986      48.139
2015    3       23    12  28    4.7885   551.7    3.989      48.134
2015    3       23    12  34    4.7895   551.6    3.992      48.129
2015    3       23    12  39    4.7905   551.5    3.995      48.126
2015    3       23    12  45    4.7915   551.4    3.998      48.122
2015    3       23    12  50    4.7925   551.3    4.000      48.119
2015    3       23    12  56    4.7936   551.2    4.003      48.116
2015    3       23    13   1    4.7946   551.1    4.006      48.114
2015    3       23    13   7    4.7957   551.0    4.010      48.112
2015    3       23    13  12    4.7969   550.9    4.013      48.110
2015    3       23    13  18    4.7980   550.8    4.016      48.108
2015    3       23    13  23    4.7992   550.7    4.019      48.107
2015    3       23    13  29    4.8004   550.6    4.022      48.106
2015    3       23    13  34    4.8017   550.5    4.026      48.105
2015    3       23    13  40    4.8029   550.4    4.029      48.105
2015    3       23    13  46    4.8042   550.3    4.032      48.105
2015    3       23    13  51    4.8055   550.2    4.035      48.105
2015    3       23    13  57    4.8068   550.1    4.039      48.105
2015    3       23    14   2    4.8082   550.1    4.042      48.106
2015    3       23    14   8    4.8095   550.0    4.045      48.106
2015    3       23    14  13    4.8109   549.9    4.048      48.107
2015    3       23    14  19    4.8123   549.8    4.051      48.107
2015    3       23    14  24    4.8137   549.7    4.054      48.107
2015    3       23    14  30    4.8152   549.6    4.058      48.107
2015    3       23    14  35    4.8166   549.6    4.061      48.106
2015    3       23    14  41    4.8181   549.5    4.064      48.105
2015    3       23    14  46    4.8196   549.4    4.067      48.104
2015    3       23    14  52    4.8210   549.3    4.070      48.103
2015    3       23    14  57    4.8225   549.2    4.073      48.102
2015    3       23    15   3    4.8240   549.2    4.075      48.100
2015    3       23    15   8    4.8255   549.1    4.078      48.098
2015    3       23    15  14    4.8270   549.0    4.081      48.096
2015    3       23    15  20    4.8285   548.9    4.084      48.094
2015    3       23    15  25    4.8300   548.8    4.087      48.091
2015    3       23    15  31    4.8316   548.8    4.090      48.089
2015    3       23    15  36    4.8331   548.7    4.093      48.086
2015    3       23    15  42    4.8346   548.6    4.095      48.083
2015    3       23    15  47    4.8361   548.5    4.098      48.080
2015    3       23    15  53    4.8376   548.5    4.101      48.077
2015    3       23    15  58    4.8391   548.4    4.104      48.075
2015    3       23    16   4    4.8406   548.3    4.106      48.072
2015    3       23    16   9    4.8421   548.3    4.109      48.069
2015    3       23    16  15    4.8436   548.2    4.111      48.067
2015    3       23    16  20    4.8451   548.1    4.114      48.065
2015    3       23    16  26    4.8466   548.1    4.117      48.062
2015    3       23    16  31    4.8481   548.0    4.119      48.060
2015    3       23    16  37    4.8496   547.9    4.122      48.058
2015    3       23    16  42    4.8511   547.9    4.124      48.056
2015    3       23    16  48    4.8526   547.8    4.127      48.054
2015    3       23    16  53    4.8541   547.7    4.129      48.053
2015    3       23    16  59    4.8556   547.7    4.132      48.052
2015    3       23    17   5    4.8571   547.6    4.135      48.050
2015    3       23    17  10    4.8586   547.5    4.137      48.050
2015    3       23    17  16    4.8600   547.5    4.140      48.049
2015    3       23    17  21    4.8615   547.4    4.142      48.048
2015    3       23    17  27    4.8630   547.3    4.145      48.048
2015    3       23    17  32    4.8645   547.3    4.148      48.048
2015    3       23    17  38    4.8660   547.2    4.150      48.049
2015    3       23    17  43    4.8674   547.2    4.153      48.049
2015    3       23    17  49    4.8689   547.1    4.156      48.050
2015    3       23    17  54    4.8704   547.1    4.159      48.052
2015    3       23    18   0    4.8719   547.0    4.161      48.053
2015    3       23    18   5    4.8733   546.9    4.164      48.055
2015    3       23    18  11    4.8748   546.9    4.167      48.057
2015    3       23    18  16    4.8763   546.8    4.170      48.060
2015    3       23    18  22    4.8777   546.8    4.172      48.063
2015    3       23    18  27    4.8792   546.7    4.175      48.066
2015    3       23    18  33    4.8807   546.7    4.178      48.069
2015    3       23    18  38    4.8821   546.6    4.180      48.073
2015    3       23    18  44    4.8836   546.6    4.183      48.078
2015    3       23    18  50    4.8851   546.5    4.186      48.083
2015    3       23    18  55    4.8865   546.5    4.188      48.088
2015    3       23    19   1    4.8880   546.4    4.191      48.093
2015    3       23    19   6    4.8895   546.4    4.193      48.099
2015    3       23    19  12    4.8910   546.3    4.196      48.105
2015    3       23    19  17    4.8924   546.3    4.198      48.110
2015    3       23    19  23    4.8939   546.2    4.201      48.116
2015    3       23    19  28    4.8954   546.2    4.203      48.121
2015    3       23    19  34    4.8969   546.1    4.205      48.127
2015    3       23    19  39    4.8984   546.1    4.208      48.132
2015    3       23    19  45    4.9000   546.0    4.210      48.138
2015    3       23    19  50    4.9015   546.0    4.213      48.144
2015    3       23    19  56    4.9030   545.9    4.215      48.150
2015    3       23    20   1    4.9046   545.9    4.218      48.156
2015    3       23    20   7    4.9062   545.8    4.220      48.163
2015    3       23    20  12    4.9078   545.8    4.222      48.169
2015    3       23    20  18    4.9094   545.8    4.225      48.176
2015    3       23    20  23    4.9110   545.7    4.227      48.183
2015    3       23    20  29    4.9126   545.7    4.230      48.190
2015    3       23    20  35    4.9143   545.6    4.232      48.197
2015    3       23    20  40    4.9159   545.6    4.234      48.204
2015    3       23    20  46    4.9176   545.5    4.237      48.211
2015    3       23    20  51    4.9193   545.5    4.239      48.218
2015    3       23    20  57    4.9211   545.5    4.242      48.225
2015    3       23    21   2    4.9228   545.4    4.244      48.231
2015    3       23    21   8    4.9245   545.4    4.247      48.238
2015    3       23    21  13    4.9263   545.4    4.249      48.245
2015    3       23    21  19    4.9281   545.3    4.252      48.252
2015    3       23    21  24    4.9299   545.3    4.254      48.259
2015    3       23    21  30    4.9318   545.2    4.257      48.266
2015    3       23    21  35    4.9336   545.2    4.259      48.274
2015    3       23    21  41    4.9355   545.2    4.262      48.282
2015    3       23    21  46    4.9374   545.1    4.264      48.290
2015    3       23    21  52    4.9392   545.1    4.266      48.298
2015    3       23    21  57    4.9411   545.1    4.269      48.306
2015    3       23    22   3    4.9430   545.1    4.271      48.315
2015    3       23    22   8    4.9449   545.0    4.273      48.324
2015    3       23    22  14    4.9467   545.0    4.276      48.333
2015    3       23    22  20    4.9485   545.0    4.278      48.341
2015    3       23    22  25    4.9504   544.9    4.280      48.349
2015    3       23    22  31    4.9522   544.9    4.282      48.356
2015    3       23    22  36    4.9540   544.9    4.284      48.363
2015    3       23    22  42    4.9558   544.9    4.286      48.369
2015    3       23    22  47    4.9576   544.8    4.288      48.375
2015    3       23    22  53    4.9593   544.8    4.290      48.381
2015    3       23    22  58    4.9611   544.8    4.292      48.386
2015    3       23    23   4    4.9628   544.8    4.294      48.391
2015    3       23    23   9    4.9646   544.7    4.296      48.396
2015    3       23    23  15    4.9663   544.7    4.298      48.401
2015    3       23    23  20    4.9680   544.7    4.299      48.405
2015    3       23    23  26    4.9697   544.7    4.301      48.410
2015    3       23    23  31    4.9715   544.6    4.303      48.414
2015    3       23    23  37    4.9732   544.6    4.305      48.418
2015    3       23    23  42    4.9749   544.6    4.307      48.422
2015    3       23    23  48    4.9766   544.6    4.309      48.427
2015    3       23    23  53    4.9783   544.5    4.311      48.431
2015    3       23    23  59    4.9799   544.5    4.313      48.435
2015    3       24     0   5    4.9816   544.5    4.314      48.439
2015    3       24     0  10    4.9833   544.5    4.316      48.444
2015    3       24     0  16    4.9850   544.5    4.318      48.448
2015    3       24     0  21    4.9867   544.4    4.320      48.453
2015    3       24     0  27    4.9883   544.4    4.322      48.458
2015    3       24     0  32    4.9900   544.4    4.324      48.463
2015    3       24     0  38    4.9916   544.4    4.326      48.468
2015    3       24     0  43    4.9933   544.3    4.328      48.473
2015    3       24     0  49    4.9950   544.3    4.330      48.478
2015    3       24     0  54    4.9966   544.3    4.332      48.484
2015    3       24     1   0    4.9983   544.3    4.334      48.490
2015    3       24     1   5    4.9999   544.3    4.336      48.496
2015    3       24     1  11    5.0016   544.2    4.338      48.502
2015    3       24     1  16    5.0032   544.2    4.340      48.508
2015    3       24     1  22    5.0049   544.2    4.342      48.515
2015    3       24     1  27    5.0065   544.2    4.345      48.522
2015    3       24     1  33    5.0082   544.2    4.347      48.529
2015    3       24     1  38    5.0098   544.1    4.349      48.536
2015    3       24     1  44    5.0115   544.1    4.351      48.543
2015    3       24     1  50    5.0131   544.1    4.353      48.551
2015    3       24     1  55    5.0147   544.1    4.355      48.559
2015    3       24     2   1    5.0164   544.1    4.357      48.568
2015    3       24     2   6    5.0180   544.1    4.359      48.577
2015    3       24     2  12    5.0197   544.0    4.361      48.586
2015    3       24     2  17    5.0213   544.0    4.363      48.595
2015    3       24     2  23    5.0229   544.0    4.365      48.605
2015    3       24     2  28    5.0246   544.0    4.366      48.615
2015    3       24     2  34    5.0262   544.0    4.368      48.624
2015    3       24     2  39    5.0278   544.0    4.369      48.634
2015    3       24     2  45    5.0294   543.9    4.371      48.642
2015    3       24     2  50    5.0311   543.9    4.372      48.651
2015    3       24     2  56    5.0327   543.9    4.374      48.659
2015    3       24     3   1    5.0344   543.9    4.375      48.667
2015    3       24     3   7    5.0360   543.9    4.377      48.675
2015    3       24     3  12    5.0377   543.9    4.378      48.682
2015    3       24     3  18    5.0393   543.9    4.379      48.689
2015    3       24     3  23    5.0409   543.8    4.381      48.696
2015    3       24     3  29    5.0426   543.8    4.382      48.703
2015    3       24     3  35    5.0443   543.8    4.383      48.710
2015    3       24     3  40    5.0460   543.8    4.384      48.716
2015    3       24     3  46    5.0476   543.8    4.386      48.723
2015    3       24     3  51    5.0493   543.8    4.387      48.730
2015    3       24     3  57    5.0510   543.7    4.388      48.736
2015    3       24     4   2    5.0527   543.7    4.389      48.743
2015    3       24     4   8    5.0545   543.7    4.391      48.749
2015    3       24     4  13    5.0562   543.7    4.392      48.756
2015    3       24     4  19    5.0580   543.7    4.393      48.763
2015    3       24     4  24    5.0597   543.7    4.394      48.770
2015    3       24     4  30    5.0615   543.7    4.396      48.777
2015    3       24     4  35    5.0633   543.7    4.397      48.785
2015    3       24     4  41    5.0651   543.6    4.398      48.792
2015    3       24     4  46    5.0670   543.6    4.400      48.800
2015    3       24     4  52    5.0688   543.6    4.401      48.808
2015    3       24     4  57    5.0706   543.6    4.402      48.816
2015    3       24     5   3    5.0725   543.6    4.404      48.824
2015    3       24     5   8    5.0744   543.6    4.405      48.833
2015    3       24     5  14    5.0762   543.6    4.407      48.842
2015    3       24     5  20    5.0781   543.6    4.408      48.851
2015    3       24     5  25    5.0800   543.6    4.410      48.860
2015    3       24     5  31    5.0819   543.6    4.411      48.869
2015    3       24     5  36    5.0838   543.6    4.413      48.879
2015    3       24     5  42    5.0857   543.5    4.414      48.888
2015    3       24     5  47    5.0875   543.5    4.416      48.898
2015    3       24     5  53    5.0894   543.5    4.417      48.907
2015    3       24     5  58    5.0912   543.5    4.419      48.917
2015    3       24     6   4    5.0931   543.5    4.420      48.926
2015    3       24     6   9    5.0949   543.5    4.422      48.936
2015    3       24     6  15    5.0968   543.5    4.424      48.946
2015    3       24     6  20    5.0986   543.5    4.425      48.956
2015    3       24     6  26    5.1004   543.5    4.427      48.965
2015    3       24     6  31    5.1022   543.5    4.428      48.975
2015    3       24     6  37    5.1040   543.5    4.430      48.985
2015    3       24     6  42    5.1058   543.5    4.432      48.995
2015    3       24     6  48    5.1076   543.5    4.433      49.006
2015    3       24     6  54    5.1093   543.5    4.435      49.016
2015    3       24     6  59    5.1111   543.5    4.437      49.026
2015    3       24     7   5    5.1128   543.5    4.438      49.037
2015    3       24     7  10    5.1146   543.5    4.440      49.047
2015    3       24     7  16    5.1163   543.5    4.442      49.058
2015    3       24     7  21    5.1181   543.5    4.443      49.068
2015    3       24     7  27    5.1198   543.5    4.445      49.079
2015    3       24     7  32    5.1215   543.5    4.447      49.090
2015    3       24     7  38    5.1232   543.5    4.448      49.100
2015    3       24     7  43    5.1249   543.5    4.450      49.111
2015    3       24     7  49    5.1266   543.5    4.452      49.121
2015    3       24     7  54    5.1283   543.6    4.453      49.132
2015    3       24     8   0    5.1300   543.6    4.455      49.142
2015    3       24     8   5    5.1316   543.6    4.456      49.153
2015    3       24     8  11    5.1333   543.6    4.458      49.163
2015    3       24     8  16    5.1350   543.6    4.460      49.174
2015    3       24     8  22    5.1367   543.6    4.461      49.184
2015    3       24     8  27    5.1383   543.6    4.463      49.195
2015    3       24     8  33    5.1400   543.6    4.464      49.205
2015    3       24     8  39    5.1416   543.6    4.466      49.215
2015    3       24     8  44    5.1433   543.6    4.467      49.225
2015    3       24     8  50    5.1449   543.6    4.469      49.235
2015    3       24     8  55    5.1466   543.6    4.470      49.245
2015    3       24     9   1    5.1482   543.6    4.472      49.255
2015    3       24     9   6    5.1498   543.6    4.473      49.264
2015    3       24     9  12    5.1515   543.7    4.475      49.274
2015    3       24     9  17    5.1532   543.7    4.476      49.284
2015    3       24     9  23    5.1548   543.7    4.478      49.294
2015    3       24     9  28    5.1565   543.7    4.479      49.303
2015    3       24     9  34    5.1581   543.7    4.480      49.313
2015    3       24     9  39    5.1598   543.7    4.482      49.323
2015    3       24     9  45    5.1615   543.7    4.483      49.333
2015    3       24     9  50    5.1631   543.7    4.484      49.343
2015    3       24     9  56    5.1648   543.7    4.486      49.353
2015    3       24    10   1    5.1665   543.7    4.487      49.363
2015    3       24    10   7    5.1682   543.7    4.488      49.373
2015    3       24    10  12    5.1699   543.7    4.490      49.384
2015    3       24    10  18    5.1716   543.7    4.491      49.394
2015    3       24    10  24    5.1733   543.7    4.492      49.404
2015    3       24    10  29    5.1750   543.7    4.493      49.414
2015    3       24    10  35    5.1768   543.8    4.495      49.425
2015    3       24    10  40    5.1785   543.8    4.496      49.435
2015    3       24    10  46    5.1802   543.8    4.497      49.445
2015    3       24    10  51    5.1820   543.8    4.499      49.456
2015    3       24    10  57    5.1838   543.8    4.500      49.466
2015    3       24    11   2    5.1856   543.8    4.501      49.477
2015    3       24    11   8    5.1873   543.8    4.502      49.487
2015    3       24    11  13    5.1891   543.8    4.504      49.498
2015    3       24    11  19    5.1910   543.8    4.505      49.508
2015    3       24    11  24    5.1928   543.8    4.506      49.519
2015    3       24    11  30    5.1946   543.8    4.508      49.530
2015    3       24    11  35    5.1964   543.9    4.509      49.541
2015    3       24    11  41    5.1983   543.9    4.510      49.552
2015    3       24    11  46    5.2001   543.9    4.511      49.563
2015    3       24    11  52    5.2020   543.9    4.513      49.574
2015    3       24    11  57    5.2039   543.9    4.514      49.585
2015    3       24    12   3    5.2057   543.9    4.515      49.597
2015    3       24    12   9    5.2076   543.9    4.516      49.608
2015    3       24    12  14    5.2095   543.9    4.518      49.619
2015    3       24    12  20    5.2113   544.0    4.519      49.631
2015    3       24    12  25    5.2132   544.0    4.520      49.642
2015    3       24    12  31    5.2151   544.0    4.521      49.654
2015    3       24    12  36    5.2170   544.0    4.522      49.665
2015    3       24    12  42    5.2188   544.0    4.523      49.676
2015    3       24    12  47    5.2207   544.0    4.525      49.688
2015    3       24    12  53    5.2226   544.1    4.526      49.699
2015    3       24    12  58    5.2245   544.1    4.527      49.710
2015    3       24    13   4    5.2264   544.1    4.528      49.722
2015    3       24    13   9    5.2283   544.1    4.529      49.733
2015    3       24    13  15    5.2302   544.1    4.530      49.745
2015    3       24    13  20    5.2321   544.1    4.532      49.756
2015    3       24    13  26    5.2340   544.2    4.533      49.768
2015    3       24    13  31    5.2359   544.2    4.534      49.780
2015    3       24    13  37    5.2378   544.2    4.535      49.791
2015    3       24    13  42    5.2397   544.2    4.536      49.803
2015    3       24    13  48    5.2416   544.2    4.537      49.816
2015    3       24    13  54    5.2434   544.3    4.539      49.828
2015    3       24    13  59    5.2453   544.3    4.540      49.840
2015    3       24    14   5    5.2472   544.3    4.541      49.853
2015    3       24    14  10    5.2492   544.3    4.542      49.865
2015    3       24    14  16    5.2511   544.4    4.543      49.878
2015    3       24    14  21    5.2530   544.4    4.544      49.891
2015    3       24    14  27    5.2549   544.4    4.546      49.904
2015    3       24    14  32    5.2568   544.4    4.547      49.917
2015    3       24    14  38    5.2587   544.4    4.548      49.930
2015    3       24    14  43    5.2606   544.5    4.549      49.944
2015    3       24    14  49    5.2625   544.5    4.550      49.957
2015    3       24    14  54    5.2644   544.5    4.552      49.971
2015    3       24    15   0    5.2663   544.6    4.553      49.985
2015    3       24    15   5    5.2682   544.6    4.554      49.998
2015    3       24    15  11    5.2701   544.6    4.555      50.012
2015    3       24    15  16    5.2721   544.6    4.556      50.026
2015    3       24    15  22    5.2740   544.7    4.558      50.040
2015    3       24    15  28    5.2759   544.7    4.559      50.054
2015    3       24    15  33    5.2778   544.7    4.560      50.069
2015    3       24    15  39    5.2798   544.7    4.561      50.083
2015    3       24    15  44    5.2817   544.8    4.562      50.097
2015    3       24    15  50    5.2836   544.8    4.564      50.111
2015    3       24    15  55    5.2856   544.8    4.565      50.126
2015    3       24    16   1    5.2876   544.9    4.566      50.140
2015    3       24    16   6    5.2895   544.9    4.567      50.155
2015    3       24    16  12    5.2915   544.9    4.568      50.169
2015    3       24    16  17    5.2934   544.9    4.570      50.184
2015    3       24    16  23    5.2954   545.0    4.571      50.198
2015    3       24    16  28    5.2974   545.0    4.572      50.213
2015    3       24    16  34    5.2994   545.0    4.573      50.228
2015    3       24    16  39    5.3014   545.1    4.575      50.243
2015    3       24    16  45    5.3034   545.1    4.576      50.258
2015    3       24    16  50    5.3053   545.1    4.577      50.272
2015    3       24    16  56    5.3074   545.2    4.578      50.287
2015    3       24    17   1    5.3094   545.2    4.579      50.302
2015    3       24    17   7    5.3114   545.2    4.581      50.317
2015    3       24    17  13    5.3134   545.3    4.582      50.333
2015    3       24    17  18    5.3154   545.3    4.583      50.348
2015    3       24    17  24    5.3175   545.3    4.584      50.363
2015    3       24    17  29    5.3195   545.4    4.585      50.378
2015    3       24    17  35    5.3216   545.4    4.587      50.393
2015    3       24    17  40    5.3236   545.4    4.588      50.409
2015    3       24    17  46    5.3256   545.5    4.589      50.424
2015    3       24    17  51    5.3277   545.5    4.590      50.439
2015    3       24    17  57    5.3297   545.6    4.592      50.455
2015    3       24    18   2    5.3318   545.6    4.593      50.470
2015    3       24    18   8    5.3338   545.6    4.594      50.486
2015    3       24    18  13    5.3359   545.7    4.595      50.502
2015    3       24    18  19    5.3380   545.7    4.597      50.517
2015    3       24    18  24    5.3400   545.7    4.598      50.533
2015    3       24    18  30    5.3421   545.8    4.599      50.549
2015    3       24    18  35    5.3441   545.8    4.600      50.565
2015    3       24    18  41    5.3462   545.9    4.601      50.581
2015    3       24    18  46    5.3483   545.9    4.603      50.597
2015    3       24    18  52    5.3503   546.0    4.604      50.614
2015    3       24    18  58    5.3524   546.0    4.605      50.630
2015    3       24    19   3    5.3544   546.0    4.606      50.647
2015    3       24    19   9    5.3565   546.1    4.608      50.664
2015    3       24    19  14    5.3586   546.1    4.609      50.681
2015    3       24    19  20    5.3606   546.2    4.610      50.697
2015    3       24    19  25    5.3627   546.2    4.611      50.714
2015    3       24    19  31    5.3648   546.3    4.613      50.731
2015    3       24    19  36    5.3668   546.3    4.614      50.748
2015    3       24    19  42    5.3689   546.4    4.615      50.765
2015    3       24    19  47    5.3710   546.4    4.616      50.782
2015    3       24    19  53    5.3731   546.5    4.618      50.799
2015    3       24    19  58    5.3751   546.5    4.619      50.817
2015    3       24    20   4    5.3772   546.5    4.620      50.834
2015    3       24    20   9    5.3793   546.6    4.621      50.852
2015    3       24    20  15    5.3814   546.6    4.623      50.870
2015    3       24    20  20    5.3835   546.7    4.624      50.888
2015    3       24    20  26    5.3856   546.7    4.625      50.906
2015    3       24    20  31    5.3877   546.8    4.627      50.925
2015    3       24    20  37    5.3899   546.8    4.628      50.944
2015    3       24    20  43    5.3920   546.9    4.629      50.962
2015    3       24    20  48    5.3941   547.0    4.630      50.982
2015    3       24    20  54    5.3962   547.0    4.631      51.001
2015    3       24    20  59    5.3983   547.1    4.632      51.021
2015    3       24    21   5    5.4005   547.1    4.634      51.041
2015    3       24    21  10    5.4026   547.2    4.635      51.062
2015    3       24    21  16    5.4047   547.2    4.636      51.082
2015    3       24    21  21    5.4068   547.3    4.636      51.102
2015    3       24    21  27    5.4089   547.4    4.637      51.122
2015    3       24    21  32    5.4110   547.4    4.638      51.141
2015    3       24    21  38    5.4131   547.5    4.639      51.160
2015    3       24    21  43    5.4152   547.5    4.640      51.179
2015    3       24    21  49    5.4173   547.6    4.641      51.198
2015    3       24    21  54    5.4194   547.7    4.641      51.216
2015    3       24    22   0    5.4215   547.7    4.642      51.235
2015    3       24    22   5    5.4236   547.8    4.643      51.253
2015    3       24    22  11    5.4257   547.8    4.643      51.271
2015    3       24    22  16    5.4278   547.9    4.644      51.289
2015    3       24    22  22    5.4299   548.0    4.645      51.307
2015    3       24    22  28    5.4320   548.0    4.645      51.324
2015    3       24    22  33    5.4341   548.1    4.646      51.342
2015    3       24    22  39    5.4363   548.1    4.647      51.360
2015    3       24    22  44    5.4384   548.2    4.647      51.377
2015    3       24    22  50    5.4406   548.3    4.648      51.395
2015    3       24    22  55    5.4427   548.3    4.648      51.413
2015    3       24    23   1    5.4449   548.4    4.649      51.431
2015    3       24    23   6    5.4471   548.5    4.649      51.448
2015    3       24    23  12    5.4493   548.5    4.650      51.466
2015    3       24    23  17    5.4515   548.6    4.651      51.485
2015    3       24    23  23    5.4537   548.7    4.651      51.503
2015    3       24    23  28    5.4559   548.7    4.652      51.522
2015    3       24    23  34    5.4582   548.8    4.653      51.540
2015    3       24    23  39    5.4604   548.9    4.653      51.559
2015    3       24    23  45    5.4627   548.9    4.654      51.579
2015    3       24    23  50    5.4650   549.0    4.655      51.598
2015    3       24    23  56    5.4673   549.1    4.656      51.618
2015    3       25     0   2    5.4696   549.2    4.656      51.638
2015    3       25     0   7    5.4719   549.2    4.657      51.659
2015    3       25     0  13    5.4742   549.3    4.658      51.679
2015    3       25     0  18    5.4765   549.4    4.659      51.700
2015    3       25     0  24    5.4788   549.5    4.660      51.721
2015    3       25     0  29    5.4811   549.5    4.661      51.743
2015    3       25     0  35    5.4834   549.6    4.661      51.764
2015    3       25     0  40    5.4857   549.7    4.662      51.786
2015    3       25     0  46    5.4880   549.8    4.663      51.808
2015    3       25     0  51    5.4902   549.9    4.664      51.830
2015    3       25     0  57    5.4925   550.0    4.665      51.852
2015    3       25     1   2    5.4948   550.0    4.666      51.874
2015    3       25     1   8    5.4971   550.1    4.667      51.896
2015    3       25     1  13    5.4994   550.2    4.668      51.919
2015    3       25     1  19    5.5016   550.3    4.669      51.941
2015    3       25     1  24    5.5039   550.4    4.670      51.964
2015    3       25     1  30    5.5062   550.5    4.670      51.986
2015    3       25     1  35    5.5084   550.6    4.671      52.009
2015    3       25     1  41    5.5107   550.7    4.672      52.032
2015    3       25     1  47    5.5130   550.7    4.673      52.055
2015    3       25     1  52    5.5152   550.8    4.674      52.078
2015    3       25     1  58    5.5175   550.9    4.675      52.101
2015    3       25     2   3    5.5198   551.0    4.675      52.124
2015    3       25     2   9    5.5221   551.1    4.676      52.147
2015    3       25     2  14    5.5243   551.2    4.677      52.170
2015    3       25     2  20    5.5266   551.3    4.678      52.194
2015    3       25     2  25    5.5289   551.4    4.678      52.217
2015    3       25     2  31    5.5312   551.5    4.679      52.241
2015    3       25     2  36    5.5335   551.6    4.680      52.265
2015    3       25     2  42    5.5358   551.7    4.681      52.290
2015    3       25     2  47    5.5381   551.8    4.681      52.314
2015    3       25     2  53    5.5404   551.9    4.682      52.339
2015    3       25     2  58    5.5427   552.0    4.683      52.364
2015    3       25     3   4    5.5451   552.0    4.684      52.389
2015    3       25     3   9    5.5474   552.1    4.684      52.415
2015    3       25     3  15    5.5497   552.2    4.685      52.441
2015    3       25     3  20    5.5521   552.3    4.686      52.467
2015    3       25     3  26    5.5544   552.4    4.686      52.493
2015    3       25     3  32    5.5567   552.5    4.687      52.519
2015    3       25     3  37    5.5591   552.6    4.688      52.546
2015    3       25     3  43    5.5614   552.7    4.688      52.573
2015    3       25     3  48    5.5638   552.8    4.689      52.600
2015    3       25     3  54    5.5661   552.9    4.689      52.627
2015    3       25     3  59    5.5685   553.0    4.690      52.655
2015    3       25     4   5    5.5708   553.1    4.690      52.682
2015    3       25     4  10    5.5732   553.2    4.691      52.710
2015    3       25     4  16    5.5755   553.3    4.691      52.738
2015    3       25     4  21    5.5779   553.4    4.692      52.766
2015    3       25     4  27    5.5803   553.5    4.692      52.794
2015    3       25     4  32    5.5826   553.6    4.693      52.822
2015    3       25     4  38    5.5850   553.7    4.693      52.850
2015    3       25     4  43    5.5874   553.8    4.693      52.878
2015    3       25     4  49    5.5898   553.9    4.694      52.906
2015    3       25     4  54    5.5922   554.0    4.694      52.933
2015    3       25     5   0    5.5946   554.1    4.694      52.961
2015    3       25     5   5    5.5970   554.2    4.694      52.989
2015    3       25     5  11    5.5994   554.3    4.695      53.017
2015    3       25     5  17    5.6019   554.4    4.695      53.045
2015    3       25     5  22    5.6043   554.5    4.695      53.073
2015    3       25     5  28    5.6068   554.6    4.695      53.101
2015    3       25     5  33    5.6093   554.7    4.696      53.129
2015    3       25     5  39    5.6118   554.8    4.696      53.156
2015    3       25     5  44    5.6143   554.9    4.696      53.184
2015    3       25     5  50    5.6169   555.0    4.697      53.212
2015    3       25     5  55    5.6195   555.1    4.697      53.240
2015    3       25     6   1    5.6221   555.2    4.698      53.269
2015    3       25     6   6    5.6247   555.3    4.698      53.298
2015    3       25     6  12    5.6274   555.4    4.699      53.328
2015    3       25     6  17    5.6301   555.5    4.700      53.357
2015    3       25     6  23    5.6328   555.6    4.700      53.388
2015    3       25     6  28    5.6355   555.7    4.701      53.419
2015    3       25     6  34    5.6382   555.9    4.702      53.451
2015    3       25     6  39    5.6409   556.0    4.703      53.483
2015    3       25     6  45    5.6436   556.1    4.703      53.516
2015    3       25     6  51    5.6462   556.2    4.704      53.550
2015    3       25     6  56    5.6489   556.3    4.705      53.583
2015    3       25     7   2    5.6515   556.4    4.705      53.616
2015    3       25     7   7    5.6541   556.6    4.706      53.648
2015    3       25     7  13    5.6567   556.7    4.706      53.681
2015    3       25     7  18    5.6592   556.8    4.706      53.712
2015    3       25     7  24    5.6618   556.9    4.707      53.743
2015    3       25     7  29    5.6643   557.1    4.707      53.775
2015    3       25     7  35    5.6668   557.2    4.707      53.806
2015    3       25     7  40    5.6693   557.3    4.707      53.836
2015    3       25     7  46    5.6718   557.4    4.707      53.867
2015    3       25     7  51    5.6743   557.6    4.707      53.898
2015    3       25     7  57    5.6768   557.7    4.708      53.929
2015    3       25     8   2    5.6792   557.8    4.708      53.960
2015    3       25     8   8    5.6817   558.0    4.708      53.990
2015    3       25     8  13    5.6842   558.1    4.708      54.021
2015    3       25     8  19    5.6866   558.2    4.708      54.051
2015    3       25     8  24    5.6891   558.4    4.707      54.082
2015    3       25     8  30    5.6915   558.5    4.707      54.112
2015    3       25     8  36    5.6940   558.6    4.707      54.142
2015    3       25     8  41    5.6965   558.8    4.707      54.172
2015    3       25     8  47    5.6989   558.9    4.707      54.202
2015    3       25     8  52    5.7015   559.0    4.707      54.233
2015    3       25     8  58    5.7040   559.2    4.708      54.264
2015    3       25     9   3    5.7065   559.3    4.708      54.295
2015    3       25     9   9    5.7091   559.4    4.708      54.326
2015    3       25     9  14    5.7116   559.6    4.708      54.359
2015    3       25     9  20    5.7142   559.7    4.709      54.392
2015    3       25     9  25    5.7168   559.8    4.709      54.427
2015    3       25     9  31    5.7195   560.0    4.710      54.462
2015    3       25     9  36    5.7221   560.1    4.710      54.499
2015    3       25     9  42    5.7248   560.3    4.711      54.536
2015    3       25     9  47    5.7275   560.4    4.712      54.575
2015    3       25     9  53    5.7301   560.6    4.713      54.616
2015    3       25     9  58    5.7328   560.7    4.713      54.658
2015    3       25    10   4    5.7354   560.9    4.714      54.701
2015    3       25    10   9    5.7380   561.0    4.715      54.746
2015    3       25    10  15    5.7406   561.2    4.715      54.791
2015    3       25    10  21    5.7431   561.4    4.716      54.837
2015    3       25    10  26    5.7456   561.5    4.716      54.882
2015    3       25    10  32    5.7481   561.7    4.716      54.926
2015    3       25    10  37    5.7506   561.9    4.716      54.970
2015    3       25    10  43    5.7530   562.0    4.716      55.012
2015    3       25    10  48    5.7554   562.2    4.716      55.054
2015    3       25    10  54    5.7578   562.4    4.716      55.095
2015    3       25    10  59    5.7601   562.5    4.716      55.136
2015    3       25    11   5    5.7625   562.7    4.715      55.175
2015    3       25    11  10    5.7648   562.9    4.715      55.214
2015    3       25    11  16    5.7671   563.0    4.714      55.253
2015    3       25    11  21    5.7695   563.2    4.714      55.291
2015    3       25    11  27    5.7718   563.4    4.713      55.328
2015    3       25    11  32    5.7741   563.5    4.713      55.366
2015    3       25    11  38    5.7765   563.7    4.712      55.403
2015    3       25    11  43    5.7788   563.8    4.711      55.439
2015    3       25    11  49    5.7812   564.0    4.711      55.475
2015    3       25    11  54    5.7835   564.2    4.710      55.511
2015    3       25    12   0    5.7859   564.3    4.709      55.547
2015    3       25    12   6    5.7884   564.5    4.709      55.584
2015    3       25    12  11    5.7908   564.6    4.709      55.620
2015    3       25    12  17    5.7933   564.8    4.708      55.656
2015    3       25    12  22    5.7958   565.0    4.708      55.693
2015    3       25    12  28    5.7983   565.1    4.708      55.731
2015    3       25    12  33    5.8009   565.3    4.708      55.770
2015    3       25    12  39    5.8035   565.4    4.708      55.810
2015    3       25    12  44    5.8062   565.6    4.708      55.852
2015    3       25    12  50    5.8089   565.8    4.708      55.895
2015    3       25    12  55    5.8116   565.9    4.708      55.940
2015    3       25    13   1    5.8144   566.1    4.709      55.987
2015    3       25    13   6    5.8171   566.3    4.709      56.035
2015    3       25    13  12    5.8199   566.5    4.710      56.085
2015    3       25    13  17    5.8227   566.7    4.710      56.137
2015    3       25    13  23    5.8254   566.9    4.710      56.191
2015    3       25    13  28    5.8281   567.1    4.710      56.246
2015    3       25    13  34    5.8307   567.3    4.710      56.300
2015    3       25    13  39    5.8333   567.5    4.710      56.353
2015    3       25    13  45    5.8358   567.7    4.710      56.407
2015    3       25    13  51    5.8383   567.9    4.709      56.459
2015    3       25    13  56    5.8407   568.1    4.708      56.509
2015    3       25    14   2    5.8431   568.3    4.707      56.558
2015    3       25    14   7    5.8454   568.5    4.706      56.606
2015    3       25    14  13    5.8476   568.7    4.705      56.652
2015    3       25    14  18    5.8499   568.9    4.703      56.697
2015    3       25    14  24    5.8521   569.1    4.702      56.741
2015    3       25    14  29    5.8543   569.3    4.700      56.784
2015    3       25    14  35    5.8564   569.5    4.699      56.826
2015    3       25    14  40    5.8586   569.7    4.697      56.868
2015    3       25    14  46    5.8607   569.9    4.695      56.908
2015    3       25    14  51    5.8628   570.1    4.693      56.949
2015    3       25    14  57    5.8650   570.3    4.692      56.989
2015    3       25    15   2    5.8671   570.5    4.690      57.028
2015    3       25    15   8    5.8692   570.7    4.688      57.067
2015    3       25    15  13    5.8713   570.9    4.686      57.106
2015    3       25    15  19    5.8734   571.1    4.684      57.144
2015    3       25    15  25    5.8755   571.3    4.683      57.183
2015    3       25    15  30    5.8777   571.5    4.681      57.221
2015    3       25    15  36    5.8798   571.8    4.679      57.260
2015    3       25    15  41    5.8819   572.0    4.678      57.299
2015    3       25    15  47    5.8841   572.2    4.676      57.339
2015    3       25    15  52    5.8863   572.4    4.675      57.379
2015    3       25    15  58    5.8885   572.6    4.674      57.420
2015    3       25    16   3    5.8908   572.8    4.673      57.463
2015    3       25    16   9    5.8930   573.0    4.672      57.507
2015    3       25    16  14    5.8953   573.2    4.671      57.553
2015    3       25    16  20    5.8976   573.4    4.670      57.599
2015    3       25    16  25    5.8999   573.6    4.670      57.649
2015    3       25    16  31    5.9023   573.9    4.669      57.701
2015    3       25    16  36    5.9046   574.1    4.669      57.755
2015    3       25    16  42    5.9069   574.3    4.668      57.812
2015    3       25    16  47    5.9092   574.6    4.668      57.869
2015    3       25    16  53    5.9114   574.8    4.667      57.928
2015    3       25    16  58    5.9136   575.1    4.667      57.988
2015    3       25    17   4    5.9158   575.3    4.666      58.047
2015    3       25    17  10    5.9179   575.6    4.665      58.107
2015    3       25    17  15    5.9200   575.8    4.663      58.166
2015    3       25    17  21    5.9219   576.1    4.662      58.225
2015    3       25    17  26    5.9239   576.4    4.660      58.283
2015    3       25    17  32    5.9258   576.6    4.659      58.340
2015    3       25    17  37    5.9276   576.9    4.657      58.394
2015    3       25    17  43    5.9294   577.1    4.654      58.447
2015    3       25    17  48    5.9312   577.4    4.652      58.499
2015    3       25    17  54    5.9329   577.7    4.650      58.550
2015    3       25    17  59    5.9346   577.9    4.647      58.599
2015    3       25    18   5    5.9363   578.2    4.644      58.647
2015    3       25    18  10    5.9380   578.5    4.642      58.694
2015    3       25    18  16    5.9396   578.7    4.639      58.740
2015    3       25    18  21    5.9412   579.0    4.636      58.786
2015    3       25    18  27    5.9428   579.3    4.633      58.831
2015    3       25    18  32    5.9445   579.6    4.630      58.875
2015    3       25    18  38    5.9460   579.8    4.627      58.918
2015    3       25    18  43    5.9477   580.1    4.624      58.961
2015    3       25    18  49    5.9492   580.4    4.620      59.004
2015    3       25    18  55    5.9508   580.6    4.617      59.046
2015    3       25    19   0    5.9524   580.9    4.614      59.088
2015    3       25    19   6    5.9539   581.2    4.611      59.130
2015    3       25    19  11    5.9555   581.5    4.608      59.172
2015    3       25    19  17    5.9570   581.7    4.605      59.214
2015    3       25    19  22    5.9586   582.0    4.602      59.256
2015    3       25    19  28    5.9601   582.3    4.598      59.298
2015    3       25    19  33    5.9616   582.5    4.595      59.340
2015    3       25    19  39    5.9632   582.8    4.592      59.383
2015    3       25    19  44    5.9647   583.1    4.589      59.426
2015    3       25    19  50    5.9662   583.4    4.586      59.469
2015    3       25    19  55    5.9676   583.7    4.583      59.513
2015    3       25    20   1    5.9691   583.9    4.580      59.558
2015    3       25    20   6    5.9706   584.2    4.577      59.602
2015    3       25    20  12    5.9720   584.5    4.574      59.647
2015    3       25    20  17    5.9734   584.8    4.571      59.691
2015    3       25    20  23    5.9748   585.1    4.568      59.737
2015    3       25    20  28    5.9761   585.3    4.565      59.785
2015    3       25    20  34    5.9774   585.6    4.561      59.833
2015    3       25    20  40    5.9786   585.9    4.558      59.882
2015    3       25    20  45    5.9797   586.2    4.555      59.933
2015    3       25    20  51    5.9807   586.5    4.551      59.983
2015    3       25    20  56    5.9818   586.8    4.547      60.033
2015    3       25    21   2    5.9827   587.1    4.543      60.082
2015    3       25    21   7    5.9836   587.4    4.540      60.130
2015    3       25    21  13    5.9843   587.7    4.535      60.177
2015    3       25    21  18    5.9851   588.0    4.531      60.224
2015    3       25    21  24    5.9857   588.3    4.527      60.269
2015    3       25    21  29    5.9864   588.6    4.523      60.313
2015    3       25    21  35    5.9869   588.9    4.518      60.357
2015    3       25    21  40    5.9875   589.2    4.514      60.400
2015    3       25    21  46    5.9879   589.5    4.509      60.442
2015    3       25    21  51    5.9884   589.8    4.505      60.484
2015    3       25    21  57    5.9888   590.1    4.500      60.525
2015    3       25    22   2    5.9892   590.4    4.496      60.565
2015    3       25    22   8    5.9895   590.7    4.491      60.605
2015    3       25    22  14    5.9898   591.0    4.486      60.644
2015    3       25    22  19    5.9901   591.3    4.482      60.683
2015    3       25    22  25    5.9903   591.6    4.477      60.721
2015    3       25    22  30    5.9905   591.9    4.472      60.759
2015    3       25    22  36    5.9907   592.2    4.468      60.797
2015    3       25    22  41    5.9909   592.4    4.463      60.834
2015    3       25    22  47    5.9911   592.7    4.459      60.870
2015    3       25    22  52    5.9912   593.0    4.454      60.907
2015    3       25    22  58    5.9913   593.3    4.450      60.943
2015    3       25    23   3    5.9915   593.6    4.445      60.980
2015    3       25    23   9    5.9916   593.9    4.441      61.017
2015    3       25    23  14    5.9917   594.1    4.437      61.055
2015    3       25    23  20    5.9918   594.4    4.432      61.093
2015    3       25    23  25    5.9918   594.7    4.428      61.133
2015    3       25    23  31    5.9919   595.0    4.424      61.173
2015    3       25    23  36    5.9920   595.3    4.420      61.214
2015    3       25    23  42    5.9920   595.6    4.416      61.257
2015    3       25    23  47    5.9920   595.9    4.412      61.302
2015    3       25    23  53    5.9919   596.2    4.408      61.347
2015    3       25    23  59    5.9918   596.5    4.404      61.394
2015    3       26     0   4    5.9917   596.8    4.400      61.441
2015    3       26     0  10    5.9915   597.1    4.395      61.487
2015    3       26     0  15    5.9912   597.4    4.391      61.532
2015    3       26     0  21    5.9909   597.7    4.386      61.575
2015    3       26     0  26    5.9905   598.1    4.381      61.618
2015    3       26     0  32    5.9901   598.4    4.377      61.660
2015    3       26     0  37    5.9896   598.7    4.372      61.700
2015    3       26     0  43    5.9891   599.0    4.366      61.739
2015    3       26     0  48    5.9885   599.3    4.361      61.778
2015    3       26     0  54    5.9879   599.6    4.356      61.816
2015    3       26     0  59    5.9872   599.9    4.351      61.852
2015    3       26     1   5    5.9865   600.2    4.345      61.888
2015    3       26     1  10    5.9858   600.5    4.340      61.923
2015    3       26     1  16    5.9851   600.8    4.334      61.958
2015    3       26     1  21    5.9843   601.2    4.329      61.992
2015    3       26     1  27    5.9834   601.5    4.323      62.025
2015    3       26     1  32    5.9826   601.8    4.318      62.057
2015    3       26     1  38    5.9817   602.1    4.312      62.089
2015    3       26     1  44    5.9807   602.4    4.306      62.120
2015    3       26     1  49    5.9798   602.7    4.300      62.151
2015    3       26     1  55    5.9788   603.0    4.295      62.181
2015    3       26     2   0    5.9778   603.3    4.289      62.211
2015    3       26     2   6    5.9767   603.6    4.283      62.240
2015    3       26     2  11    5.9756   603.9    4.277      62.268
2015    3       26     2  17    5.9745   604.3    4.271      62.297
2015    3       26     2  22    5.9733   604.6    4.266      62.325
2015    3       26     2  28    5.9721   604.9    4.260      62.352
2015    3       26     2  33    5.9708   605.2    4.254      62.380
2015    3       26     2  39    5.9696   605.5    4.248      62.407
2015    3       26     2  44    5.9682   605.8    4.242      62.434
2015    3       26     2  50    5.9668   606.1    4.236      62.460
2015    3       26     2  55    5.9654   606.4    4.230      62.486
2015    3       26     3   1    5.9640   606.7    4.224      62.512
2015    3       26     3   6    5.9624   607.0    4.218      62.538
2015    3       26     3  12    5.9609   607.3    4.212      62.563
2015    3       26     3  18    5.9592   607.6    4.206      62.588
2015    3       26     3  23    5.9576   607.9    4.200      62.612
2015    3       26     3  29    5.9559   608.2    4.194      62.635
2015    3       26     3  34    5.9542   608.5    4.188      62.658
2015    3       26     3  40    5.9523   608.8    4.182      62.680
2015    3       26     3  45    5.9505   609.1    4.176      62.702
2015    3       26     3  51    5.9486   609.4    4.170      62.723
2015    3       26     3  56    5.9467   609.7    4.164      62.744
2015    3       26     4   2    5.9448   610.0    4.158      62.765
2015    3       26     4   7    5.9428   610.3    4.152      62.785
2015    3       26     4  13    5.9408   610.6    4.147      62.806
2015    3       26     4  18    5.9387   610.8    4.141      62.826
2015    3       26     4  24    5.9367   611.1    4.135      62.846
2015    3       26     4  29    5.9346   611.4    4.129      62.865
2015    3       26     4  35    5.9325   611.7    4.123      62.885
2015    3       26     4  40    5.9303   612.0    4.118      62.904
2015    3       26     4  46    5.9281   612.2    4.112      62.923
2015    3       26     4  51    5.9259   612.5    4.106      62.941
2015    3       26     4  57    5.9237   612.8    4.101      62.960
2015    3       26     5   3    5.9214   613.1    4.095      62.978
2015    3       26     5   8    5.9191   613.4    4.089      62.995
2015    3       26     5  14    5.9168   613.6    4.084      63.012
2015    3       26     5  19    5.9144   613.9    4.078      63.028
2015    3       26     5  25    5.9120   614.2    4.072      63.043
2015    3       26     5  30    5.9095   614.4    4.067      63.056
2015    3       26     5  36    5.9070   614.7    4.061      63.069
2015    3       26     5  41    5.9045   615.0    4.055      63.081
2015    3       26     5  47    5.9020   615.2    4.049      63.091
2015    3       26     5  52    5.8994   615.5    4.043      63.101
2015    3       26     5  58    5.8968   615.8    4.037      63.110
2015    3       26     6   3    5.8942   616.0    4.031      63.118
2015    3       26     6   9    5.8915   616.3    4.025      63.126
2015    3       26     6  14    5.8888   616.5    4.019      63.132
2015    3       26     6  20    5.8862   616.8    4.013      63.138
2015    3       26     6  25    5.8835   617.0    4.007      63.143
2015    3       26     6  31    5.8807   617.3    4.001      63.147
2015    3       26     6  36    5.8780   617.5    3.995      63.151
2015    3       26     6  42    5.8752   617.8    3.989      63.154
2015    3       26     6  48    5.8724   618.0    3.983      63.157
2015    3       26     6  53    5.8696   618.3    3.977      63.160
2015    3       26     6  59    5.8668   618.5    3.971      63.162
2015    3       26     7   4    5.8639   618.8    3.965      63.163
2015    3       26     7  10    5.8610   619.0    3.959      63.165
2015    3       26     7  15    5.8581   619.2    3.953      63.165
2015    3       26     7  21    5.8552   619.5    3.947      63.166
2015    3       26     7  26    5.8522   619.7    3.941      63.166
2015    3       26     7  32    5.8492   620.0    3.935      63.165
2015    3       26     7  37    5.8462   620.2    3.929      63.164
2015    3       26     7  43    5.8432   620.4    3.923      63.162
2015    3       26     7  48    5.8401   620.6    3.917      63.159
2015    3       26     7  54    5.8370   620.9    3.911      63.157
2015    3       26     7  59    5.8338   621.1    3.904      63.153
2015    3       26     8   5    5.8307   621.3    3.898      63.149
2015    3       26     8  10    5.8275   621.5    3.892      63.145
2015    3       26     8  16    5.8243   621.7    3.886      63.140
2015    3       26     8  21    5.8210   622.0    3.880      63.136
2015    3       26     8  27    5.8178   622.2    3.874      63.130
2015    3       26     8  33    5.8145   622.4    3.868      63.125
2015    3       26     8  38    5.8112   622.6    3.862      63.120
2015    3       26     8  44    5.8079   622.8    3.856      63.114
2015    3       26     8  49    5.8045   623.0    3.850      63.109
2015    3       26     8  55    5.8012   623.2    3.844      63.103
2015    3       26     9   0    5.7978   623.4    3.838      63.098
2015    3       26     9   6    5.7945   623.6    3.832      63.093
2015    3       26     9  11    5.7910   623.8    3.826      63.088
2015    3       26     9  17    5.7876   624.0    3.821      63.084
2015    3       26     9  22    5.7842   624.2    3.815      63.079
2015    3       26     9  28    5.7808   624.4    3.809      63.075
2015    3       26     9  33    5.7773   624.6    3.804      63.071
2015    3       26     9  39    5.7738   624.8    3.798      63.068
2015    3       26     9  44    5.7703   624.9    3.793      63.065
2015    3       26     9  50    5.7669   625.1    3.787      63.062
2015    3       26     9  55    5.7633   625.3    3.782      63.059
2015    3       26    10   1    5.7598   625.5    3.777      63.056
2015    3       26    10   7    5.7563   625.7    3.771      63.053
2015    3       26    10  12    5.7528   625.9    3.766      63.050
2015    3       26    10  18    5.7493   626.0    3.761      63.048
2015    3       26    10  23    5.7457   626.2    3.757      63.045
2015    3       26    10  29    5.7422   626.4    3.752      63.043
2015    3       26    10  34    5.7387   626.5    3.747      63.040
2015    3       26    10  40    5.7352   626.7    3.743      63.038
2015    3       26    10  45    5.7317   626.9    3.738      63.037
2015    3       26    10  51    5.7282   627.0    3.734      63.036
2015    3       26    10  56    5.7247   627.2    3.730      63.035
2015    3       26    11   2    5.7212   627.3    3.726      63.035
2015    3       26    11   7    5.7178   627.5    3.722      63.036
2015    3       26    11  13    5.7144   627.7    3.719      63.037
2015    3       26    11  18    5.7110   627.8    3.715      63.038
2015    3       26    11  24    5.7076   628.0    3.712      63.040
2015    3       26    11  29    5.7042   628.1    3.709      63.042
2015    3       26    11  35    5.7008   628.3    3.706      63.044
2015    3       26    11  40    5.6974   628.5    3.703      63.046
2015    3       26    11  46    5.6940   628.6    3.700      63.048
2015    3       26    11  52    5.6905   628.8    3.697      63.048
2015    3       26    11  57    5.6871   628.9    3.694      63.046
2015    3       26    12   3    5.6836   629.1    3.691      63.044
2015    3       26    12   8    5.6801   629.3    3.687      63.040
2015    3       26    12  14    5.6766   629.4    3.684      63.035
2015    3       26    12  19    5.6730   629.6    3.680      63.027
2015    3       26    12  25    5.6694   629.7    3.676      63.019
2015    3       26    12  30    5.6658   629.9    3.672      63.008
2015    3       26    12  36    5.6622   630.1    3.668      62.996
2015    3       26    12  41    5.6586   630.2    3.664      62.983
2015    3       26    12  47    5.6550   630.4    3.660      62.969
2015    3       26    12  52    5.6514   630.5    3.656      62.954
2015    3       26    12  58    5.6478   630.6    3.651      62.937
2015    3       26    13   3    5.6441   630.8    3.647      62.920
2015    3       26    13   9    5.6405   630.9    3.642      62.902
2015    3       26    13  14    5.6369   631.1    3.638      62.883
2015    3       26    13  20    5.6333   631.2    3.633      62.862
2015    3       26    13  25    5.6296   631.3    3.629      62.842
2015    3       26    13  31    5.6260   631.5    3.624      62.820
2015    3       26    13  37    5.6224   631.6    3.619      62.797
2015    3       26    13  42    5.6188   631.7    3.614      62.774
2015    3       26    13  48    5.6151   631.9    3.610      62.750
2015    3       26    13  53    5.6115   632.0    3.605      62.725
2015    3       26    13  59    5.6079   632.1    3.600      62.700
2015    3       26    14   4    5.6043   632.2    3.595      62.673
2015    3       26    14  10    5.6007   632.4    3.590      62.647
2015    3       26    14  15    5.5971   632.5    3.585      62.619
2015    3       26    14  21    5.5935   632.6    3.580      62.591
2015    3       26    14  26    5.5899   632.7    3.575      62.562
2015    3       26    14  32    5.5863   632.8    3.570      62.532
2015    3       26    14  37    5.5827   633.0    3.565      62.501
2015    3       26    14  43    5.5790   633.1    3.560      62.470
2015    3       26    14  48    5.5754   633.2    3.555      62.439
2015    3       26    14  54    5.5718   633.3    3.550      62.407
2015    3       26    14  59    5.5682   633.4    3.545      62.374
2015    3       26    15   5    5.5646   633.5    3.540      62.341
2015    3       26    15  10    5.5610   633.6    3.535      62.307
2015    3       26    15  16    5.5574   633.7    3.530      62.274
2015    3       26    15  22    5.5538   633.8    3.526      62.240
2015    3       26    15  27    5.5502   633.9    3.521      62.206
2015    3       26    15  33    5.5466   633.9    3.516      62.172
2015    3       26    15  38    5.5431   634.0    3.511      62.139
2015    3       26    15  44    5.5395   634.1    3.506      62.105
2015    3       26    15  49    5.5360   634.2    3.502      62.073
2015    3       26    15  55    5.5324   634.3    3.497      62.040
2015    3       26    16   0    5.5289   634.3    3.492      62.009
2015    3       26    16   6    5.5255   634.4    3.488      61.978
2015    3       26    16  11    5.5220   634.5    3.483      61.948
2015    3       26    16  17    5.5185   634.6    3.479      61.919
2015    3       26    16  22    5.5151   634.6    3.475      61.891
2015    3       26    16  28    5.5117   634.7    3.471      61.864
2015    3       26    16  33    5.5083   634.8    3.466      61.838
2015    3       26    16  39    5.5050   634.8    3.462      61.813
2015    3       26    16  44    5.5016   634.9    3.458      61.788
2015    3       26    16  50    5.4983   634.9    3.454      61.765
2015    3       26    16  56    5.4950   635.0    3.451      61.742
2015    3       26    17   1    5.4917   635.1    3.447      61.721
2015    3       26    17   7    5.4885   635.1    3.443      61.700
2015    3       26    17  12    5.4852   635.1    3.439      61.680
2015    3       26    17  18    5.4820   635.2    3.436      61.661
2015    3       26    17  23    5.4788   635.2    3.433      61.644
2015    3       26    17  29    5.4757   635.3    3.429      61.627
2015    3       26    17  34    5.4725   635.3    3.426      61.611
2015    3       26    17  40    5.4694   635.4    3.423      61.597
2015    3       26    17  45    5.4664   635.4    3.420      61.584
2015    3       26    17  51    5.4633   635.4    3.418      61.572
2015    3       26    17  56    5.4603   635.5    3.415      61.562
2015    3       26    18   2    5.4574   635.5    3.413      61.553
2015    3       26    18   7    5.4544   635.5    3.411      61.545
2015    3       26    18  13    5.4515   635.6    3.409      61.538
2015    3       26    18  18    5.4487   635.6    3.408      61.532
2015    3       26    18  24    5.4458   635.6    3.406      61.528
2015    3       26    18  29    5.4430   635.7    3.405      61.524
2015    3       26    18  35    5.4402   635.7    3.404      61.521
2015    3       26    18  41    5.4375   635.8    3.403      61.518
2015    3       26    18  46    5.4347   635.8    3.402      61.514
2015    3       26    18  52    5.4319   635.9    3.402      61.510
2015    3       26    18  57    5.4291   635.9    3.401      61.505
2015    3       26    19   3    5.4263   636.0    3.400      61.498
2015    3       26    19   8    5.4234   636.1    3.399      61.491
2015    3       26    19  14    5.4205   636.1    3.398      61.482
2015    3       26    19  19    5.4176   636.2    3.397      61.471
2015    3       26    19  25    5.4146   636.3    3.395      61.458
2015    3       26    19  30    5.4116   636.3    3.394      61.444
2015    3       26    19  36    5.4086   636.4    3.392      61.428
2015    3       26    19  41    5.4056   636.4    3.390      61.410
2015    3       26    19  47    5.4025   636.5    3.388      61.392
2015    3       26    19  52    5.3994   636.6    3.386      61.372
2015    3       26    19  58    5.3963   636.6    3.383      61.350
2015    3       26    20   3    5.3933   636.7    3.381      61.328
2015    3       26    20   9    5.3902   636.7    3.379      61.305
2015    3       26    20  14    5.3871   636.8    3.376      61.281
2015    3       26    20  20    5.3839   636.8    3.373      61.257
2015    3       26    20  26    5.3808   636.9    3.371      61.232
2015    3       26    20  31    5.3777   636.9    3.368      61.206
2015    3       26    20  37    5.3746   637.0    3.365      61.179
2015    3       26    20  42    5.3715   637.0    3.362      61.153
2015    3       26    20  48    5.3684   637.0    3.359      61.125
2015    3       26    20  53    5.3653   637.1    3.356      61.097
2015    3       26    20  59    5.3622   637.1    3.353      61.068
2015    3       26    21   4    5.3592   637.2    3.350      61.039
2015    3       26    21  10    5.3561   637.2    3.347      61.010
2015    3       26    21  15    5.3530   637.2    3.344      60.980
2015    3       26    21  21    5.3499   637.3    3.341      60.950
2015    3       26    21  26    5.3469   637.3    3.338      60.919
2015    3       26    21  32    5.3438   637.3    3.335      60.889
2015    3       26    21  37    5.3408   637.4    3.332      60.858
2015    3       26    21  43    5.3377   637.4    3.329      60.826
2015    3       26    21  48    5.3347   637.4    3.325      60.795
2015    3       26    21  54    5.3317   637.4    3.322      60.763
2015    3       26    22   0    5.3287   637.5    3.319      60.731
2015    3       26    22   5    5.3257   637.5    3.316      60.700
2015    3       26    22  11    5.3227   637.5    3.312      60.667
2015    3       26    22  16    5.3197   637.5    3.309      60.635
2015    3       26    22  22    5.3167   637.5    3.306      60.603
2015    3       26    22  27    5.3137   637.6    3.303      60.570
2015    3       26    22  33    5.3107   637.6    3.299      60.538
2015    3       26    22  38    5.3078   637.6    3.296      60.505
2015    3       26    22  44    5.3048   637.6    3.293      60.472
2015    3       26    22  49    5.3019   637.6    3.290      60.440
2015    3       26    22  55    5.2990   637.6    3.287      60.407
2015    3       26    23   0    5.2961   637.6    3.283      60.374
2015    3       26    23   6    5.2932   637.7    3.280      60.340
2015    3       26    23  11    5.2903   637.7    3.277      60.307
2015    3       26    23  17    5.2875   637.7    3.274      60.274
2015    3       26    23  22    5.2846   637.7    3.271      60.240
2015    3       26    23  28    5.2818   637.7    3.268      60.206
2015    3       26    23  33    5.2790   637.7    3.265      60.173
2015    3       26    23  39    5.2762   637.7    3.261      60.139
2015    3       26    23  45    5.2735   637.7    3.258      60.105
2015    3       26    23  50    5.2707   637.7    3.255      60.072
2015    3       26    23  56    5.2679   637.7    3.252      60.038
2015    3       27     0   1    5.2652   637.7    3.249      60.004
2015    3       27     0   7    5.2625   637.7    3.246      59.970
2015    3       27     0  12    5.2598   637.7    3.243      59.937
2015    3       27     0  18    5.2571   637.7    3.240      59.903
2015    3       27     0  23    5.2544   637.6    3.236      59.869
2015    3       27     0  29    5.2518   637.6    3.233      59.836
2015    3       27     0  34    5.2492   637.6    3.230      59.803
2015    3       27     0  40    5.2465   637.6    3.227      59.771
2015    3       27     0  45    5.2439   637.6    3.224      59.740
2015    3       27     0  51    5.2414   637.5    3.222      59.709
2015    3       27     0  56    5.2388   637.5    3.219      59.679
2015    3       27     1   2    5.2363   637.5    3.216      59.650
2015    3       27     1   7    5.2338   637.5    3.214      59.622
2015    3       27     1  13    5.2313   637.4    3.211      59.595
2015    3       27     1  18    5.2288   637.4    3.209      59.569
2015    3       27     1  24    5.2264   637.4    3.207      59.544
2015    3       27     1  30    5.2240   637.3    3.205      59.520
2015    3       27     1  35    5.2216   637.3    3.203      59.498
2015    3       27     1  41    5.2192   637.3    3.201      59.477
2015    3       27     1  46    5.2169   637.2    3.200      59.457
2015    3       27     1  52    5.2146   637.2    3.198      59.438
2015    3       27     1  57    5.2123   637.2    3.197      59.421
2015    3       27     2   3    5.2100   637.2    3.196      59.404
2015    3       27     2   8    5.2077   637.1    3.195      59.388
2015    3       27     2  14    5.2054   637.1    3.195      59.373
2015    3       27     2  19    5.2031   637.1    3.194      59.358
2015    3       27     2  25    5.2008   637.1    3.193      59.343
2015    3       27     2  30    5.1984   637.1    3.193      59.327
2015    3       27     2  36    5.1960   637.1    3.192      59.310
2015    3       27     2  41    5.1936   637.1    3.191      59.292
2015    3       27     2  47    5.1912   637.0    3.191      59.273
2015    3       27     2  52    5.1887   637.0    3.190      59.254
2015    3       27     2  58    5.1863   637.0    3.189      59.233
2015    3       27     3   4    5.1837   637.0    3.188      59.211
2015    3       27     3   9    5.1812   637.0    3.187      59.189
2015    3       27     3  15    5.1787   637.0    3.186      59.166
2015    3       27     3  20    5.1761   636.9    3.184      59.142
2015    3       27     3  26    5.1735   636.9    3.183      59.117
2015    3       27     3  31    5.1709   636.9    3.182      59.092
2015    3       27     3  37    5.1683   636.9    3.181      59.066
2015    3       27     3  42    5.1657   636.9    3.179      59.040
2015    3       27     3  48    5.1631   636.8    3.178      59.014
2015    3       27     3  53    5.1604   636.8    3.177      58.987
2015    3       27     3  59    5.1578   636.8    3.175      58.959
2015    3       27     4   4    5.1552   636.8    3.174      58.931
2015    3       27     4  10    5.1526   636.7    3.172      58.903
2015    3       27     4  15    5.1499   636.7    3.171      58.875
2015    3       27     4  21    5.1473   636.7    3.169      58.846
2015    3       27     4  26    5.1447   636.7    3.168      58.817
2015    3       27     4  32    5.1421   636.6    3.166      58.789
2015    3       27     4  37    5.1395   636.6    3.164      58.760
2015    3       27     4  43    5.1369   636.6    3.163      58.730
2015    3       27     4  49    5.1343   636.5    3.161      58.702
2015    3       27     4  54    5.1317   636.5    3.159      58.672
2015    3       27     5   0    5.1291   636.5    3.158      58.644
2015    3       27     5   5    5.1265   636.4    3.156      58.615
2015    3       27     5  11    5.1239   636.4    3.154      58.586
2015    3       27     5  16    5.1214   636.4    3.153      58.557
2015    3       27     5  22    5.1188   636.3    3.151      58.529
2015    3       27     5  27    5.1163   636.3    3.149      58.501
2015    3       27     5  33    5.1138   636.3    3.147      58.473
2015    3       27     5  38    5.1113   636.2    3.146      58.445
2015    3       27     5  44    5.1087   636.2    3.144      58.417
2015    3       27     5  49    5.1063   636.2    3.142      58.389
2015    3       27     5  55    5.1037   636.1    3.140      58.361
2015    3       27     6   0    5.1013   636.1    3.139      58.334
2015    3       27     6   6    5.0988   636.0    3.137      58.306
2015    3       27     6  11    5.0964   636.0    3.135      58.278
2015    3       27     6  17    5.0940   635.9    3.133      58.251
2015    3       27     6  22    5.0915   635.9    3.132      58.223
2015    3       27     6  28    5.0891   635.9    3.130      58.195
2015    3       27     6  34    5.0868   635.8    3.128      58.167
2015    3       27     6  39    5.0844   635.8    3.127      58.138
2015    3       27     6  45    5.0820   635.7    3.125      58.110
2015    3       27     6  50    5.0797   635.7    3.123      58.081
2015    3       27     6  56    5.0774   635.6    3.122      58.052
2015    3       27     7   1    5.0750   635.6    3.120      58.022
2015    3       27     7   7    5.0727   635.5    3.118      57.993
2015    3       27     7  12    5.0704   635.5    3.116      57.963
2015    3       27     7  18    5.0681   635.4    3.115      57.933
2015    3       27     7  23    5.0659   635.4    3.113      57.902
2015    3       27     7  29    5.0636   635.3    3.111      57.872
2015    3       27     7  34    5.0613   635.3    3.109      57.841
2015    3       27     7  40    5.0591   635.2    3.108      57.810
2015    3       27     7  45    5.0568   635.1    3.106      57.779
2015    3       27     7  51    5.0546   635.1    3.104      57.748
2015    3       27     7  56    5.0524   635.0    3.102      57.716
2015    3       27     8   2    5.0501   634.9    3.100      57.683
2015    3       27     8   8    5.0479   634.9    3.098      57.651
2015    3       27     8  13    5.0457   634.8    3.097      57.618
2015    3       27     8  19    5.0435   634.8    3.095      57.585
2015    3       27     8  24    5.0413   634.7    3.093      57.552
2015    3       27     8  30    5.0391   634.6    3.091      57.520
2015    3       27     8  35    5.0369   634.6    3.089      57.487
2015    3       27     8  41    5.0348   634.5    3.088      57.454
2015    3       27     8  46    5.0326   634.4    3.086      57.421
2015    3       27     8  52    5.0304   634.3    3.084      57.389
2015    3       27     8  57    5.0282   634.3    3.082      57.356
2015    3       27     9   3    5.0261   634.2    3.080      57.324
2015    3       27     9   8    5.0239   634.1    3.079      57.292
2015    3       27     9  14    5.0217   634.1    3.077      57.260
2015    3       27     9  19    5.0195   634.0    3.075      57.228
2015    3       27     9  25    5.0174   633.9    3.074      57.196
2015    3       27     9  30    5.0152   633.8    3.072      57.165
2015    3       27     9  36    5.0130   633.8    3.071      57.134
2015    3       27     9  41    5.0108   633.7    3.069      57.102
2015    3       27     9  47    5.0087   633.6    3.068      57.071
2015    3       27     9  53    5.0065   633.5    3.066      57.041
2015    3       27     9  58    5.0043   633.5    3.065      57.010
2015    3       27    10   4    5.0021   633.4    3.063      56.979
2015    3       27    10   9    4.9999   633.3    3.062      56.949
2015    3       27    10  15    4.9977   633.2    3.061      56.919
2015    3       27    10  20    4.9955   633.2    3.059      56.889
2015    3       27    10  26    4.9933   633.1    3.058      56.859
2015    3       27    10  31    4.9911   633.0    3.057      56.830
2015    3       27    10  37    4.9889   632.9    3.056      56.800
2015    3       27    10  42    4.9867   632.8    3.055      56.771
2015    3       27    10  48    4.9844   632.8    3.054      56.742
2015    3       27    10  53    4.9822   632.7    3.053      56.714
2015    3       27    10  59    4.9800   632.6    3.052      56.685
2015    3       27    11   4    4.9777   632.5    3.051      56.657
2015    3       27    11  10    4.9755   632.4    3.050      56.629
2015    3       27    11  15    4.9732   632.4    3.049      56.601
2015    3       27    11  21    4.9710   632.3    3.048      56.573
2015    3       27    11  26    4.9687   632.2    3.047      56.545
2015    3       27    11  32    4.9665   632.1    3.046      56.517
2015    3       27    11  38    4.9642   632.0    3.046      56.490
2015    3       27    11  43    4.9620   631.9    3.045      56.462
2015    3       27    11  49    4.9597   631.8    3.044      56.435
2015    3       27    11  54    4.9575   631.7    3.043      56.408
2015    3       27    12   0    4.9553   631.6    3.043      56.381
2015    3       27    12   5    4.9530   631.6    3.042      56.354
2015    3       27    12  11    4.9508   631.5    3.042      56.327
2015    3       27    12  16    4.9486   631.4    3.041      56.301
2015    3       27    12  22    4.9464   631.3    3.041      56.274
2015    3       27    12  27    4.9443   631.2    3.040      56.248
2015    3       27    12  33    4.9421   631.1    3.040      56.222
2015    3       27    12  38    4.9400   631.0    3.040      56.197
2015    3       27    12  44    4.9379   630.9    3.039      56.171
2015    3       27    12  49    4.9357   630.8    3.039      56.146
2015    3       27    12  55    4.9337   630.7    3.039      56.121
2015    3       27    13   0    4.9316   630.6    3.038      56.096
2015    3       27    13   6    4.9295   630.5    3.038      56.072
2015    3       27    13  12    4.9274   630.4    3.038      56.047
2015    3       27    13  17    4.9254   630.4    3.038      56.022
2015    3       27    13  23    4.9233   630.3    3.038      55.997
2015    3       27    13  28    4.9213   630.2    3.037      55.973
2015    3       27    13  34    4.9192   630.1    3.037      55.948
2015    3       27    13  39    4.9172   630.0    3.037      55.924
2015    3       27    13  45    4.9151   629.9    3.037      55.899
2015    3       27    13  50    4.9131   629.8    3.036      55.874
2015    3       27    13  56    4.9110   629.7    3.036      55.849
2015    3       27    14   1    4.9089   629.6    3.035      55.825
2015    3       27    14   7    4.9069   629.5    3.035      55.800
2015    3       27    14  12    4.9048   629.4    3.035      55.775
2015    3       27    14  18    4.9028   629.3    3.034      55.749
2015    3       27    14  23    4.9007   629.2    3.034      55.724
2015    3       27    14  29    4.8986   629.2    3.033      55.699
2015    3       27    14  34    4.8965   629.1    3.032      55.673
2015    3       27    14  40    4.8944   629.0    3.032      55.648
2015    3       27    14  45    4.8923   628.9    3.031      55.622
2015    3       27    14  51    4.8902   628.8    3.030      55.596
2015    3       27    14  57    4.8881   628.7    3.030      55.569
2015    3       27    15   2    4.8860   628.6    3.029      55.543
2015    3       27    15   8    4.8839   628.5    3.028      55.516
2015    3       27    15  13    4.8818   628.4    3.027      55.489
2015    3       27    15  19    4.8797   628.3    3.026      55.462
2015    3       27    15  24    4.8776   628.2    3.025      55.434
2015    3       27    15  30    4.8755   628.1    3.024      55.406
2015    3       27    15  35    4.8734   628.0    3.023      55.377
2015    3       27    15  41    4.8713   627.9    3.022      55.348
2015    3       27    15  46    4.8692   627.8    3.021      55.319
2015    3       27    15  52    4.8670   627.7    3.020      55.289
2015    3       27    15  57    4.8650   627.6    3.019      55.259
2015    3       27    16   3    4.8628   627.5    3.018      55.229
2015    3       27    16   8    4.8607   627.4    3.017      55.199
2015    3       27    16  14    4.8586   627.3    3.016      55.168
2015    3       27    16  19    4.8565   627.2    3.015      55.137
2015    3       27    16  25    4.8544   627.1    3.014      55.106
2015    3       27    16  30    4.8523   627.0    3.012      55.075
2015    3       27    16  36    4.8502   626.9    3.011      55.044
2015    3       27    16  42    4.8481   626.8    3.010      55.013
2015    3       27    16  47    4.8460   626.7    3.009      54.982
2015    3       27    16  53    4.8438   626.6    3.008      54.950
2015    3       27    16  58    4.8417   626.4    3.006      54.919
2015    3       27    17   4    4.8396   626.3    3.005      54.889
2015    3       27    17   9    4.8375   626.2    3.004      54.858
2015    3       27    17  15    4.8354   626.1    3.002      54.827
2015    3       27    17  20    4.8333   626.0    3.001      54.797
2015    3       27    17  26    4.8312   625.9    3.000      54.767
2015    3       27    17  31    4.8291   625.8    2.999      54.737
2015    3       27    17  37    4.8270   625.7    2.998      54.708
2015    3       27    17  42    4.8249   625.5    2.996      54.679
2015    3       27    17  48    4.8229   625.4    2.995      54.650
2015    3       27    17  53    4.8208   625.3    2.994      54.622
2015    3       27    17  59    4.8187   625.2    2.993      54.594
2015    3       27    18   4    4.8167   625.1    2.992      54.566
2015    3       27    18  10    4.8146   625.0    2.991      54.539
2015    3       27    18  16    4.8126   624.8    2.990      54.511
2015    3       27    18  21    4.8106   624.7    2.989      54.484
2015    3       27    18  27    4.8086   624.6    2.989      54.457
2015    3       27    18  32    4.8065   624.5    2.988      54.429
2015    3       27    18  38    4.8045   624.4    2.987      54.401
2015    3       27    18  43    4.8025   624.2    2.986      54.373
2015    3       27    18  49    4.8006   624.1    2.986      54.344
2015    3       27    18  54    4.7986   624.0    2.985      54.315
2015    3       27    19   0    4.7966   623.9    2.984      54.286
2015    3       27    19   5    4.7946   623.8    2.984      54.256
2015    3       27    19  11    4.7926   623.6    2.983      54.227
2015    3       27    19  16    4.7907   623.5    2.983      54.197
2015    3       27    19  22    4.7887   623.4    2.982      54.167
2015    3       27    19  27    4.7867   623.2    2.982      54.137
2015    3       27    19  33    4.7848   623.1    2.982      54.107
2015    3       27    19  38    4.7828   623.0    2.981      54.078
2015    3       27    19  44    4.7809   622.8    2.981      54.048
2015    3       27    19  49    4.7790   622.7    2.981      54.018
2015    3       27    19  55    4.7771   622.6    2.980      53.989
2015    3       27    20   1    4.7751   622.5    2.980      53.959
2015    3       27    20   6    4.7732   622.3    2.980      53.930
2015    3       27    20  12    4.7713   622.2    2.980      53.901
2015    3       27    20  17    4.7694   622.1    2.980      53.871
2015    3       27    20  23    4.7675   621.9    2.979      53.842
2015    3       27    20  28    4.7656   621.8    2.979      53.812
2015    3       27    20  34    4.7637   621.7    2.979      53.783
2015    3       27    20  39    4.7618   621.5    2.979      53.753
2015    3       27    20  45    4.7599   621.4    2.979      53.723
2015    3       27    20  50    4.7579   621.3    2.978      53.693
2015    3       27    20  56    4.7560   621.1    2.978      53.663
2015    3       27    21   1    4.7541   621.0    2.978      53.633
2015    3       27    21   7    4.7521   620.9    2.977      53.602
2015    3       27    21  12    4.7502   620.7    2.977      53.572
2015    3       27    21  18    4.7482   620.6    2.977      53.541
2015    3       27    21  23    4.7462   620.5    2.976      53.510
2015    3       27    21  29    4.7443   620.3    2.976      53.479
2015    3       27    21  34    4.7423   620.2    2.976      53.448
2015    3       27    21  40    4.7403   620.1    2.975      53.417
2015    3       27    21  46    4.7383   619.9    2.975      53.386
2015    3       27    21  51    4.7363   619.8    2.975      53.355
2015    3       27    21  57    4.7343   619.7    2.974      53.324
2015    3       27    22   2    4.7323   619.5    2.974      53.293
2015    3       27    22   8    4.7303   619.4    2.974      53.262
2015    3       27    22  13    4.7283   619.2    2.974      53.231
2015    3       27    22  19    4.7263   619.1    2.974      53.200
2015    3       27    22  24    4.7242   619.0    2.974      53.170
2015    3       27    22  30    4.7222   618.8    2.974      53.139
2015    3       27    22  35    4.7202   618.7    2.974      53.109
2015    3       27    22  41    4.7182   618.6    2.974      53.078
2015    3       27    22  46    4.7162   618.4    2.974      53.048
2015    3       27    22  52    4.7142   618.3    2.974      53.019
2015    3       27    22  57    4.7123   618.1    2.974      52.989
2015    3       27    23   3    4.7103   618.0    2.974      52.960
2015    3       27    23   8    4.7083   617.9    2.974      52.931
2015    3       27    23  14    4.7063   617.7    2.974      52.903
2015    3       27    23  20    4.7044   617.6    2.975      52.874
2015    3       27    23  25    4.7024   617.5    2.975      52.847
2015    3       27    23  31    4.7004   617.3    2.975      52.820
2015    3       27    23  36    4.6985   617.2    2.975      52.794
2015    3       27    23  42    4.6965   617.0    2.975      52.768
2015    3       27    23  47    4.6945   616.9    2.975      52.742
2015    3       27    23  53    4.6925   616.8    2.975      52.717
2015    3       27    23  58    4.6906   616.6    2.975      52.691
2015    3       28     0   4    4.6886   616.5    2.974      52.664
2015    3       28     0   9    4.6866   616.4    2.974      52.638
2015    3       28     0  15    4.6847   616.2    2.974      52.612
2015    3       28     0  20    4.6827   616.1    2.973      52.585
2015    3       28     0  26    4.6807   615.9    2.973      52.558
2015    3       28     0  31    4.6787   615.8    2.973      52.532
2015    3       28     0  37    4.6768   615.6    2.972      52.505
2015    3       28     0  42    4.6748   615.5    2.972      52.478
2015    3       28     0  48    4.6728   615.4    2.971      52.452
2015    3       28     0  53    4.6709   615.2    2.971      52.426
2015    3       28     0  59    4.6689   615.1    2.970      52.399
2015    3       28     1   5    4.6670   614.9    2.970      52.373
2015    3       28     1  10    4.6650   614.8    2.970      52.347
2015    3       28     1  16    4.6631   614.6    2.969      52.321
2015    3       28     1  21    4.6612   614.5    2.969      52.295
2015    3       28     1  27    4.6592   614.4    2.968      52.269
2015    3       28     1  32    4.6573   614.2    2.968      52.242
2015    3       28     1  38    4.6554   614.1    2.967      52.216
2015    3       28     1  43    4.6535   613.9    2.967      52.188
2015    3       28     1  49    4.6516   613.8    2.966      52.161
2015    3       28     1  54    4.6497   613.6    2.966      52.132
2015    3       28     2   0    4.6477   613.5    2.965      52.103
2015    3       28     2   5    4.6458   613.3    2.965      52.073
2015    3       28     2  11    4.6439   613.2    2.964      52.042
2015    3       28     2  16    4.6419   613.1    2.964      52.010
2015    3       28     2  22    4.6400   612.9    2.963      51.977
2015    3       28     2  27    4.6380   612.8    2.962      51.943
2015    3       28     2  33    4.6361   612.6    2.962      51.910
2015    3       28     2  38    4.6341   612.4    2.961      51.875
2015    3       28     2  44    4.6322   612.3    2.960      51.840
2015    3       28     2  50    4.6302   612.1    2.960      51.804
2015    3       28     2  55    4.6282   612.0    2.959      51.769
2015    3       28     3   1    4.6262   611.8    2.958      51.732
2015    3       28     3   6    4.6242   611.7    2.957      51.696
2015    3       28     3  12    4.6223   611.5    2.956      51.659
2015    3       28     3  17    4.6203   611.4    2.955      51.622
2015    3       28     3  23    4.6183   611.2    2.955      51.584
2015    3       28     3  28    4.6163   611.0    2.954      51.547
2015    3       28     3  34    4.6143   610.9    2.953      51.509
2015    3       28     3  39    4.6123   610.7    2.952      51.471
2015    3       28     3  45    4.6103   610.6    2.951      51.433
2015    3       28     3  50    4.6083   610.4    2.950      51.395
2015    3       28     3  56    4.6063   610.2    2.949      51.357
2015    3       28     4   1    4.6043   610.1    2.948      51.319
2015    3       28     4   7    4.6023   609.9    2.947      51.281
2015    3       28     4  12    4.6003   609.7    2.947      51.242
2015    3       28     4  18    4.5983   609.6    2.946      51.204
2015    3       28     4  24    4.5964   609.4    2.945      51.166
2015    3       28     4  29    4.5944   609.2    2.944      51.129
2015    3       28     4  35    4.5924   609.1    2.943      51.091
2015    3       28     4  40    4.5904   608.9    2.943      51.054
2015    3       28     4  46    4.5884   608.7    2.942      51.017
2015    3       28     4  51    4.5865   608.5    2.942      50.980
2015    3       28     4  57    4.5845   608.4    2.941      50.943
2015    3       28     5   2    4.5825   608.2    2.941      50.907
2015    3       28     5   8    4.5806   608.0    2.940      50.871
2015    3       28     5  13    4.5786   607.9    2.940      50.836
2015    3       28     5  19    4.5767   607.7    2.940      50.801
2015    3       28     5  24    4.5747   607.5    2.940      50.766
2015    3       28     5  30    4.5728   607.3    2.940      50.732
2015    3       28     5  35    4.5709   607.2    2.940      50.699
2015    3       28     5  41    4.5690   607.0    2.940      50.666
2015    3       28     5  46    4.5671   606.8    2.941      50.633
2015    3       28     5  52    4.5652   606.6    2.941      50.601
2015    3       28     5  57    4.5633   606.5    2.942      50.570
2015    3       28     6   3    4.5614   606.3    2.942      50.540
2015    3       28     6   9    4.5595   606.1    2.943      50.510
2015    3       28     6  14    4.5576   605.9    2.944      50.481
2015    3       28     6  20    4.5557   605.8    2.945      50.452
2015    3       28     6  25    4.5538   605.6    2.946      50.424
2015    3       28     6  31    4.5520   605.4    2.947      50.397
2015    3       28     6  36    4.5501   605.2    2.947      50.370
2015    3       28     6  42    4.5482   605.1    2.948      50.343
2015    3       28     6  47    4.5463   604.9    2.949      50.317
2015    3       28     6  53    4.5444   604.7    2.950      50.291
2015    3       28     6  58    4.5425   604.5    2.951      50.266
2015    3       28     7   4    4.5406   604.4    2.952      50.241
2015    3       28     7   9    4.5387   604.2    2.953      50.215
2015    3       28     7  15    4.5369   604.0    2.954      50.189
2015    3       28     7  20    4.5350   603.8    2.955      50.163
2015    3       28     7  26    4.5331   603.7    2.956      50.137
2015    3       28     7  31    4.5312   603.5    2.957      50.111
2015    3       28     7  37    4.5293   603.3    2.957      50.085
2015    3       28     7  42    4.5274   603.1    2.958      50.058
2015    3       28     7  48    4.5255   603.0    2.959      50.031
2015    3       28     7  54    4.5236   602.8    2.960      50.003
2015    3       28     7  59    4.5217   602.6    2.960      49.976
2015    3       28     8   5    4.5198   602.4    2.961      49.948
2015    3       28     8  10    4.5179   602.2    2.962      49.919
2015    3       28     8  16    4.5159   602.1    2.962      49.891
2015    3       28     8  21    4.5140   601.9    2.963      49.862
2015    3       28     8  27    4.5121   601.7    2.963      49.832
2015    3       28     8  32    4.5101   601.5    2.963      49.802
2015    3       28     8  38    4.5082   601.3    2.964      49.771
2015    3       28     8  43    4.5062   601.1    2.964      49.740
2015    3       28     8  49    4.5042   601.0    2.964      49.708
2015    3       28     8  54    4.5023   600.8    2.964      49.676
2015    3       28     9   0    4.5003   600.6    2.965      49.643
2015    3       28     9   5    4.4984   600.4    2.965      49.611
2015    3       28     9  11    4.4964   600.2    2.965      49.577
2015    3       28     9  16    4.4944   600.1    2.965      49.544
2015    3       28     9  22    4.4925   599.9    2.965      49.510
2015    3       28     9  28    4.4905   599.7    2.965      49.476
2015    3       28     9  33    4.4885   599.5    2.965      49.442
2015    3       28     9  39    4.4866   599.3    2.964      49.407
2015    3       28     9  44    4.4846   599.1    2.964      49.373
2015    3       28     9  50    4.4826   599.0    2.964      49.338
2015    3       28     9  55    4.4806   598.8    2.964      49.302
2015    3       28    10   1    4.4786   598.6    2.964      49.267
2015    3       28    10   6    4.4766   598.4    2.963      49.231
2015    3       28    10  12    4.4746   598.2    2.963      49.195
2015    3       28    10  17    4.4726   598.1    2.962      49.158
2015    3       28    10  23    4.4706   597.9    2.962      49.122
2015    3       28    10  28    4.4685   597.7    2.962      49.085
2015    3       28    10  34    4.4665   597.5    2.961      49.047
2015    3       28    10  39    4.4645   597.3    2.960      49.010
2015    3       28    10  45    4.4625   597.1    2.960      48.972
2015    3       28    10  50    4.4605   596.9    2.959      48.934
2015    3       28    10  56    4.4585   596.8    2.959      48.895
2015    3       28    11   1    4.4564   596.6    2.958      48.856
2015    3       28    11   7    4.4544   596.4    2.957      48.817
2015    3       28    11  13    4.4524   596.2    2.957      48.778
2015    3       28    11  18    4.4504   596.0    2.956      48.738
2015    3       28    11  24    4.4483   595.8    2.955      48.698
2015    3       28    11  29    4.4463   595.6    2.955      48.658
2015    3       28    11  35    4.4443   595.4    2.954      48.618
2015    3       28    11  40    4.4423   595.2    2.953      48.577
2015    3       28    11  46    4.4403   595.0    2.953      48.536
2015    3       28    11  51    4.4383   594.8    2.952      48.495
2015    3       28    11  57    4.4363   594.6    2.951      48.454
2015    3       28    12   2    4.4343   594.4    2.951      48.413
2015    3       28    12   8    4.4323   594.2    2.950      48.371
2015    3       28    12  13    4.4303   594.0    2.949      48.330
2015    3       28    12  19    4.4283   593.8    2.949      48.288
2015    3       28    12  24    4.4264   593.6    2.948      48.246
2015    3       28    12  30    4.4244   593.4    2.948      48.204
2015    3       28    12  35    4.4224   593.2    2.947      48.162
2015    3       28    12  41    4.4205   593.0    2.947      48.120
2015    3       28    12  46    4.4185   592.8    2.946      48.079
2015    3       28    12  52    4.4166   592.6    2.946      48.037
2015    3       28    12  58    4.4146   592.4    2.946      47.995
2015    3       28    13   3    4.4127   592.2    2.945      47.953
2015    3       28    13   9    4.4108   592.0    2.945      47.912
2015    3       28    13  14    4.4089   591.8    2.945      47.870
2015    3       28    13  20    4.4069   591.6    2.945      47.829
2015    3       28    13  25    4.4050   591.4    2.945      47.788
2015    3       28    13  31    4.4031   591.2    2.945      47.747
2015    3       28    13  36    4.4012   591.0    2.945      47.706
2015    3       28    13  42    4.3993   590.8    2.945      47.666
2015    3       28    13  47    4.3974   590.5    2.945      47.626
2015    3       28    13  53    4.3955   590.3    2.945      47.585
2015    3       28    13  58    4.3936   590.1    2.945      47.545
2015    3       28    14   4    4.3917   589.9    2.945      47.505
2015    3       28    14   9    4.3898   589.7    2.945      47.466
2015    3       28    14  15    4.3879   589.4    2.946      47.426
2015    3       28    14  20    4.3861   589.2    2.946      47.387
2015    3       28    14  26    4.3842   589.0    2.946      47.348
2015    3       28    14  32    4.3823   588.8    2.947      47.309
2015    3       28    14  37    4.3805   588.5    2.947      47.270
2015    3       28    14  43    4.3787   588.3    2.948      47.232
2015    3       28    14  48    4.3768   588.1    2.949      47.194
2015    3       28    14  54    4.3750   587.8    2.949      47.157
2015    3       28    14  59    4.3732   587.6    2.950      47.119
2015    3       28    15   5    4.3714   587.4    2.951      47.082
2015    3       28    15  10    4.3696   587.1    2.952      47.045
2015    3       28    15  16    4.3678   586.9    2.953      47.009
2015    3       28    15  21    4.3660   586.7    2.954      46.972
2015    3       28    15  27    4.3642   586.4    2.954      46.936
2015    3       28    15  32    4.3624   586.2    2.955      46.900
2015    3       28    15  38    4.3606   586.0    2.956      46.864
2015    3       28    15  43    4.3588   585.7    2.957      46.828
2015    3       28    15  49    4.3570   585.5    2.958      46.792
2015    3       28    15  54    4.3552   585.3    2.959      46.756
2015    3       28    16   0    4.3534   585.0    2.960      46.719
2015    3       28    16   5    4.3517   584.8    2.961      46.683
2015    3       28    16  11    4.3499   584.5    2.962      46.647
2015    3       28    16  17    4.3481   584.3    2.963      46.610
2015    3       28    16  22    4.3464   584.1    2.964      46.573
2015    3       28    16  28    4.3446   583.8    2.965      46.536
2015    3       28    16  33    4.3428   583.6    2.966      46.499
2015    3       28    16  39    4.3411   583.4    2.967      46.462
2015    3       28    16  44    4.3393   583.1    2.968      46.425
2015    3       28    16  50    4.3375   582.9    2.969      46.387
2015    3       28    16  55    4.3358   582.7    2.970      46.350
2015    3       28    17   1    4.3340   582.4    2.971      46.312
2015    3       28    17   6    4.3323   582.2    2.972      46.274
2015    3       28    17  12    4.3305   582.0    2.973      46.236
2015    3       28    17  17    4.3287   581.7    2.974      46.199
2015    3       28    17  23    4.3269   581.5    2.975      46.161
2015    3       28    17  28    4.3252   581.3    2.976      46.123
2015    3       28    17  34    4.3234   581.0    2.977      46.085
2015    3       28    17  39    4.3216   580.8    2.977      46.047
2015    3       28    17  45    4.3198   580.6    2.978      46.009
2015    3       28    17  50    4.3181   580.3    2.979      45.970
2015    3       28    17  56    4.3163   580.1    2.980      45.932
2015    3       28    18   2    4.3145   579.9    2.981      45.893
2015    3       28    18   7    4.3127   579.7    2.981      45.854
2015    3       28    18  13    4.3109   579.4    2.982      45.815
2015    3       28    18  18    4.3091   579.2    2.983      45.775
2015    3       28    18  24    4.3073   579.0    2.983      45.736
2015    3       28    18  29    4.3055   578.7    2.984      45.696
2015    3       28    18  35    4.3037   578.5    2.985      45.656
2015    3       28    18  40    4.3019   578.3    2.985      45.616
2015    3       28    18  46    4.3001   578.0    2.986      45.575
2015    3       28    18  51    4.2983   577.8    2.986      45.535
2015    3       28    18  57    4.2965   577.6    2.987      45.494
2015    3       28    19   2    4.2947   577.3    2.987      45.453
2015    3       28    19   8    4.2929   577.1    2.988      45.412
2015    3       28    19  13    4.2911   576.9    2.988      45.370
2015    3       28    19  19    4.2893   576.6    2.989      45.329
2015    3       28    19  24    4.2875   576.4    2.989      45.287
2015    3       28    19  30    4.2857   576.2    2.989      45.245
2015    3       28    19  36    4.2839   575.9    2.990      45.203
2015    3       28    19  41    4.2821   575.7    2.990      45.161
2015    3       28    19  47    4.2803   575.5    2.990      45.119
2015    3       28    19  52    4.2785   575.2    2.991      45.076
2015    3       28    19  58    4.2767   575.0    2.991      45.033
2015    3       28    20   3    4.2749   574.8    2.991      44.990
2015    3       28    20   9    4.2731   574.5    2.991      44.947
2015    3       28    20  14    4.2713   574.3    2.992      44.903
2015    3       28    20  20    4.2695   574.0    2.992      44.859
2015    3       28    20  25    4.2677   573.8    2.992      44.815
2015    3       28    20  31    4.2660   573.6    2.992      44.771
2015    3       28    20  36    4.2642   573.3    2.992      44.726
2015    3       28    20  42    4.2624   573.1    2.992      44.681
2015    3       28    20  47    4.2606   572.8    2.992      44.636
2015    3       28    20  53    4.2589   572.6    2.992      44.590
2015    3       28    20  58    4.2571   572.4    2.992      44.544
2015    3       28    21   4    4.2553   572.1    2.992      44.497
2015    3       28    21   9    4.2536   571.9    2.992      44.450
2015    3       28    21  15    4.2519   571.6    2.992      44.403
2015    3       28    21  21    4.2501   571.4    2.992      44.356
2015    3       28    21  26    4.2484   571.1    2.992      44.309
2015    3       28    21  32    4.2466   570.9    2.992      44.261
2015    3       28    21  37    4.2449   570.6    2.992      44.213
2015    3       28    21  43    4.2432   570.4    2.993      44.165
2015    3       28    21  48    4.2415   570.1    2.993      44.117
2015    3       28    21  54    4.2398   569.8    2.993      44.069
2015    3       28    21  59    4.2381   569.6    2.993      44.021
2015    3       28    22   5    4.2364   569.3    2.993      43.973
2015    3       28    22  10    4.2347   569.1    2.993      43.925
2015    3       28    22  16    4.2331   568.8    2.993      43.877
2015    3       28    22  21    4.2314   568.5    2.993      43.829
2015    3       28    22  27    4.2298   568.3    2.993      43.781
2015    3       28    22  32    4.2281   568.0    2.994      43.734
2015    3       28    22  38    4.2265   567.8    2.994      43.686
2015    3       28    22  43    4.2249   567.5    2.994      43.639
2015    3       28    22  49    4.2233   567.2    2.995      43.592
2015    3       28    22  54    4.2217   567.0    2.995      43.544
2015    3       28    23   0    4.2202   566.7    2.995      43.498
2015    3       28    23   6    4.2186   566.4    2.996      43.451
2015    3       28    23  11    4.2170   566.2    2.996      43.404
2015    3       28    23  17    4.2155   565.9    2.997      43.357
2015    3       28    23  22    4.2139   565.6    2.997      43.311
2015    3       28    23  28    4.2124   565.4    2.998      43.264
2015    3       28    23  33    4.2109   565.1    2.999      43.218
2015    3       28    23  39    4.2093   564.8    2.999      43.171
2015    3       28    23  44    4.2078   564.5    3.000      43.124
2015    3       28    23  50    4.2063   564.3    3.001      43.078
2015    3       28    23  55    4.2048   564.0    3.001      43.031
2015    3       29     0   1    4.2033   563.7    3.002      42.984
