year    month   day   hour  minute  B_enl V_enl   n_enl       T_enl
[year] [month] [day] [hour][minute] [nT]  [km/s]  [cm-3]      [kK]
2015    3       10     0   5    3.9313   580.6    3.027      54.320
2015    3       10     0  11    3.9294   580.3    3.027      54.276
2015    3       10     0  16    3.9275   580.1    3.028      54.231
2015    3       10     0  22    3.9258   579.9    3.028      54.186
2015    3       10     0  28    3.9240   579.7    3.028      54.141
2015    3       10     0  33    3.9222   579.4    3.029      54.095
2015    3       10     0  39    3.9204   579.2    3.029      54.050
2015    3       10     0  45    3.9186   579.0    3.029      54.004
2015    3       10     0  50    3.9168   578.7    3.030      53.957
2015    3       10     0  56    3.9150   578.5    3.030      53.911
2015    3       10     1   2    3.9132   578.3    3.031      53.865
2015    3       10     1   7    3.9115   578.0    3.031      53.818
2015    3       10     1  13    3.9097   577.8    3.031      53.772
2015    3       10     1  19    3.9079   577.5    3.032      53.726
2015    3       10     1  24    3.9063   577.3    3.032      53.679
2015    3       10     1  30    3.9046   577.1    3.033      53.633
2015    3       10     1  36    3.9029   576.8    3.034      53.587
2015    3       10     1  41    3.9012   576.6    3.034      53.542
2015    3       10     1  47    3.8995   576.3    3.035      53.496
2015    3       10     1  53    3.8978   576.1    3.036      53.451
2015    3       10     1  58    3.8962   575.9    3.037      53.406
2015    3       10     2   4    3.8946   575.6    3.038      53.361
2015    3       10     2  10    3.8929   575.4    3.038      53.316
2015    3       10     2  15    3.8914   575.1    3.039      53.272
2015    3       10     2  21    3.8897   574.9    3.041      53.227
2015    3       10     2  27    3.8881   574.6    3.042      53.183
2015    3       10     2  32    3.8866   574.4    3.043      53.140
2015    3       10     2  38    3.8849   574.2    3.044      53.096
2015    3       10     2  44    3.8834   573.9    3.045      53.053
2015    3       10     2  49    3.8818   573.7    3.047      53.009
2015    3       10     2  55    3.8802   573.4    3.048      52.966
2015    3       10     3   1    3.8787   573.2    3.049      52.923
2015    3       10     3   6    3.8771   572.9    3.051      52.881
2015    3       10     3  12    3.8756   572.7    3.052      52.838
2015    3       10     3  18    3.8740   572.4    3.054      52.796
2015    3       10     3  23    3.8725   572.2    3.055      52.753
2015    3       10     3  29    3.8709   571.9    3.057      52.711
2015    3       10     3  35    3.8694   571.7    3.058      52.669
2015    3       10     3  40    3.8679   571.4    3.060      52.627
2015    3       10     3  46    3.8663   571.2    3.062      52.586
2015    3       10     3  52    3.8648   570.9    3.063      52.544
2015    3       10     3  57    3.8633   570.7    3.065      52.503
2015    3       10     4   3    3.8618   570.4    3.067      52.462
2015    3       10     4   9    3.8603   570.2    3.069      52.422
2015    3       10     4  14    3.8589   569.9    3.070      52.382
2015    3       10     4  20    3.8574   569.7    3.072      52.342
2015    3       10     4  26    3.8559   569.4    3.074      52.302
2015    3       10     4  31    3.8545   569.2    3.076      52.263
2015    3       10     4  37    3.8531   568.9    3.078      52.224
2015    3       10     4  43    3.8516   568.6    3.080      52.186
2015    3       10     4  48    3.8502   568.4    3.082      52.148
2015    3       10     4  54    3.8488   568.1    3.084      52.110
2015    3       10     5   0    3.8474   567.9    3.086      52.073
2015    3       10     5   5    3.8460   567.6    3.088      52.035
2015    3       10     5  11    3.8447   567.4    3.090      51.998
2015    3       10     5  17    3.8433   567.1    3.092      51.962
2015    3       10     5  22    3.8419   566.9    3.094      51.926
2015    3       10     5  28    3.8406   566.6    3.096      51.890
2015    3       10     5  34    3.8393   566.4    3.098      51.854
2015    3       10     5  39    3.8379   566.1    3.100      51.819
2015    3       10     5  45    3.8366   565.8    3.102      51.783
2015    3       10     5  51    3.8353   565.6    3.105      51.748
2015    3       10     5  56    3.8340   565.3    3.107      51.714
2015    3       10     6   2    3.8327   565.1    3.109      51.679
2015    3       10     6   8    3.8313   564.8    3.111      51.645
2015    3       10     6  13    3.8300   564.6    3.113      51.611
2015    3       10     6  19    3.8287   564.3    3.116      51.577
2015    3       10     6  25    3.8274   564.1    3.118      51.543
2015    3       10     6  30    3.8261   563.8    3.120      51.509
2015    3       10     6  36    3.8248   563.6    3.122      51.475
2015    3       10     6  42    3.8235   563.3    3.124      51.441
2015    3       10     6  47    3.8222   563.1    3.126      51.407
2015    3       10     6  53    3.8209   562.9    3.129      51.372
2015    3       10     6  59    3.8196   562.6    3.131      51.338
2015    3       10     7   4    3.8183   562.4    3.133      51.304
2015    3       10     7  10    3.8170   562.1    3.135      51.270
2015    3       10     7  16    3.8157   561.9    3.137      51.235
2015    3       10     7  21    3.8144   561.6    3.139      51.200
2015    3       10     7  27    3.8131   561.4    3.141      51.166
2015    3       10     7  33    3.8119   561.1    3.143      51.130
2015    3       10     7  38    3.8105   560.9    3.145      51.095
2015    3       10     7  44    3.8093   560.6    3.147      51.060
2015    3       10     7  50    3.8080   560.4    3.149      51.024
2015    3       10     7  55    3.8067   560.1    3.151      50.988
2015    3       10     8   1    3.8054   559.9    3.153      50.952
2015    3       10     8   7    3.8042   559.6    3.155      50.915
2015    3       10     8  12    3.8029   559.4    3.157      50.878
2015    3       10     8  18    3.8016   559.1    3.159      50.841
2015    3       10     8  24    3.8003   558.9    3.160      50.803
2015    3       10     8  29    3.7991   558.6    3.162      50.765
2015    3       10     8  35    3.7977   558.4    3.164      50.727
2015    3       10     8  41    3.7965   558.1    3.166      50.688
2015    3       10     8  46    3.7952   557.9    3.167      50.650
2015    3       10     8  52    3.7940   557.6    3.169      50.610
2015    3       10     8  58    3.7927   557.4    3.171      50.571
2015    3       10     9   3    3.7914   557.1    3.172      50.531
2015    3       10     9   9    3.7902   556.9    3.174      50.491
2015    3       10     9  15    3.7889   556.6    3.175      50.451
2015    3       10     9  20    3.7877   556.4    3.177      50.410
2015    3       10     9  26    3.7865   556.1    3.179      50.370
2015    3       10     9  32    3.7853   555.8    3.180      50.329
2015    3       10     9  37    3.7841   555.6    3.182      50.288
2015    3       10     9  43    3.7829   555.3    3.183      50.247
2015    3       10     9  49    3.7817   555.1    3.185      50.205
2015    3       10     9  54    3.7805   554.8    3.187      50.164
2015    3       10    10   0    3.7793   554.6    3.188      50.123
2015    3       10    10   6    3.7781   554.3    3.190      50.081
2015    3       10    10  11    3.7770   554.0    3.191      50.039
2015    3       10    10  17    3.7758   553.8    3.193      49.998
2015    3       10    10  23    3.7748   553.5    3.195      49.957
2015    3       10    10  28    3.7736   553.3    3.197      49.915
2015    3       10    10  34    3.7726   553.0    3.198      49.874
2015    3       10    10  40    3.7715   552.8    3.200      49.833
2015    3       10    10  45    3.7704   552.5    3.202      49.792
2015    3       10    10  51    3.7693   552.2    3.204      49.752
2015    3       10    10  57    3.7683   552.0    3.205      49.712
2015    3       10    11   2    3.7672   551.7    3.207      49.671
2015    3       10    11   8    3.7662   551.5    3.209      49.632
2015    3       10    11  13    3.7651   551.2    3.211      49.592
2015    3       10    11  19    3.7642   551.0    3.213      49.553
2015    3       10    11  25    3.7631   550.7    3.215      49.514
2015    3       10    11  30    3.7622   550.4    3.217      49.475
2015    3       10    11  36    3.7612   550.2    3.219      49.436
2015    3       10    11  42    3.7603   549.9    3.221      49.398
2015    3       10    11  47    3.7593   549.7    3.223      49.360
2015    3       10    11  53    3.7584   549.4    3.226      49.322
2015    3       10    11  59    3.7574   549.1    3.228      49.285
2015    3       10    12   4    3.7565   548.9    3.230      49.248
2015    3       10    12  10    3.7555   548.6    3.232      49.211
2015    3       10    12  16    3.7546   548.4    3.234      49.174
2015    3       10    12  21    3.7537   548.1    3.237      49.137
2015    3       10    12  27    3.7528   547.9    3.239      49.100
2015    3       10    12  33    3.7519   547.6    3.241      49.064
2015    3       10    12  38    3.7510   547.4    3.244      49.028
2015    3       10    12  44    3.7501   547.1    3.246      48.992
2015    3       10    12  50    3.7492   546.8    3.248      48.956
2015    3       10    12  55    3.7483   546.6    3.251      48.920
2015    3       10    13   1    3.7473   546.3    3.253      48.884
2015    3       10    13   7    3.7465   546.1    3.256      48.848
2015    3       10    13  12    3.7456   545.8    3.258      48.812
2015    3       10    13  18    3.7447   545.6    3.261      48.776
2015    3       10    13  24    3.7438   545.3    3.263      48.741
2015    3       10    13  29    3.7429   545.0    3.265      48.705
2015    3       10    13  35    3.7420   544.8    3.268      48.669
2015    3       10    13  41    3.7412   544.5    3.270      48.634
2015    3       10    13  46    3.7403   544.3    3.273      48.598
2015    3       10    13  52    3.7394   544.0    3.276      48.563
2015    3       10    13  58    3.7385   543.8    3.278      48.527
2015    3       10    14   3    3.7377   543.5    3.281      48.492
2015    3       10    14   9    3.7368   543.3    3.283      48.456
2015    3       10    14  15    3.7360   543.0    3.286      48.420
2015    3       10    14  20    3.7351   542.8    3.289      48.385
2015    3       10    14  26    3.7343   542.5    3.291      48.349
2015    3       10    14  32    3.7335   542.2    3.294      48.314
2015    3       10    14  37    3.7326   542.0    3.296      48.278
2015    3       10    14  43    3.7318   541.7    3.299      48.243
2015    3       10    14  49    3.7309   541.5    3.302      48.207
2015    3       10    14  54    3.7302   541.2    3.304      48.172
2015    3       10    15   0    3.7293   541.0    3.307      48.136
2015    3       10    15   6    3.7285   540.7    3.310      48.100
2015    3       10    15  11    3.7277   540.5    3.312      48.065
2015    3       10    15  17    3.7269   540.2    3.315      48.029
2015    3       10    15  23    3.7261   540.0    3.318      47.993
2015    3       10    15  28    3.7253   539.7    3.320      47.957
2015    3       10    15  34    3.7244   539.5    3.323      47.921
2015    3       10    15  40    3.7237   539.2    3.326      47.885
2015    3       10    15  45    3.7229   539.0    3.328      47.849
2015    3       10    15  51    3.7220   538.7    3.331      47.813
2015    3       10    15  57    3.7213   538.5    3.333      47.778
2015    3       10    16   2    3.7205   538.2    3.336      47.742
2015    3       10    16   8    3.7197   538.0    3.339      47.706
2015    3       10    16  14    3.7190   537.7    3.341      47.670
2015    3       10    16  19    3.7182   537.4    3.344      47.634
2015    3       10    16  25    3.7175   537.2    3.346      47.599
2015    3       10    16  31    3.7167   536.9    3.349      47.563
2015    3       10    16  36    3.7160   536.7    3.351      47.528
2015    3       10    16  42    3.7152   536.4    3.354      47.492
2015    3       10    16  48    3.7146   536.2    3.356      47.457
2015    3       10    16  53    3.7138   535.9    3.358      47.422
2015    3       10    16  59    3.7131   535.7    3.361      47.387
2015    3       10    17   5    3.7124   535.4    3.363      47.352
2015    3       10    17  10    3.7117   535.2    3.366      47.317
2015    3       10    17  16    3.7111   534.9    3.368      47.282
2015    3       10    17  22    3.7104   534.7    3.370      47.247
2015    3       10    17  27    3.7096   534.4    3.373      47.212
2015    3       10    17  33    3.7090   534.2    3.375      47.177
2015    3       10    17  39    3.7083   533.9    3.377      47.143
2015    3       10    17  44    3.7077   533.7    3.380      47.108
2015    3       10    17  50    3.7070   533.4    3.382      47.074
2015    3       10    17  56    3.7064   533.2    3.384      47.039
2015    3       10    18   1    3.7057   532.9    3.387      47.004
2015    3       10    18   7    3.7051   532.7    3.389      46.970
2015    3       10    18  13    3.7044   532.4    3.391      46.935
2015    3       10    18  18    3.7038   532.2    3.393      46.901
2015    3       10    18  24    3.7031   531.9    3.396      46.866
2015    3       10    18  30    3.7025   531.7    3.398      46.832
2015    3       10    18  35    3.7019   531.4    3.400      46.798
2015    3       10    18  41    3.7012   531.2    3.403      46.763
2015    3       10    18  47    3.7006   530.9    3.405      46.729
2015    3       10    18  52    3.7000   530.7    3.407      46.695
2015    3       10    18  58    3.6994   530.4    3.409      46.660
2015    3       10    19   4    3.6988   530.2    3.412      46.626
2015    3       10    19   9    3.6982   529.9    3.414      46.592
2015    3       10    19  15    3.6976   529.7    3.416      46.558
2015    3       10    19  21    3.6970   529.4    3.419      46.524
2015    3       10    19  26    3.6964   529.2    3.421      46.490
2015    3       10    19  32    3.6958   528.9    3.423      46.457
2015    3       10    19  38    3.6953   528.7    3.426      46.423
2015    3       10    19  43    3.6947   528.5    3.428      46.389
2015    3       10    19  49    3.6941   528.2    3.431      46.356
2015    3       10    19  55    3.6936   528.0    3.433      46.323
2015    3       10    20   0    3.6930   527.7    3.435      46.289
2015    3       10    20   6    3.6925   527.5    3.438      46.256
2015    3       10    20  12    3.6919   527.2    3.440      46.223
2015    3       10    20  17    3.6914   527.0    3.443      46.190
2015    3       10    20  23    3.6908   526.7    3.445      46.157
2015    3       10    20  29    3.6903   526.5    3.448      46.125
2015    3       10    20  34    3.6898   526.3    3.451      46.092
2015    3       10    20  40    3.6893   526.0    3.453      46.060
2015    3       10    20  46    3.6887   525.8    3.456      46.027
2015    3       10    20  51    3.6882   525.5    3.458      45.995
2015    3       10    20  57    3.6877   525.3    3.461      45.962
2015    3       10    21   3    3.6872   525.0    3.464      45.930
2015    3       10    21   8    3.6867   524.8    3.466      45.898
2015    3       10    21  14    3.6862   524.5    3.469      45.865
2015    3       10    21  20    3.6857   524.3    3.472      45.833
2015    3       10    21  25    3.6852   524.1    3.474      45.801
2015    3       10    21  31    3.6847   523.8    3.477      45.769
2015    3       10    21  37    3.6842   523.6    3.480      45.736
2015    3       10    21  42    3.6837   523.3    3.482      45.704
2015    3       10    21  48    3.6832   523.1    3.485      45.672
2015    3       10    21  54    3.6827   522.9    3.488      45.640
2015    3       10    21  59    3.6823   522.6    3.490      45.607
2015    3       10    22   5    3.6818   522.4    3.493      45.575
2015    3       10    22  11    3.6813   522.1    3.496      45.543
2015    3       10    22  16    3.6808   521.9    3.499      45.510
2015    3       10    22  22    3.6803   521.6    3.501      45.478
2015    3       10    22  28    3.6799   521.4    3.504      45.445
2015    3       10    22  33    3.6794   521.2    3.507      45.413
2015    3       10    22  39    3.6790   520.9    3.509      45.381
2015    3       10    22  45    3.6785   520.7    3.512      45.348
2015    3       10    22  50    3.6780   520.4    3.515      45.316
2015    3       10    22  56    3.6776   520.2    3.517      45.283
2015    3       10    23   2    3.6772   519.9    3.520      45.251
2015    3       10    23   7    3.6767   519.7    3.523      45.219
2015    3       10    23  13    3.6763   519.5    3.525      45.186
2015    3       10    23  19    3.6759   519.2    3.528      45.154
2015    3       10    23  24    3.6754   519.0    3.531      45.122
2015    3       10    23  30    3.6750   518.7    3.533      45.090
2015    3       10    23  35    3.6746   518.5    3.536      45.058
2015    3       10    23  41    3.6742   518.3    3.539      45.026
2015    3       10    23  47    3.6738   518.0    3.541      44.995
2015    3       10    23  52    3.6734   517.8    3.544      44.963
2015    3       10    23  58    3.6730   517.5    3.547      44.931
2015    3       11     0   4    3.6726   517.3    3.550      44.900
2015    3       11     0   9    3.6723   517.0    3.552      44.869
2015    3       11     0  15    3.6719   516.8    3.555      44.838
2015    3       11     0  21    3.6715   516.6    3.558      44.807
2015    3       11     0  26    3.6712   516.3    3.560      44.777
2015    3       11     0  32    3.6709   516.1    3.563      44.746
2015    3       11     0  38    3.6705   515.8    3.566      44.716
2015    3       11     0  43    3.6702   515.6    3.569      44.686
2015    3       11     0  49    3.6698   515.4    3.571      44.656
2015    3       11     0  55    3.6695   515.1    3.574      44.626
2015    3       11     1   0    3.6692   514.9    3.577      44.596
2015    3       11     1   6    3.6689   514.6    3.580      44.567
2015    3       11     1  12    3.6686   514.4    3.582      44.538
2015    3       11     1  17    3.6683   514.2    3.585      44.508
2015    3       11     1  23    3.6679   513.9    3.588      44.479
2015    3       11     1  29    3.6677   513.7    3.591      44.450
2015    3       11     1  34    3.6673   513.4    3.594      44.421
2015    3       11     1  40    3.6671   513.2    3.596      44.392
2015    3       11     1  46    3.6668   513.0    3.599      44.364
2015    3       11     1  51    3.6665   512.7    3.602      44.335
2015    3       11     1  57    3.6662   512.5    3.605      44.307
2015    3       11     2   3    3.6660   512.3    3.608      44.278
2015    3       11     2   8    3.6657   512.0    3.611      44.250
2015    3       11     2  14    3.6654   511.8    3.613      44.222
2015    3       11     2  20    3.6651   511.6    3.616      44.194
2015    3       11     2  25    3.6648   511.3    3.619      44.165
2015    3       11     2  31    3.6646   511.1    3.622      44.137
2015    3       11     2  37    3.6643   510.8    3.625      44.109
2015    3       11     2  42    3.6641   510.6    3.627      44.081
2015    3       11     2  48    3.6638   510.4    3.630      44.054
2015    3       11     2  54    3.6636   510.1    3.633      44.026
2015    3       11     2  59    3.6633   509.9    3.636      43.998
2015    3       11     3   5    3.6631   509.7    3.639      43.971
2015    3       11     3  11    3.6629   509.4    3.642      43.943
2015    3       11     3  16    3.6626   509.2    3.645      43.915
2015    3       11     3  22    3.6624   509.0    3.647      43.888
2015    3       11     3  28    3.6622   508.7    3.650      43.861
2015    3       11     3  33    3.6620   508.5    3.653      43.834
2015    3       11     3  39    3.6618   508.3    3.656      43.806
2015    3       11     3  45    3.6616   508.0    3.659      43.779
2015    3       11     3  50    3.6614   507.8    3.662      43.752
2015    3       11     3  56    3.6612   507.6    3.665      43.725
2015    3       11     4   2    3.6610   507.3    3.668      43.699
2015    3       11     4   7    3.6608   507.1    3.671      43.672
2015    3       11     4  13    3.6606   506.9    3.674      43.645
2015    3       11     4  19    3.6605   506.6    3.677      43.619
2015    3       11     4  24    3.6603   506.4    3.679      43.593
2015    3       11     4  30    3.6601   506.2    3.682      43.566
2015    3       11     4  36    3.6600   506.0    3.685      43.540
2015    3       11     4  41    3.6598   505.7    3.688      43.514
2015    3       11     4  47    3.6597   505.5    3.691      43.488
2015    3       11     4  53    3.6595   505.3    3.694      43.462
2015    3       11     4  58    3.6594   505.0    3.697      43.435
2015    3       11     5   4    3.6593   504.8    3.700      43.410
2015    3       11     5  10    3.6591   504.6    3.703      43.384
2015    3       11     5  15    3.6590   504.4    3.706      43.358
2015    3       11     5  21    3.6589   504.1    3.709      43.332
2015    3       11     5  27    3.6587   503.9    3.712      43.307
2015    3       11     5  32    3.6586   503.7    3.715      43.281
2015    3       11     5  38    3.6585   503.4    3.718      43.255
2015    3       11     5  44    3.6584   503.2    3.721      43.230
2015    3       11     5  49    3.6583   503.0    3.724      43.204
2015    3       11     5  55    3.6582   502.8    3.727      43.179
2015    3       11     6   1    3.6580   502.5    3.730      43.154
2015    3       11     6   6    3.6579   502.3    3.733      43.128
2015    3       11     6  12    3.6578   502.1    3.736      43.103
2015    3       11     6  18    3.6577   501.9    3.739      43.078
2015    3       11     6  23    3.6576   501.6    3.742      43.053
2015    3       11     6  29    3.6576   501.4    3.745      43.028
2015    3       11     6  35    3.6574   501.2    3.748      43.002
2015    3       11     6  40    3.6574   501.0    3.751      42.977
2015    3       11     6  46    3.6573   500.7    3.754      42.953
2015    3       11     6  52    3.6572   500.5    3.757      42.928
2015    3       11     6  57    3.6571   500.3    3.760      42.903
2015    3       11     7   3    3.6571   500.1    3.763      42.878
2015    3       11     7   9    3.6570   499.8    3.766      42.854
2015    3       11     7  14    3.6570   499.6    3.769      42.829
2015    3       11     7  20    3.6569   499.4    3.772      42.805
2015    3       11     7  26    3.6568   499.2    3.775      42.781
2015    3       11     7  31    3.6568   498.9    3.778      42.757
2015    3       11     7  37    3.6568   498.7    3.781      42.733
2015    3       11     7  43    3.6567   498.5    3.784      42.709
2015    3       11     7  48    3.6567   498.3    3.787      42.685
2015    3       11     7  54    3.6567   498.1    3.790      42.661
2015    3       11     8   0    3.6566   497.8    3.793      42.638
2015    3       11     8   5    3.6566   497.6    3.796      42.614
2015    3       11     8  11    3.6566   497.4    3.799      42.591
2015    3       11     8  17    3.6566   497.2    3.802      42.568
2015    3       11     8  22    3.6566   497.0    3.805      42.545
2015    3       11     8  28    3.6566   496.7    3.808      42.522
2015    3       11     8  34    3.6566   496.5    3.811      42.499
2015    3       11     8  39    3.6566   496.3    3.814      42.477
2015    3       11     8  45    3.6566   496.1    3.817      42.454
2015    3       11     8  51    3.6567   495.9    3.821      42.432
2015    3       11     8  56    3.6567   495.6    3.824      42.410
2015    3       11     9   2    3.6567   495.4    3.827      42.388
2015    3       11     9   8    3.6567   495.2    3.830      42.366
2015    3       11     9  13    3.6568   495.0    3.833      42.344
2015    3       11     9  19    3.6568   494.8    3.836      42.322
2015    3       11     9  25    3.6568   494.6    3.840      42.301
2015    3       11     9  30    3.6569   494.4    3.843      42.280
2015    3       11     9  36    3.6569   494.1    3.846      42.258
2015    3       11     9  42    3.6570   493.9    3.849      42.237
2015    3       11     9  47    3.6570   493.7    3.852      42.217
2015    3       11     9  53    3.6571   493.5    3.856      42.196
2015    3       11     9  59    3.6572   493.3    3.859      42.175
2015    3       11    10   4    3.6572   493.1    3.862      42.155
2015    3       11    10  10    3.6573   492.9    3.865      42.134
2015    3       11    10  16    3.6574   492.6    3.869      42.114
2015    3       11    10  21    3.6574   492.4    3.872      42.094
2015    3       11    10  27    3.6575   492.2    3.875      42.074
2015    3       11    10  33    3.6576   492.0    3.878      42.054
2015    3       11    10  38    3.6577   491.8    3.882      42.034
2015    3       11    10  44    3.6578   491.6    3.885      42.015
2015    3       11    10  50    3.6579   491.4    3.888      41.995
2015    3       11    10  55    3.6580   491.2    3.891      41.976
2015    3       11    11   1    3.6581   490.9    3.895      41.957
2015    3       11    11   7    3.6582   490.7    3.898      41.938
2015    3       11    11  12    3.6583   490.5    3.901      41.919
2015    3       11    11  18    3.6584   490.3    3.905      41.900
2015    3       11    11  24    3.6586   490.1    3.908      41.881
2015    3       11    11  29    3.6587   489.9    3.911      41.862
2015    3       11    11  35    3.6588   489.7    3.914      41.844
2015    3       11    11  41    3.6589   489.5    3.918      41.825
2015    3       11    11  46    3.6591   489.3    3.921      41.807
2015    3       11    11  52    3.6592   489.1    3.924      41.789
2015    3       11    11  57    3.6594   488.9    3.928      41.771
2015    3       11    12   3    3.6595   488.6    3.931      41.752
2015    3       11    12   9    3.6597   488.4    3.934      41.735
2015    3       11    12  14    3.6598   488.2    3.938      41.717
2015    3       11    12  20    3.6600   488.0    3.941      41.699
2015    3       11    12  26    3.6602   487.8    3.944      41.681
2015    3       11    12  31    3.6603   487.6    3.948      41.664
2015    3       11    12  37    3.6605   487.4    3.951      41.646
2015    3       11    12  43    3.6607   487.2    3.955      41.629
2015    3       11    12  48    3.6608   487.0    3.958      41.611
2015    3       11    12  54    3.6610   486.8    3.961      41.594
2015    3       11    13   0    3.6612   486.6    3.965      41.577
2015    3       11    13   5    3.6614   486.4    3.968      41.559
2015    3       11    13  11    3.6616   486.2    3.971      41.542
2015    3       11    13  17    3.6618   486.0    3.975      41.525
2015    3       11    13  22    3.6620   485.8    3.978      41.508
2015    3       11    13  28    3.6621   485.6    3.981      41.491
2015    3       11    13  34    3.6623   485.4    3.985      41.474
2015    3       11    13  39    3.6625   485.2    3.988      41.457
2015    3       11    13  45    3.6627   485.0    3.992      41.440
2015    3       11    13  51    3.6629   484.8    3.995      41.423
2015    3       11    13  56    3.6631   484.6    3.998      41.406
2015    3       11    14   2    3.6634   484.4    4.002      41.390
2015    3       11    14   8    3.6636   484.2    4.005      41.373
2015    3       11    14  13    3.6638   484.0    4.008      41.356
2015    3       11    14  19    3.6640   483.8    4.012      41.340
2015    3       11    14  25    3.6642   483.6    4.015      41.323
2015    3       11    14  30    3.6644   483.4    4.019      41.306
2015    3       11    14  36    3.6646   483.2    4.022      41.290
2015    3       11    14  42    3.6648   483.0    4.025      41.273
2015    3       11    14  47    3.6650   482.8    4.029      41.257
2015    3       11    14  53    3.6652   482.6    4.032      41.241
2015    3       11    14  59    3.6655   482.4    4.035      41.224
2015    3       11    15   4    3.6657   482.2    4.039      41.208
2015    3       11    15  10    3.6659   482.0    4.042      41.192
2015    3       11    15  16    3.6661   481.8    4.045      41.175
2015    3       11    15  21    3.6663   481.6    4.049      41.159
2015    3       11    15  27    3.6665   481.4    4.052      41.143
2015    3       11    15  33    3.6668   481.2    4.055      41.127
2015    3       11    15  38    3.6670   481.0    4.059      41.111
2015    3       11    15  44    3.6672   480.8    4.062      41.095
2015    3       11    15  50    3.6674   480.6    4.065      41.079
2015    3       11    15  55    3.6677   480.4    4.069      41.063
2015    3       11    16   1    3.6679   480.2    4.072      41.048
2015    3       11    16   7    3.6681   480.1    4.075      41.032
2015    3       11    16  12    3.6684   479.9    4.079      41.016
2015    3       11    16  18    3.6686   479.7    4.082      41.001
2015    3       11    16  24    3.6688   479.5    4.085      40.985
2015    3       11    16  29    3.6691   479.3    4.088      40.970
2015    3       11    16  35    3.6693   479.1    4.092      40.955
2015    3       11    16  41    3.6696   478.9    4.095      40.939
2015    3       11    16  46    3.6698   478.7    4.098      40.924
2015    3       11    16  52    3.6700   478.5    4.102      40.909
2015    3       11    16  58    3.6703   478.3    4.105      40.894
2015    3       11    17   3    3.6705   478.1    4.108      40.879
2015    3       11    17   9    3.6708   477.9    4.112      40.864
2015    3       11    17  15    3.6710   477.8    4.115      40.849
2015    3       11    17  20    3.6713   477.6    4.118      40.835
2015    3       11    17  26    3.6715   477.4    4.121      40.820
2015    3       11    17  32    3.6718   477.2    4.125      40.805
2015    3       11    17  37    3.6721   477.0    4.128      40.791
2015    3       11    17  43    3.6723   476.8    4.131      40.776
2015    3       11    17  49    3.6726   476.6    4.135      40.762
2015    3       11    17  54    3.6729   476.4    4.138      40.748
2015    3       11    18   0    3.6731   476.2    4.141      40.733
2015    3       11    18   6    3.6734   476.1    4.145      40.719
2015    3       11    18  11    3.6737   475.9    4.148      40.705
2015    3       11    18  17    3.6739   475.7    4.151      40.691
2015    3       11    18  23    3.6742   475.5    4.155      40.677
2015    3       11    18  28    3.6745   475.3    4.158      40.663
2015    3       11    18  34    3.6748   475.1    4.161      40.650
2015    3       11    18  40    3.6751   474.9    4.164      40.636
2015    3       11    18  45    3.6753   474.8    4.168      40.622
2015    3       11    18  51    3.6756   474.6    4.171      40.609
2015    3       11    18  57    3.6759   474.4    4.174      40.595
2015    3       11    19   2    3.6762   474.2    4.178      40.582
2015    3       11    19   8    3.6765   474.0    4.181      40.569
2015    3       11    19  14    3.6768   473.8    4.184      40.555
2015    3       11    19  19    3.6771   473.6    4.188      40.542
2015    3       11    19  25    3.6774   473.5    4.191      40.529
2015    3       11    19  31    3.6777   473.3    4.194      40.516
2015    3       11    19  36    3.6780   473.1    4.198      40.503
2015    3       11    19  42    3.6783   472.9    4.201      40.490
2015    3       11    19  48    3.6786   472.7    4.205      40.477
2015    3       11    19  53    3.6789   472.5    4.208      40.464
2015    3       11    19  59    3.6792   472.4    4.211      40.452
2015    3       11    20   5    3.6795   472.2    4.215      40.439
2015    3       11    20  10    3.6799   472.0    4.218      40.426
2015    3       11    20  16    3.6802   471.8    4.221      40.414
2015    3       11    20  22    3.6805   471.6    4.225      40.402
2015    3       11    20  27    3.6808   471.5    4.228      40.389
2015    3       11    20  33    3.6812   471.3    4.232      40.377
2015    3       11    20  39    3.6815   471.1    4.235      40.365
2015    3       11    20  44    3.6818   470.9    4.238      40.353
2015    3       11    20  50    3.6821   470.7    4.242      40.341
2015    3       11    20  56    3.6825   470.6    4.245      40.329
2015    3       11    21   1    3.6828   470.4    4.249      40.317
2015    3       11    21   7    3.6831   470.2    4.252      40.305
2015    3       11    21  13    3.6835   470.0    4.255      40.293
2015    3       11    21  18    3.6838   469.8    4.259      40.281
2015    3       11    21  24    3.6841   469.7    4.262      40.270
2015    3       11    21  30    3.6845   469.5    4.266      40.258
2015    3       11    21  35    3.6848   469.3    4.269      40.247
2015    3       11    21  41    3.6852   469.1    4.273      40.235
2015    3       11    21  47    3.6855   468.9    4.276      40.224
2015    3       11    21  52    3.6859   468.8    4.279      40.212
2015    3       11    21  58    3.6862   468.6    4.283      40.201
2015    3       11    22   4    3.6866   468.4    4.286      40.190
2015    3       11    22   9    3.6869   468.2    4.290      40.178
2015    3       11    22  15    3.6873   468.1    4.293      40.167
2015    3       11    22  21    3.6876   467.9    4.297      40.156
2015    3       11    22  26    3.6880   467.7    4.300      40.145
2015    3       11    22  32    3.6883   467.5    4.304      40.134
2015    3       11    22  38    3.6887   467.4    4.307      40.123
2015    3       11    22  43    3.6890   467.2    4.311      40.112
2015    3       11    22  49    3.6894   467.0    4.314      40.101
2015    3       11    22  55    3.6898   466.8    4.317      40.090
2015    3       11    23   0    3.6901   466.7    4.321      40.078
2015    3       11    23   6    3.6905   466.5    4.324      40.068
2015    3       11    23  12    3.6909   466.3    4.328      40.056
2015    3       11    23  17    3.6912   466.1    4.331      40.045
2015    3       11    23  23    3.6916   466.0    4.335      40.034
2015    3       11    23  29    3.6920   465.8    4.338      40.023
2015    3       11    23  34    3.6923   465.6    4.342      40.012
2015    3       11    23  40    3.6927   465.4    4.345      40.001
2015    3       11    23  46    3.6931   465.3    4.348      39.990
2015    3       11    23  51    3.6934   465.1    4.352      39.979
2015    3       11    23  57    3.6938   464.9    4.355      39.968
2015    3       12     0   2    3.6942   464.8    4.359      39.957
2015    3       12     0   8    3.6946   464.6    4.362      39.946
2015    3       12     0  14    3.6949   464.4    4.366      39.935
2015    3       12     0  19    3.6953   464.2    4.369      39.924
2015    3       12     0  25    3.6957   464.1    4.372      39.913
2015    3       12     0  31    3.6960   463.9    4.376      39.901
2015    3       12     0  36    3.6964   463.7    4.379      39.890
2015    3       12     0  42    3.6968   463.5    4.383      39.879
2015    3       12     0  48    3.6972   463.4    4.386      39.868
2015    3       12     0  53    3.6976   463.2    4.389      39.857
2015    3       12     0  59    3.6979   463.0    4.393      39.846
2015    3       12     1   5    3.6983   462.9    4.396      39.834
2015    3       12     1  10    3.6987   462.7    4.400      39.823
2015    3       12     1  16    3.6991   462.5    4.403      39.812
2015    3       12     1  22    3.6995   462.4    4.406      39.801
2015    3       12     1  27    3.6999   462.2    4.410      39.789
2015    3       12     1  33    3.7003   462.0    4.413      39.778
2015    3       12     1  39    3.7007   461.8    4.416      39.767
2015    3       12     1  44    3.7011   461.7    4.420      39.756
2015    3       12     1  50    3.7015   461.5    4.423      39.745
2015    3       12     1  56    3.7019   461.3    4.427      39.733
2015    3       12     2   1    3.7023   461.2    4.430      39.722
2015    3       12     2   7    3.7027   461.0    4.433      39.711
2015    3       12     2  13    3.7031   460.8    4.437      39.700
2015    3       12     2  18    3.7035   460.7    4.440      39.688
2015    3       12     2  24    3.7039   460.5    4.444      39.677
2015    3       12     2  30    3.7044   460.3    4.447      39.666
2015    3       12     2  35    3.7048   460.2    4.450      39.655
2015    3       12     2  41    3.7052   460.0    4.454      39.644
2015    3       12     2  47    3.7056   459.8    4.457      39.632
2015    3       12     2  52    3.7061   459.7    4.460      39.621
2015    3       12     2  58    3.7065   459.5    4.464      39.610
2015    3       12     3   4    3.7069   459.3    4.467      39.599
2015    3       12     3   9    3.7074   459.2    4.471      39.588
2015    3       12     3  15    3.7078   459.0    4.474      39.577
2015    3       12     3  21    3.7083   458.8    4.477      39.566
2015    3       12     3  26    3.7087   458.7    4.481      39.554
2015    3       12     3  32    3.7091   458.5    4.484      39.544
2015    3       12     3  38    3.7096   458.3    4.488      39.532
2015    3       12     3  43    3.7100   458.2    4.491      39.522
2015    3       12     3  49    3.7105   458.0    4.494      39.511
2015    3       12     3  55    3.7110   457.8    4.498      39.500
2015    3       12     4   0    3.7114   457.7    4.501      39.489
2015    3       12     4   6    3.7119   457.5    4.505      39.478
2015    3       12     4  12    3.7123   457.3    4.508      39.467
2015    3       12     4  17    3.7128   457.2    4.512      39.456
2015    3       12     4  23    3.7133   457.0    4.515      39.446
2015    3       12     4  29    3.7138   456.8    4.518      39.435
2015    3       12     4  34    3.7142   456.7    4.522      39.424
2015    3       12     4  40    3.7147   456.5    4.525      39.413
2015    3       12     4  46    3.7152   456.4    4.529      39.403
2015    3       12     4  51    3.7157   456.2    4.532      39.392
2015    3       12     4  57    3.7162   456.0    4.535      39.382
2015    3       12     5   3    3.7167   455.9    4.539      39.371
2015    3       12     5   8    3.7172   455.7    4.542      39.360
2015    3       12     5  14    3.7177   455.5    4.546      39.350
2015    3       12     5  20    3.7182   455.4    4.549      39.340
2015    3       12     5  25    3.7187   455.2    4.553      39.329
2015    3       12     5  31    3.7191   455.1    4.556      39.319
2015    3       12     5  37    3.7197   454.9    4.559      39.308
2015    3       12     5  42    3.7202   454.7    4.563      39.298
2015    3       12     5  48    3.7207   454.6    4.566      39.288
2015    3       12     5  53    3.7212   454.4    4.570      39.277
2015    3       12     5  59    3.7217   454.2    4.573      39.267
2015    3       12     6   5    3.7222   454.1    4.577      39.257
2015    3       12     6  10    3.7228   453.9    4.580      39.246
2015    3       12     6  16    3.7233   453.8    4.584      39.236
2015    3       12     6  22    3.7238   453.6    4.587      39.226
2015    3       12     6  27    3.7243   453.4    4.591      39.216
2015    3       12     6  33    3.7249   453.3    4.594      39.206
2015    3       12     6  39    3.7254   453.1    4.597      39.196
2015    3       12     6  44    3.7260   453.0    4.601      39.186
2015    3       12     6  50    3.7265   452.8    4.604      39.176
2015    3       12     6  56    3.7270   452.6    4.608      39.166
2015    3       12     7   1    3.7276   452.5    4.611      39.156
2015    3       12     7   7    3.7281   452.3    4.615      39.146
2015    3       12     7  13    3.7287   452.2    4.618      39.136
2015    3       12     7  18    3.7292   452.0    4.622      39.126
2015    3       12     7  24    3.7298   451.8    4.626      39.116
2015    3       12     7  30    3.7304   451.7    4.629      39.106
2015    3       12     7  35    3.7309   451.5    4.633      39.096
2015    3       12     7  41    3.7315   451.4    4.636      39.086
2015    3       12     7  47    3.7321   451.2    4.640      39.076
2015    3       12     7  52    3.7327   451.0    4.643      39.066
2015    3       12     7  58    3.7332   450.9    4.647      39.056
2015    3       12     8   4    3.7338   450.7    4.650      39.046
2015    3       12     8   9    3.7344   450.6    4.654      39.036
2015    3       12     8  15    3.7350   450.4    4.657      39.026
2015    3       12     8  21    3.7356   450.3    4.661      39.016
2015    3       12     8  26    3.7362   450.1    4.665      39.006
2015    3       12     8  32    3.7368   449.9    4.668      38.996
2015    3       12     8  38    3.7374   449.8    4.672      38.986
2015    3       12     8  43    3.7380   449.6    4.675      38.976
2015    3       12     8  49    3.7386   449.5    4.679      38.966
2015    3       12     8  55    3.7393   449.3    4.683      38.956
2015    3       12     9   0    3.7399   449.2    4.686      38.946
2015    3       12     9   6    3.7405   449.0    4.690      38.936
2015    3       12     9  12    3.7412   448.8    4.694      38.926
2015    3       12     9  17    3.7418   448.7    4.697      38.916
2015    3       12     9  23    3.7424   448.5    4.701      38.906
2015    3       12     9  29    3.7431   448.4    4.705      38.896
2015    3       12     9  34    3.7437   448.2    4.708      38.886
2015    3       12     9  40    3.7444   448.1    4.712      38.876
2015    3       12     9  46    3.7451   447.9    4.716      38.866
2015    3       12     9  51    3.7458   447.7    4.719      38.856
2015    3       12     9  57    3.7464   447.6    4.723      38.846
2015    3       12    10   3    3.7471   447.4    4.727      38.836
2015    3       12    10   8    3.7478   447.3    4.730      38.826
2015    3       12    10  14    3.7485   447.1    4.734      38.816
2015    3       12    10  20    3.7492   447.0    4.738      38.806
2015    3       12    10  25    3.7499   446.8    4.741      38.796
2015    3       12    10  31    3.7506   446.7    4.745      38.785
2015    3       12    10  37    3.7513   446.5    4.749      38.776
2015    3       12    10  42    3.7521   446.4    4.753      38.765
2015    3       12    10  48    3.7528   446.2    4.756      38.755
2015    3       12    10  54    3.7536   446.0    4.760      38.745
2015    3       12    10  59    3.7543   445.9    4.764      38.735
2015    3       12    11   5    3.7551   445.7    4.768      38.725
2015    3       12    11  11    3.7558   445.6    4.771      38.715
2015    3       12    11  16    3.7566   445.4    4.775      38.705
2015    3       12    11  22    3.7574   445.3    4.779      38.695
2015    3       12    11  28    3.7581   445.1    4.783      38.685
2015    3       12    11  33    3.7589   445.0    4.786      38.675
2015    3       12    11  39    3.7597   444.8    4.790      38.665
2015    3       12    11  45    3.7605   444.7    4.794      38.655
2015    3       12    11  50    3.7614   444.5    4.798      38.645
2015    3       12    11  56    3.7622   444.4    4.801      38.635
2015    3       12    12   2    3.7630   444.2    4.805      38.625
2015    3       12    12   7    3.7638   444.0    4.809      38.615
2015    3       12    12  13    3.7647   443.9    4.813      38.605
2015    3       12    12  19    3.7655   443.7    4.817      38.595
2015    3       12    12  24    3.7664   443.6    4.821      38.586
2015    3       12    12  30    3.7672   443.4    4.824      38.576
2015    3       12    12  36    3.7681   443.3    4.828      38.566
2015    3       12    12  41    3.7689   443.1    4.832      38.556
2015    3       12    12  47    3.7698   443.0    4.836      38.546
2015    3       12    12  53    3.7707   442.8    4.840      38.536
2015    3       12    12  58    3.7716   442.7    4.844      38.527
2015    3       12    13   4    3.7725   442.5    4.848      38.517
2015    3       12    13  10    3.7734   442.4    4.851      38.507
2015    3       12    13  15    3.7742   442.2    4.855      38.498
2015    3       12    13  21    3.7752   442.1    4.859      38.488
2015    3       12    13  27    3.7761   441.9    4.863      38.478
2015    3       12    13  32    3.7770   441.8    4.867      38.469
2015    3       12    13  38    3.7779   441.6    4.871      38.459
2015    3       12    13  44    3.7788   441.5    4.875      38.450
2015    3       12    13  49    3.7798   441.3    4.879      38.440
2015    3       12    13  55    3.7807   441.2    4.883      38.431
2015    3       12    14   1    3.7816   441.0    4.887      38.421
2015    3       12    14   6    3.7826   440.9    4.891      38.412
2015    3       12    14  12    3.7835   440.7    4.895      38.402
2015    3       12    14  18    3.7845   440.6    4.899      38.393
2015    3       12    14  23    3.7854   440.4    4.903      38.383
2015    3       12    14  29    3.7864   440.3    4.907      38.374
2015    3       12    14  35    3.7873   440.1    4.911      38.365
2015    3       12    14  40    3.7883   440.0    4.915      38.355
2015    3       12    14  46    3.7893   439.8    4.919      38.346
2015    3       12    14  52    3.7902   439.7    4.923      38.337
2015    3       12    14  57    3.7912   439.5    4.928      38.328
2015    3       12    15   3    3.7922   439.4    4.932      38.318
2015    3       12    15   9    3.7932   439.2    4.936      38.309
2015    3       12    15  14    3.7942   439.1    4.940      38.300
2015    3       12    15  20    3.7952   438.9    4.944      38.291
2015    3       12    15  26    3.7962   438.8    4.948      38.282
2015    3       12    15  31    3.7973   438.6    4.953      38.272
2015    3       12    15  37    3.7982   438.5    4.957      38.263
2015    3       12    15  42    3.7993   438.3    4.961      38.254
2015    3       12    15  48    3.8003   438.2    4.965      38.245
2015    3       12    15  54    3.8013   438.0    4.969      38.236
2015    3       12    15  59    3.8024   437.9    4.974      38.227
2015    3       12    16   5    3.8035   437.7    4.978      38.218
2015    3       12    16  11    3.8045   437.6    4.982      38.209
2015    3       12    16  16    3.8056   437.4    4.986      38.200
2015    3       12    16  22    3.8067   437.3    4.991      38.191
2015    3       12    16  28    3.8078   437.1    4.995      38.182
2015    3       12    16  33    3.8089   437.0    4.999      38.173
2015    3       12    16  39    3.8100   436.8    5.004      38.164
2015    3       12    16  45    3.8111   436.7    5.008      38.155
2015    3       12    16  50    3.8122   436.5    5.012      38.146
2015    3       12    16  56    3.8133   436.4    5.017      38.137
2015    3       12    17   2    3.8145   436.3    5.021      38.128
2015    3       12    17   7    3.8156   436.1    5.026      38.120
2015    3       12    17  13    3.8169   436.0    5.030      38.111
2015    3       12    17  19    3.8180   435.8    5.035      38.102
2015    3       12    17  24    3.8192   435.7    5.039      38.093
2015    3       12    17  30    3.8204   435.5    5.043      38.084
2015    3       12    17  36    3.8216   435.4    5.048      38.076
2015    3       12    17  41    3.8229   435.2    5.052      38.067
2015    3       12    17  47    3.8241   435.1    5.057      38.058
2015    3       12    17  53    3.8253   434.9    5.062      38.050
2015    3       12    17  58    3.8266   434.8    5.066      38.041
2015    3       12    18   4    3.8279   434.6    5.071      38.032
2015    3       12    18  10    3.8292   434.5    5.075      38.024
2015    3       12    18  15    3.8305   434.4    5.080      38.015
2015    3       12    18  21    3.8318   434.2    5.084      38.006
2015    3       12    18  27    3.8331   434.1    5.089      37.998
2015    3       12    18  32    3.8345   433.9    5.094      37.989
2015    3       12    18  38    3.8358   433.8    5.098      37.981
2015    3       12    18  44    3.8372   433.6    5.103      37.972
2015    3       12    18  49    3.8386   433.5    5.108      37.964
2015    3       12    18  55    3.8401   433.3    5.112      37.956
2015    3       12    19   1    3.8414   433.2    5.117      37.947
2015    3       12    19   6    3.8429   433.0    5.122      37.939
2015    3       12    19  12    3.8443   432.9    5.127      37.931
2015    3       12    19  18    3.8457   432.8    5.131      37.923
2015    3       12    19  23    3.8473   432.6    5.136      37.915
2015    3       12    19  29    3.8487   432.5    5.141      37.906
2015    3       12    19  35    3.8502   432.3    5.146      37.898
2015    3       12    19  40    3.8517   432.2    5.151      37.890
2015    3       12    19  46    3.8532   432.0    5.156      37.882
2015    3       12    19  52    3.8548   431.9    5.161      37.874
2015    3       12    19  57    3.8563   431.8    5.166      37.867
2015    3       12    20   3    3.8579   431.6    5.170      37.859
2015    3       12    20   9    3.8595   431.5    5.175      37.851
2015    3       12    20  14    3.8610   431.3    5.180      37.843
2015    3       12    20  20    3.8626   431.2    5.185      37.836
2015    3       12    20  26    3.8643   431.0    5.191      37.828
2015    3       12    20  31    3.8658   430.9    5.196      37.820
2015    3       12    20  37    3.8675   430.8    5.201      37.813
2015    3       12    20  43    3.8691   430.6    5.206      37.805
2015    3       12    20  48    3.8707   430.5    5.211      37.798
2015    3       12    20  54    3.8725   430.3    5.216      37.791
2015    3       12    21   0    3.8741   430.2    5.221      37.783
2015    3       12    21   5    3.8758   430.1    5.227      37.776
2015    3       12    21  11    3.8775   429.9    5.232      37.769
2015    3       12    21  17    3.8792   429.8    5.237      37.762
2015    3       12    21  22    3.8809   429.6    5.243      37.755
2015    3       12    21  28    3.8827   429.5    5.248      37.748
2015    3       12    21  34    3.8844   429.4    5.253      37.741
2015    3       12    21  39    3.8862   429.2    5.259      37.734
2015    3       12    21  45    3.8878   429.1    5.264      37.727
2015    3       12    21  51    3.8897   428.9    5.269      37.720
2015    3       12    21  56    3.8914   428.8    5.275      37.713
2015    3       12    22   2    3.8933   428.7    5.280      37.706
2015    3       12    22   8    3.8950   428.5    5.286      37.700
2015    3       12    22  13    3.8969   428.4    5.291      37.693
2015    3       12    22  19    3.8987   428.2    5.297      37.687
2015    3       12    22  25    3.9004   428.1    5.303      37.680
2015    3       12    22  30    3.9024   428.0    5.308      37.673
2015    3       12    22  36    3.9041   427.8    5.314      37.667
2015    3       12    22  42    3.9061   427.7    5.320      37.660
2015    3       12    22  47    3.9079   427.5    5.325      37.654
2015    3       12    22  53    3.9098   427.4    5.331      37.648
2015    3       12    22  59    3.9117   427.3    5.337      37.641
2015    3       12    23   4    3.9136   427.1    5.342      37.635
2015    3       12    23  10    3.9156   427.0    5.348      37.629
2015    3       12    23  16    3.9175   426.9    5.354      37.622
2015    3       12    23  21    3.9194   426.7    5.360      37.616
2015    3       12    23  27    3.9213   426.6    5.365      37.610
2015    3       12    23  33    3.9234   426.4    5.371      37.603
2015    3       12    23  38    3.9253   426.3    5.377      37.597
2015    3       12    23  44    3.9273   426.2    5.383      37.591
2015    3       12    23  50    3.9293   426.0    5.389      37.584
2015    3       12    23  55    3.9312   425.9    5.395      37.578
2015    3       13     0   1    3.9333   425.8    5.400      37.572
2015    3       13     0   7    3.9354   425.6    5.406      37.565
2015    3       13     0  12    3.9374   425.5    5.412      37.559
2015    3       13     0  18    3.9394   425.4    5.418      37.553
2015    3       13     0  24    3.9416   425.2    5.424      37.546
2015    3       13     0  29    3.9436   425.1    5.430      37.540
2015    3       13     0  35    3.9457   424.9    5.436      37.533
2015    3       13     0  40    3.9479   424.8    5.442      37.527
2015    3       13     0  46    3.9500   424.7    5.448      37.521
2015    3       13     0  52    3.9520   424.5    5.454      37.514
2015    3       13     0  57    3.9542   424.4    5.460      37.508
2015    3       13     1   3    3.9564   424.3    5.466      37.501
2015    3       13     1   9    3.9586   424.1    5.472      37.495
2015    3       13     1  14    3.9608   424.0    5.478      37.488
2015    3       13     1  20    3.9630   423.9    5.483      37.481
2015    3       13     1  26    3.9652   423.7    5.489      37.475
2015    3       13     1  31    3.9675   423.6    5.495      37.468
2015    3       13     1  37    3.9697   423.5    5.502      37.462
2015    3       13     1  43    3.9720   423.3    5.508      37.455
2015    3       13     1  48    3.9743   423.2    5.514      37.448
2015    3       13     1  54    3.9766   423.1    5.520      37.442
2015    3       13     2   0    3.9788   422.9    5.526      37.435
2015    3       13     2   5    3.9811   422.8    5.532      37.429
2015    3       13     2  11    3.9835   422.7    5.538      37.422
2015    3       13     2  17    3.9859   422.6    5.544      37.415
2015    3       13     2  22    3.9883   422.4    5.550      37.409
2015    3       13     2  28    3.9907   422.3    5.556      37.402
2015    3       13     2  34    3.9932   422.2    5.563      37.396
2015    3       13     2  39    3.9956   422.0    5.569      37.389
2015    3       13     2  45    3.9981   421.9    5.575      37.383
2015    3       13     2  51    4.0004   421.8    5.581      37.376
2015    3       13     2  56    4.0030   421.6    5.588      37.370
2015    3       13     3   2    4.0056   421.5    5.594      37.364
2015    3       13     3   8    4.0081   421.4    5.600      37.358
2015    3       13     3  13    4.0107   421.3    5.607      37.352
2015    3       13     3  19    4.0132   421.1    5.613      37.346
2015    3       13     3  25    4.0158   421.0    5.620      37.340
2015    3       13     3  30    4.0185   420.9    5.626      37.334
2015    3       13     3  36    4.0211   420.7    5.633      37.328
2015    3       13     3  42    4.0238   420.6    5.640      37.323
2015    3       13     3  47    4.0264   420.5    5.646      37.317
2015    3       13     3  53    4.0291   420.4    5.653      37.312
2015    3       13     3  59    4.0319   420.2    5.660      37.307
2015    3       13     4   4    4.0347   420.1    5.667      37.302
2015    3       13     4  10    4.0375   420.0    5.674      37.297
2015    3       13     4  16    4.0403   419.9    5.681      37.293
2015    3       13     4  21    4.0431   419.7    5.688      37.289
2015    3       13     4  27    4.0459   419.6    5.695      37.285
2015    3       13     4  33    4.0489   419.5    5.703      37.281
2015    3       13     4  38    4.0519   419.4    5.710      37.277
2015    3       13     4  44    4.0548   419.2    5.718      37.274
2015    3       13     4  50    4.0577   419.1    5.725      37.271
2015    3       13     4  55    4.0607   419.0    5.733      37.269
2015    3       13     5   1    4.0639   418.9    5.741      37.266
2015    3       13     5   7    4.0670   418.7    5.749      37.264
2015    3       13     5  12    4.0700   418.6    5.757      37.263
2015    3       13     5  18    4.0732   418.5    5.765      37.261
2015    3       13     5  24    4.0764   418.4    5.773      37.260
2015    3       13     5  29    4.0795   418.3    5.781      37.259
2015    3       13     5  35    4.0828   418.1    5.790      37.259
2015    3       13     5  41    4.0861   418.0    5.798      37.259
2015    3       13     5  46    4.0893   417.9    5.807      37.260
2015    3       13     5  52    4.0927   417.8    5.815      37.260
2015    3       13     5  58    4.0960   417.7    5.824      37.261
2015    3       13     6   3    4.0995   417.6    5.833      37.263
2015    3       13     6   9    4.1029   417.4    5.842      37.264
2015    3       13     6  15    4.1063   417.3    5.851      37.266
2015    3       13     6  20    4.1096   417.2    5.860      37.268
2015    3       13     6  26    4.1132   417.1    5.869      37.271
2015    3       13     6  32    4.1167   417.0    5.878      37.273
2015    3       13     6  37    4.1202   416.9    5.887      37.276
2015    3       13     6  43    4.1238   416.8    5.896      37.280
2015    3       13     6  49    4.1272   416.7    5.906      37.283
2015    3       13     6  54    4.1307   416.6    5.915      37.286
2015    3       13     7   0    4.1345   416.5    5.924      37.290
2015    3       13     7   6    4.1381   416.4    5.934      37.294
2015    3       13     7  11    4.1415   416.2    5.943      37.298
2015    3       13     7  17    4.1453   416.1    5.953      37.302
2015    3       13     7  23    4.1489   416.0    5.962      37.306
2015    3       13     7  28    4.1525   415.9    5.972      37.310
2015    3       13     7  34    4.1561   415.8    5.981      37.314
2015    3       13     7  40    4.1598   415.7    5.990      37.318
2015    3       13     7  45    4.1634   415.6    6.000      37.322
2015    3       13     7  51    4.1671   415.5    6.009      37.327
2015    3       13     7  57    4.1706   415.4    6.019      37.331
2015    3       13     8   2    4.1743   415.3    6.028      37.335
2015    3       13     8   8    4.1781   415.2    6.037      37.339
2015    3       13     8  14    4.1818   415.1    6.047      37.343
2015    3       13     8  19    4.1855   415.0    6.056      37.347
2015    3       13     8  25    4.1891   414.9    6.065      37.351
2015    3       13     8  31    4.1930   414.8    6.075      37.355
2015    3       13     8  36    4.1966   414.7    6.084      37.359
2015    3       13     8  42    4.2005   414.6    6.093      37.363
2015    3       13     8  47    4.2043   414.5    6.102      37.367
2015    3       13     8  53    4.2080   414.4    6.111      37.371
2015    3       13     8  59    4.2118   414.4    6.121      37.375
2015    3       13     9   4    4.2154   414.3    6.130      37.379
2015    3       13     9  10    4.2195   414.2    6.139      37.383
2015    3       13     9  16    4.2231   414.1    6.148      37.387
2015    3       13     9  21    4.2270   414.0    6.157      37.391
2015    3       13     9  27    4.2310   413.9    6.166      37.395
2015    3       13     9  33    4.2349   413.8    6.175      37.399
2015    3       13     9  38    4.2388   413.7    6.184      37.403
2015    3       13     9  44    4.2427   413.6    6.193      37.407
2015    3       13     9  50    4.2464   413.5    6.202      37.412
2015    3       13     9  55    4.2506   413.4    6.211      37.416
2015    3       13    10   1    4.2543   413.3    6.220      37.421
2015    3       13    10   7    4.2585   413.3    6.229      37.425
2015    3       13    10  12    4.2625   413.2    6.239      37.430
2015    3       13    10  18    4.2665   413.1    6.248      37.435
2015    3       13    10  24    4.2705   413.0    6.257      37.440
2015    3       13    10  29    4.2745   412.9    6.266      37.445
2015    3       13    10  35    4.2784   412.8    6.275      37.451
2015    3       13    10  41    4.2827   412.7    6.284      37.456
2015    3       13    10  46    4.2866   412.7    6.294      37.462
2015    3       13    10  52    4.2907   412.6    6.303      37.468
2015    3       13    10  58    4.2948   412.5    6.312      37.474
2015    3       13    11   3    4.2992   412.4    6.321      37.480
2015    3       13    11   9    4.3033   412.3    6.331      37.486
2015    3       13    11  15    4.3074   412.3    6.340      37.492
2015    3       13    11  20    4.3117   412.2    6.350      37.499
2015    3       13    11  26    4.3160   412.1    6.359      37.506
2015    3       13    11  32    4.3202   412.0    6.369      37.513
2015    3       13    11  37    4.3243   411.9    6.378      37.520
2015    3       13    11  43    4.3288   411.9    6.388      37.527
2015    3       13    11  49    4.3330   411.8    6.398      37.534
2015    3       13    11  54    4.3373   411.7    6.408      37.542
2015    3       13    12   0    4.3417   411.6    6.418      37.550
2015    3       13    12   6    4.3462   411.6    6.427      37.558
2015    3       13    12  11    4.3506   411.5    6.437      37.566
2015    3       13    12  17    4.3551   411.4    6.448      37.574
2015    3       13    12  23    4.3595   411.4    6.458      37.583
2015    3       13    12  28    4.3640   411.3    6.468      37.591
2015    3       13    12  34    4.3685   411.2    6.478      37.600
2015    3       13    12  40    4.3731   411.1    6.488      37.609
2015    3       13    12  45    4.3777   411.1    6.499      37.618
2015    3       13    12  51    4.3823   411.0    6.509      37.628
2015    3       13    12  57    4.3869   410.9    6.520      37.638
2015    3       13    13   2    4.3914   410.9    6.530      37.648
2015    3       13    13   8    4.3962   410.8    6.541      37.657
2015    3       13    13  14    4.4008   410.8    6.551      37.668
2015    3       13    13  19    4.4055   410.7    6.562      37.678
2015    3       13    13  25    4.4104   410.6    6.573      37.689
2015    3       13    13  31    4.4151   410.6    6.584      37.699
2015    3       13    13  36    4.4199   410.5    6.595      37.710
2015    3       13    13  42    4.4246   410.5    6.606      37.721
2015    3       13    13  48    4.4295   410.4    6.617      37.732
2015    3       13    13  53    4.4343   410.3    6.628      37.744
2015    3       13    13  59    4.4390   410.3    6.639      37.755
2015    3       13    14   5    4.4440   410.2    6.650      37.767
2015    3       13    14  10    4.4489   410.2    6.661      37.779
2015    3       13    14  16    4.4538   410.1    6.672      37.791
2015    3       13    14  22    4.4586   410.1    6.683      37.803
2015    3       13    14  27    4.4636   410.0    6.695      37.815
2015    3       13    14  33    4.4684   410.0    6.706      37.828
2015    3       13    14  39    4.4735   409.9    6.717      37.841
2015    3       13    14  44    4.4784   409.9    6.729      37.854
2015    3       13    14  50    4.4834   409.8    6.740      37.867
2015    3       13    14  56    4.4884   409.8    6.752      37.880
2015    3       13    15   1    4.4933   409.7    6.763      37.893
2015    3       13    15   7    4.4983   409.7    6.775      37.907
2015    3       13    15  13    4.5033   409.7    6.786      37.921
2015    3       13    15  18    4.5083   409.6    6.798      37.935
2015    3       13    15  24    4.5134   409.6    6.809      37.949
2015    3       13    15  30    4.5183   409.5    6.821      37.964
2015    3       13    15  35    4.5235   409.5    6.833      37.979
2015    3       13    15  41    4.5286   409.4    6.845      37.994
2015    3       13    15  47    4.5336   409.4    6.857      38.009
2015    3       13    15  52    4.5388   409.4    6.869      38.025
2015    3       13    15  58    4.5440   409.3    6.881      38.041
2015    3       13    16   4    4.5490   409.3    6.893      38.058
2015    3       13    16   9    4.5542   409.2    6.905      38.076
2015    3       13    16  15    4.5594   409.2    6.917      38.095
2015    3       13    16  21    4.5645   409.2    6.929      38.114
2015    3       13    16  26    4.5697   409.2    6.941      38.134
2015    3       13    16  32    4.5748   409.1    6.953      38.154
2015    3       13    16  38    4.5800   409.1    6.965      38.175
2015    3       13    16  43    4.5851   409.1    6.976      38.196
2015    3       13    16  49    4.5902   409.0    6.988      38.218
2015    3       13    16  55    4.5953   409.0    7.000      38.240
2015    3       13    17   0    4.6004   409.0    7.011      38.263
2015    3       13    17   6    4.6055   409.0    7.023      38.285
2015    3       13    17  12    4.6105   409.0    7.034      38.308
2015    3       13    17  17    4.6156   408.9    7.045      38.331
2015    3       13    17  23    4.6207   408.9    7.056      38.354
2015    3       13    17  28    4.6258   408.9    7.067      38.377
2015    3       13    17  34    4.6308   408.9    7.078      38.400
2015    3       13    17  40    4.6359   408.9    7.089      38.422
2015    3       13    17  45    4.6409   408.8    7.099      38.445
2015    3       13    17  51    4.6460   408.8    7.110      38.467
2015    3       13    17  57    4.6509   408.8    7.120      38.489
2015    3       13    18   2    4.6560   408.8    7.131      38.511
2015    3       13    18   8    4.6611   408.8    7.141      38.533
2015    3       13    18  14    4.6661   408.8    7.151      38.554
2015    3       13    18  19    4.6711   408.8    7.162      38.575
2015    3       13    18  25    4.6762   408.7    7.172      38.597
2015    3       13    18  31    4.6812   408.7    7.182      38.618
2015    3       13    18  36    4.6862   408.7    7.192      38.639
2015    3       13    18  42    4.6913   408.7    7.202      38.659
2015    3       13    18  48    4.6963   408.7    7.212      38.680
2015    3       13    18  53    4.7014   408.7    7.221      38.700
2015    3       13    18  59    4.7064   408.7    7.231      38.721
2015    3       13    19   5    4.7115   408.7    7.241      38.741
2015    3       13    19  10    4.7165   408.7    7.251      38.761
2015    3       13    19  16    4.7216   408.7    7.260      38.781
2015    3       13    19  22    4.7266   408.7    7.270      38.801
2015    3       13    19  27    4.7316   408.7    7.279      38.821
2015    3       13    19  33    4.7368   408.7    7.289      38.840
2015    3       13    19  39    4.7418   408.6    7.298      38.859
2015    3       13    19  44    4.7469   408.6    7.307      38.879
2015    3       13    19  50    4.7520   408.6    7.316      38.898
2015    3       13    19  56    4.7571   408.6    7.326      38.916
2015    3       13    20   1    4.7621   408.6    7.335      38.935
2015    3       13    20   7    4.7673   408.6    7.344      38.954
2015    3       13    20  13    4.7724   408.6    7.353      38.972
2015    3       13    20  18    4.7775   408.6    7.362      38.990
2015    3       13    20  24    4.7825   408.6    7.371      39.008
2015    3       13    20  30    4.7876   408.6    7.380      39.026
2015    3       13    20  35    4.7928   408.6    7.388      39.044
2015    3       13    20  41    4.7979   408.6    7.397      39.062
2015    3       13    20  47    4.8030   408.6    7.406      39.079
2015    3       13    20  52    4.8081   408.6    7.415      39.097
2015    3       13    20  58    4.8132   408.7    7.423      39.114
2015    3       13    21   4    4.8183   408.7    7.432      39.131
2015    3       13    21   9    4.8235   408.7    7.440      39.148
2015    3       13    21  15    4.8286   408.7    7.449      39.165
2015    3       13    21  21    4.8337   408.7    7.458      39.182
2015    3       13    21  26    4.8388   408.7    7.466      39.199
2015    3       13    21  32    4.8440   408.7    7.475      39.216
2015    3       13    21  38    4.8491   408.7    7.483      39.233
2015    3       13    21  43    4.8543   408.7    7.492      39.251
2015    3       13    21  49    4.8594   408.7    7.500      39.268
2015    3       13    21  55    4.8646   408.7    7.509      39.285
2015    3       13    22   0    4.8698   408.7    7.517      39.303
2015    3       13    22   6    4.8749   408.7    7.526      39.320
2015    3       13    22  12    4.8801   408.7    7.534      39.338
2015    3       13    22  17    4.8853   408.7    7.543      39.356
2015    3       13    22  23    4.8905   408.7    7.552      39.374
2015    3       13    22  29    4.8957   408.8    7.560      39.392
2015    3       13    22  34    4.9009   408.8    7.569      39.411
2015    3       13    22  40    4.9061   408.8    7.578      39.430
2015    3       13    22  46    4.9113   408.8    7.587      39.449
2015    3       13    22  51    4.9165   408.8    7.596      39.469
2015    3       13    22  57    4.9217   408.8    7.605      39.489
2015    3       13    23   3    4.9269   408.8    7.614      39.510
2015    3       13    23   8    4.9321   408.8    7.623      39.530
2015    3       13    23  14    4.9374   408.9    7.632      39.552
2015    3       13    23  20    4.9426   408.9    7.641      39.574
2015    3       13    23  25    4.9478   408.9    7.651      39.596
2015    3       13    23  31    4.9530   408.9    7.660      39.619
2015    3       13    23  37    4.9582   408.9    7.669      39.643
2015    3       13    23  42    4.9634   409.0    7.679      39.668
2015    3       13    23  48    4.9686   409.0    7.688      39.693
2015    3       13    23  54    4.9737   409.0    7.697      39.719
2015    3       13    23  59    4.9789   409.0    7.707      39.746
2015    3       14     0   5    4.9839   409.1    7.716      39.773
2015    3       14     0  11    4.9890   409.1    7.725      39.801
2015    3       14     0  16    4.9941   409.1    7.734      39.828
2015    3       14     0  22    4.9991   409.1    7.743      39.857
2015    3       14     0  28    5.0041   409.2    7.752      39.885
2015    3       14     0  33    5.0091   409.2    7.761      39.914
2015    3       14     0  39    5.0140   409.2    7.769      39.942
2015    3       14     0  45    5.0191   409.3    7.778      39.971
2015    3       14     0  50    5.0239   409.3    7.787      40.000
2015    3       14     0  56    5.0288   409.3    7.795      40.029
2015    3       14     1   2    5.0337   409.4    7.803      40.058
2015    3       14     1   7    5.0385   409.4    7.812      40.086
2015    3       14     1  13    5.0434   409.4    7.820      40.115
2015    3       14     1  19    5.0482   409.5    7.828      40.143
2015    3       14     1  24    5.0531   409.5    7.836      40.171
2015    3       14     1  30    5.0578   409.5    7.844      40.199
2015    3       14     1  36    5.0626   409.6    7.852      40.227
2015    3       14     1  41    5.0675   409.6    7.860      40.255
2015    3       14     1  47    5.0723   409.7    7.868      40.283
2015    3       14     1  53    5.0770   409.7    7.876      40.311
2015    3       14     1  58    5.0818   409.7    7.884      40.339
2015    3       14     2   4    5.0866   409.8    7.892      40.367
2015    3       14     2  10    5.0915   409.8    7.901      40.395
2015    3       14     2  15    5.0962   409.8    7.909      40.424
2015    3       14     2  21    5.1011   409.9    7.917      40.452
2015    3       14     2  27    5.1058   409.9    7.925      40.481
2015    3       14     2  32    5.1106   410.0    7.933      40.511
2015    3       14     2  38    5.1156   410.0    7.942      40.541
2015    3       14     2  44    5.1204   410.0    7.950      40.572
2015    3       14     2  49    5.1252   410.1    7.958      40.604
2015    3       14     2  55    5.1302   410.1    7.966      40.637
2015    3       14     3   1    5.1351   410.2    7.974      40.671
2015    3       14     3   6    5.1399   410.2    7.982      40.705
2015    3       14     3  12    5.1447   410.3    7.990      40.740
2015    3       14     3  18    5.1496   410.3    7.998      40.775
2015    3       14     3  23    5.1543   410.4    8.005      40.810
2015    3       14     3  29    5.1593   410.5    8.013      40.845
2015    3       14     3  35    5.1639   410.5    8.020      40.880
2015    3       14     3  40    5.1687   410.6    8.027      40.916
2015    3       14     3  46    5.1734   410.6    8.034      40.951
2015    3       14     3  52    5.1783   410.7    8.041      40.986
2015    3       14     3  57    5.1828   410.8    8.047      41.022
2015    3       14     4   3    5.1875   410.8    8.054      41.056
2015    3       14     4   9    5.1922   410.9    8.060      41.090
2015    3       14     4  14    5.1967   410.9    8.066      41.123
2015    3       14     4  20    5.2013   411.0    8.072      41.156
2015    3       14     4  26    5.2058   411.1    8.077      41.188
2015    3       14     4  31    5.2105   411.1    8.083      41.220
2015    3       14     4  37    5.2150   411.2    8.088      41.252
2015    3       14     4  43    5.2195   411.2    8.094      41.282
2015    3       14     4  48    5.2238   411.3    8.099      41.313
2015    3       14     4  54    5.2283   411.4    8.104      41.343
2015    3       14     4  59    5.2327   411.4    8.108      41.373
2015    3       14     5   5    5.2372   411.5    8.113      41.402
2015    3       14     5  11    5.2416   411.6    8.118      41.431
2015    3       14     5  16    5.2461   411.6    8.122      41.460
2015    3       14     5  22    5.2505   411.7    8.127      41.489
2015    3       14     5  28    5.2548   411.8    8.131      41.517
2015    3       14     5  33    5.2592   411.8    8.135      41.545
2015    3       14     5  39    5.2636   411.9    8.139      41.573
2015    3       14     5  45    5.2680   412.0    8.143      41.601
2015    3       14     5  50    5.2723   412.0    8.147      41.629
2015    3       14     5  56    5.2766   412.1    8.151      41.657
2015    3       14     6   2    5.2810   412.2    8.155      41.684
2015    3       14     6   7    5.2853   412.3    8.158      41.712
2015    3       14     6  13    5.2897   412.3    8.162      41.739
2015    3       14     6  19    5.2939   412.4    8.166      41.766
2015    3       14     6  24    5.2983   412.5    8.169      41.794
2015    3       14     6  30    5.3025   412.6    8.173      41.821
2015    3       14     6  36    5.3068   412.6    8.176      41.848
2015    3       14     6  41    5.3111   412.7    8.179      41.876
2015    3       14     6  47    5.3153   412.8    8.183      41.903
2015    3       14     6  53    5.3195   412.9    8.186      41.931
2015    3       14     6  58    5.3238   412.9    8.189      41.958
2015    3       14     7   4    5.3281   413.0    8.192      41.986
2015    3       14     7  10    5.3322   413.1    8.196      42.013
2015    3       14     7  15    5.3363   413.2    8.199      42.041
2015    3       14     7  21    5.3406   413.3    8.202      42.069
2015    3       14     7  27    5.3447   413.3    8.205      42.096
2015    3       14     7  32    5.3487   413.4    8.208      42.124
2015    3       14     7  38    5.3529   413.5    8.211      42.152
2015    3       14     7  44    5.3570   413.6    8.214      42.180
2015    3       14     7  49    5.3610   413.7    8.217      42.208
2015    3       14     7  55    5.3651   413.7    8.220      42.236
2015    3       14     8   1    5.3690   413.8    8.223      42.264
2015    3       14     8   6    5.3730   413.9    8.226      42.292
2015    3       14     8  12    5.3770   414.0    8.229      42.320
2015    3       14     8  18    5.3809   414.1    8.232      42.349
2015    3       14     8  23    5.3848   414.1    8.235      42.377
2015    3       14     8  29    5.3887   414.2    8.238      42.406
2015    3       14     8  35    5.3925   414.3    8.241      42.434
2015    3       14     8  40    5.3964   414.4    8.244      42.463
2015    3       14     8  46    5.4001   414.5    8.248      42.491
2015    3       14     8  52    5.4039   414.5    8.251      42.520
2015    3       14     8  57    5.4076   414.6    8.254      42.549
2015    3       14     9   3    5.4114   414.7    8.257      42.578
2015    3       14     9   9    5.4151   414.8    8.260      42.608
2015    3       14     9  14    5.4187   414.8    8.264      42.637
2015    3       14     9  20    5.4224   414.9    8.267      42.667
2015    3       14     9  26    5.4262   415.0    8.271      42.697
2015    3       14     9  31    5.4297   415.1    8.275      42.727
2015    3       14     9  37    5.4334   415.2    8.278      42.758
2015    3       14     9  43    5.4370   415.2    8.282      42.789
2015    3       14     9  48    5.4406   415.3    8.286      42.822
2015    3       14     9  54    5.4442   415.4    8.290      42.855
2015    3       14    10   0    5.4478   415.5    8.293      42.890
2015    3       14    10   5    5.4513   415.6    8.297      42.925
2015    3       14    10  11    5.4549   415.6    8.301      42.961
2015    3       14    10  17    5.4586   415.7    8.305      42.997
2015    3       14    10  22    5.4620   415.8    8.308      43.034
2015    3       14    10  28    5.4654   415.9    8.312      43.071
2015    3       14    10  34    5.4691   416.0    8.315      43.109
2015    3       14    10  39    5.4723   416.1    8.319      43.147
2015    3       14    10  45    5.4758   416.2    8.322      43.186
2015    3       14    10  51    5.4791   416.3    8.325      43.224
2015    3       14    10  56    5.4825   416.3    8.328      43.264
2015    3       14    11   2    5.4858   416.4    8.331      43.303
2015    3       14    11   8    5.4891   416.5    8.334      43.342
2015    3       14    11  13    5.4923   416.6    8.337      43.381
2015    3       14    11  19    5.4955   416.7    8.339      43.419
2015    3       14    11  25    5.4987   416.8    8.342      43.458
2015    3       14    11  30    5.5021   416.9    8.344      43.496
2015    3       14    11  36    5.5052   417.0    8.346      43.534
2015    3       14    11  42    5.5082   417.1    8.349      43.572
2015    3       14    11  47    5.5114   417.2    8.351      43.610
2015    3       14    11  53    5.5146   417.3    8.353      43.648
2015    3       14    11  58    5.5176   417.3    8.355      43.686
2015    3       14    12   4    5.5207   417.4    8.357      43.724
2015    3       14    12  10    5.5239   417.5    8.359      43.762
2015    3       14    12  15    5.5270   417.6    8.361      43.800
2015    3       14    12  21    5.5301   417.7    8.363      43.838
2015    3       14    12  27    5.5334   417.8    8.365      43.876
2015    3       14    12  32    5.5364   417.9    8.367      43.914
2015    3       14    12  38    5.5396   418.0    8.368      43.952
2015    3       14    12  44    5.5430   418.1    8.370      43.990
2015    3       14    12  49    5.5462   418.2    8.372      44.028
2015    3       14    12  55    5.5493   418.3    8.373      44.066
2015    3       14    13   1    5.5527   418.4    8.375      44.105
2015    3       14    13   6    5.5559   418.5    8.377      44.143
2015    3       14    13  12    5.5594   418.7    8.378      44.181
2015    3       14    13  18    5.5627   418.8    8.380      44.220
2015    3       14    13  23    5.5661   418.9    8.382      44.258
2015    3       14    13  29    5.5696   419.0    8.383      44.297
2015    3       14    13  35    5.5732   419.1    8.385      44.335
2015    3       14    13  40    5.5768   419.2    8.387      44.374
2015    3       14    13  46    5.5805   419.3    8.388      44.413
2015    3       14    13  52    5.5843   419.4    8.390      44.452
2015    3       14    13  57    5.5881   419.6    8.392      44.492
2015    3       14    14   3    5.5920   419.7    8.394      44.531
2015    3       14    14   9    5.5960   419.8    8.396      44.571
2015    3       14    14  14    5.6002   419.9    8.399      44.611
2015    3       14    14  20    5.6044   420.0    8.401      44.652
2015    3       14    14  26    5.6088   420.1    8.404      44.693
2015    3       14    14  31    5.6132   420.3    8.407      44.735
2015    3       14    14  37    5.6179   420.4    8.410      44.777
2015    3       14    14  43    5.6226   420.5    8.413      44.820
2015    3       14    14  48    5.6275   420.7    8.417      44.864
2015    3       14    14  54    5.6326   420.8    8.421      44.909
2015    3       14    15   0    5.6379   420.9    8.425      44.955
2015    3       14    15   5    5.6433   421.0    8.430      45.001
2015    3       14    15  11    5.6489   421.2    8.435      45.050
2015    3       14    15  17    5.6547   421.3    8.440      45.100
2015    3       14    15  22    5.6607   421.5    8.447      45.150
2015    3       14    15  28    5.6670   421.6    8.454      45.202
2015    3       14    15  34    5.6734   421.8    8.461      45.256
2015    3       14    15  39    5.6801   421.9    8.469      45.313
2015    3       14    15  45    5.6871   422.1    8.478      45.373
2015    3       14    15  51    5.6942   422.2    8.487      45.437
2015    3       14    15  56    5.7017   422.4    8.497      45.503
2015    3       14    16   2    5.7094   422.6    8.507      45.572
2015    3       14    16   8    5.7172   422.7    8.518      45.643
2015    3       14    16  13    5.7252   422.9    8.528      45.718
2015    3       14    16  19    5.7333   423.1    8.539      45.795
2015    3       14    16  25    5.7417   423.3    8.550      45.874
2015    3       14    16  30    5.7500   423.5    8.561      45.955
2015    3       14    16  36    5.7584   423.7    8.572      46.037
2015    3       14    16  42    5.7669   423.9    8.582      46.121
2015    3       14    16  47    5.7754   424.1    8.592      46.207
2015    3       14    16  53    5.7838   424.3    8.602      46.292
2015    3       14    16  59    5.7923   424.5    8.611      46.378
2015    3       14    17   4    5.8006   424.7    8.620      46.462
2015    3       14    17  10    5.8089   424.9    8.628      46.545
2015    3       14    17  16    5.8169   425.1    8.636      46.627
2015    3       14    17  21    5.8250   425.3    8.643      46.708
2015    3       14    17  27    5.8329   425.5    8.650      46.788
2015    3       14    17  33    5.8406   425.7    8.655      46.866
2015    3       14    17  38    5.8483   425.9    8.661      46.943
2015    3       14    17  44    5.8557   426.1    8.665      47.018
2015    3       14    17  50    5.8631   426.3    8.669      47.091
2015    3       14    17  55    5.8702   426.5    8.672      47.162
2015    3       14    18   1    5.8772   426.7    8.675      47.231
2015    3       14    18   7    5.8840   426.9    8.677      47.297
2015    3       14    18  12    5.8906   427.1    8.678      47.362
2015    3       14    18  18    5.8970   427.3    8.679      47.424
2015    3       14    18  24    5.9032   427.5    8.679      47.484
2015    3       14    18  29    5.9093   427.7    8.678      47.541
2015    3       14    18  35    5.9151   427.9    8.677      47.596
2015    3       14    18  41    5.9207   428.1    8.675      47.648
2015    3       14    18  46    5.9261   428.2    8.673      47.697
2015    3       14    18  52    5.9314   428.4    8.670      47.745
2015    3       14    18  57    5.9364   428.6    8.667      47.789
2015    3       14    19   3    5.9412   428.8    8.663      47.831
2015    3       14    19   9    5.9457   428.9    8.659      47.871
2015    3       14    19  14    5.9501   429.1    8.654      47.908
2015    3       14    19  20    5.9543   429.3    8.649      47.943
2015    3       14    19  26    5.9582   429.4    8.644      47.975
2015    3       14    19  31    5.9620   429.6    8.638      48.006
2015    3       14    19  37    5.9655   429.7    8.633      48.034
2015    3       14    19  43    5.9689   429.9    8.626      48.060
2015    3       14    19  48    5.9721   430.0    8.620      48.085
2015    3       14    19  54    5.9751   430.2    8.613      48.108
2015    3       14    20   0    5.9778   430.3    8.607      48.129
2015    3       14    20   5    5.9805   430.4    8.600      48.149
2015    3       14    20  11    5.9830   430.6    8.592      48.168
2015    3       14    20  17    5.9854   430.7    8.585      48.185
2015    3       14    20  22    5.9875   430.8    8.578      48.201
2015    3       14    20  28    5.9895   430.9    8.570      48.216
2015    3       14    20  34    5.9914   431.1    8.562      48.230
2015    3       14    20  39    5.9931   431.2    8.554      48.243
2015    3       14    20  45    5.9947   431.3    8.545      48.255
2015    3       14    20  51    5.9961   431.4    8.537      48.267
2015    3       14    20  56    5.9973   431.5    8.528      48.277
2015    3       14    21   2    5.9985   431.7    8.519      48.286
2015    3       14    21   8    5.9994   431.8    8.509      48.295
2015    3       14    21  13    6.0002   431.9    8.500      48.303
2015    3       14    21  19    6.0009   432.0    8.490      48.310
2015    3       14    21  25    6.0014   432.1    8.480      48.316
2015    3       14    21  30    6.0017   432.3    8.469      48.322
2015    3       14    21  36    6.0015   432.4    8.459      48.327
2015    3       14    21  42    6.0017   432.5    8.448      48.331
2015    3       14    21  47    6.0013   432.6    8.436      48.335
2015    3       14    21  53    6.0008   432.7    8.425      48.337
2015    3       14    21  59    6.0000   432.9    8.414      48.338
2015    3       14    22   4    5.9991   433.0    8.402      48.338
2015    3       14    22  10    5.9979   433.1    8.390      48.338
2015    3       14    22  16    5.9965   433.2    8.379      48.337
2015    3       14    22  21    5.9949   433.3    8.367      48.335
2015    3       14    22  27    5.9932   433.4    8.355      48.333
2015    3       14    22  33    5.9913   433.4    8.344      48.332
2015    3       14    22  38    5.9893   433.5    8.332      48.330
2015    3       14    22  44    5.9871   433.6    8.320      48.329
2015    3       14    22  50    5.9849   433.7    8.309      48.328
2015    3       14    22  55    5.9825   433.8    8.298      48.328
2015    3       14    23   1    5.9801   433.9    8.287      48.330
2015    3       14    23   7    5.9776   434.0    8.276      48.334
2015    3       14    23  12    5.9752   434.0    8.265      48.340
2015    3       14    23  18    5.9727   434.1    8.254      48.347
2015    3       14    23  24    5.9701   434.3    8.244      48.357
2015    3       14    23  29    5.9676   434.4    8.234      48.368
2015    3       14    23  35    5.9650   434.5    8.224      48.381
2015    3       14    23  41    5.9623   434.6    8.213      48.396
2015    3       14    23  46    5.9597   434.7    8.203      48.412
2015    3       14    23  52    5.9570   434.8    8.193      48.429
2015    3       14    23  58    5.9543   435.0    8.183      48.446
2015    3       15     0   3    5.9515   435.1    8.173      48.464
2015    3       15     0   9    5.9486   435.2    8.163      48.483
2015    3       15     0  15    5.9456   435.4    8.152      48.502
2015    3       15     0  20    5.9422   435.5    8.142      48.521
2015    3       15     0  26    5.9395   435.7    8.132      48.539
2015    3       15     0  32    5.9364   435.8    8.121      48.557
2015    3       15     0  37    5.9332   435.9    8.110      48.575
2015    3       15     0  43    5.9299   436.1    8.100      48.592
2015    3       15     0  49    5.9265   436.2    8.089      48.609
2015    3       15     0  54    5.9232   436.3    8.078      48.626
2015    3       15     1   0    5.9197   436.5    8.067      48.642
2015    3       15     1   6    5.9162   436.6    8.056      48.659
2015    3       15     1  11    5.9127   436.8    8.045      48.675
2015    3       15     1  17    5.9092   436.9    8.033      48.691
2015    3       15     1  23    5.9056   437.0    8.022      48.706
2015    3       15     1  28    5.9020   437.2    8.011      48.722
2015    3       15     1  34    5.8984   437.3    8.000      48.738
2015    3       15     1  40    5.8948   437.4    7.989      48.754
2015    3       15     1  45    5.8912   437.6    7.978      48.770
2015    3       15     1  51    5.8877   437.7    7.967      48.786
2015    3       15     1  57    5.8841   437.9    7.956      48.802
2015    3       15     2   2    5.8805   438.0    7.944      48.818
2015    3       15     2   8    5.8770   438.1    7.933      48.834
2015    3       15     2  14    5.8735   438.3    7.922      48.850
2015    3       15     2  19    5.8699   438.4    7.911      48.866
2015    3       15     2  25    5.8664   438.6    7.900      48.882
2015    3       15     2  30    5.8629   438.7    7.889      48.899
2015    3       15     2  36    5.8595   438.8    7.879      48.915
2015    3       15     2  42    5.8560   439.0    7.868      48.931
2015    3       15     2  47    5.8525   439.1    7.857      48.947
2015    3       15     2  53    5.8490   439.3    7.846      48.963
2015    3       15     2  59    5.8456   439.4    7.835      48.979
2015    3       15     3   4    5.8421   439.6    7.825      48.994
2015    3       15     3  10    5.8386   439.7    7.814      49.010
2015    3       15     3  16    5.8346   439.9    7.803      49.025
2015    3       15     3  21    5.8310   440.0    7.793      49.040
2015    3       15     3  27    5.8275   440.2    7.782      49.054
2015    3       15     3  33    5.8239   440.3    7.772      49.069
2015    3       15     3  38    5.8203   440.5    7.761      49.083
2015    3       15     3  44    5.8167   440.6    7.751      49.097
2015    3       15     3  50    5.8130   440.8    7.741      49.110
2015    3       15     3  55    5.8098   440.9    7.730      49.123
2015    3       15     4   1    5.8056   441.1    7.720      49.137
2015    3       15     4   7    5.8023   441.2    7.710      49.150
2015    3       15     4  12    5.7981   441.4    7.700      49.162
2015    3       15     4  18    5.7943   441.5    7.690      49.175
2015    3       15     4  24    5.7904   441.7    7.680      49.188
2015    3       15     4  29    5.7866   441.8    7.670      49.200
2015    3       15     4  35    5.7827   442.0    7.660      49.213
2015    3       15     4  41    5.7788   442.1    7.651      49.225
2015    3       15     4  46    5.7748   442.3    7.641      49.237
2015    3       15     4  52    5.7713   442.4    7.631      49.250
2015    3       15     4  58    5.7673   442.6    7.622      49.262
2015    3       15     5   3    5.7627   442.7    7.613      49.274
2015    3       15     5   9    5.7591   442.9    7.603      49.286
2015    3       15     5  15    5.7549   443.0    7.594      49.298
2015    3       15     5  20    5.7501   443.2    7.585      49.311
2015    3       15     5  26    5.7458   443.4    7.576      49.323
2015    3       15     5  32    5.7414   443.5    7.567      49.335
2015    3       15     5  37    5.7370   443.7    7.559      49.347
2015    3       15     5  43    5.7325   443.8    7.550      49.359
2015    3       15     5  49    5.7279   444.0    7.541      49.371
2015    3       15     5  54    5.7233   444.1    7.533      49.383
2015    3       15     6   0    5.7192   444.3    7.525      49.395
2015    3       15     6   6    5.7143   444.4    7.516      49.406
2015    3       15     6  11    5.7089   444.6    7.508      49.416
2015    3       15     6  17    5.7039   444.7    7.500      49.427
2015    3       15     6  23    5.6995   444.9    7.492      49.437
2015    3       15     6  28    5.6944   445.0    7.484      49.447
2015    3       15     6  34    5.6886   445.2    7.476      49.456
2015    3       15     6  40    5.6833   445.3    7.469      49.464
2015    3       15     6  45    5.6779   445.5    7.461      49.472
2015    3       15     6  51    5.6725   445.6    7.453      49.480
2015    3       15     6  57    5.6676   445.7    7.446      49.487
2015    3       15     7   2    5.6614   445.9    7.438      49.494
2015    3       15     7   8    5.6557   446.0    7.431      49.500
2015    3       15     7  14    5.6506   446.2    7.424      49.506
2015    3       15     7  19    5.6442   446.3    7.416      49.512
2015    3       15     7  25    5.6384   446.5    7.409      49.517
2015    3       15     7  31    5.6325   446.6    7.402      49.522
2015    3       15     7  36    5.6265   446.7    7.395      49.527
2015    3       15     7  42    5.6205   446.9    7.389      49.531
2015    3       15     7  48    5.6145   447.0    7.382      49.535
2015    3       15     7  53    5.6084   447.1    7.375      49.539
2015    3       15     7  59    5.6028   447.2    7.369      49.543
2015    3       15     8   5    5.5960   447.4    7.363      49.547
2015    3       15     8  10    5.5903   447.5    7.356      49.551
2015    3       15     8  16    5.5835   447.6    7.350      49.555
2015    3       15     8  22    5.5771   447.7    7.345      49.559
2015    3       15     8  27    5.5708   447.9    7.339      49.564
2015    3       15     8  33    5.5649   448.0    7.333      49.570
2015    3       15     8  39    5.5580   448.1    7.327      49.576
2015    3       15     8  44    5.5515   448.2    7.322      49.583
2015    3       15     8  50    5.5456   448.3    7.316      49.591
2015    3       15     8  56    5.5386   448.4    7.311      49.600
2015    3       15     9   1    5.5321   448.5    7.306      49.609
2015    3       15     9   7    5.5256   448.6    7.300      49.620
2015    3       15     9  13    5.5197   448.7    7.295      49.631
2015    3       15     9  18    5.5132   448.8    7.290      49.643
2015    3       15     9  24    5.5062   448.9    7.284      49.656
2015    3       15     9  30    5.4998   449.0    7.279      49.670
2015    3       15     9  35    5.4933   449.1    7.274      49.684
2015    3       15     9  41    5.4869   449.2    7.269      49.700
2015    3       15     9  47    5.4806   449.3    7.263      49.715
2015    3       15     9  52    5.4742   449.4    7.258      49.732
2015    3       15     9  58    5.4680   449.5    7.253      49.749
2015    3       15    10   4    5.4617   449.6    7.248      49.766
2015    3       15    10   9    5.4555   449.7    7.243      49.783
2015    3       15    10  15    5.4494   449.8    7.238      49.801
2015    3       15    10  21    5.4433   449.9    7.233      49.819
2015    3       15    10  26    5.4372   449.9    7.228      49.838
2015    3       15    10  32    5.4312   450.0    7.222      49.856
2015    3       15    10  37    5.4252   450.1    7.217      49.875
2015    3       15    10  43    5.4192   450.2    7.212      49.893
2015    3       15    10  49    5.4133   450.3    7.206      49.911
2015    3       15    10  54    5.4075   450.4    7.201      49.929
2015    3       15    11   0    5.4016   450.5    7.195      49.947
2015    3       15    11   6    5.3958   450.5    7.189      49.964
2015    3       15    11  11    5.3900   450.6    7.183      49.980
2015    3       15    11  17    5.3843   450.7    7.177      49.996
2015    3       15    11  23    5.3785   450.8    7.171      50.011
2015    3       15    11  28    5.3732   450.9    7.164      50.025
2015    3       15    11  34    5.3671   451.0    7.157      50.037
2015    3       15    11  40    5.3614   451.0    7.150      50.049
2015    3       15    11  45    5.3558   451.1    7.143      50.060
2015    3       15    11  51    5.3504   451.2    7.136      50.069
2015    3       15    11  57    5.3445   451.3    7.128      50.076
2015    3       15    12   2    5.3389   451.3    7.121      50.082
2015    3       15    12   8    5.3336   451.4    7.113      50.087
2015    3       15    12  14    5.3281   451.5    7.105      50.090
2015    3       15    12  19    5.3224   451.5    7.097      50.091
2015    3       15    12  25    5.3170   451.6    7.089      50.091
2015    3       15    12  31    5.3118   451.6    7.080      50.090
2015    3       15    12  36    5.3063   451.7    7.072      50.087
2015    3       15    12  42    5.3013   451.8    7.063      50.083
2015    3       15    12  48    5.2960   451.8    7.055      50.078
2015    3       15    12  53    5.2912   451.9    7.046      50.071
2015    3       15    12  59    5.2861   451.9    7.037      50.063
2015    3       15    13   5    5.2813   452.0    7.028      50.054
2015    3       15    13  10    5.2766   452.0    7.019      50.044
2015    3       15    13  16    5.2721   452.1    7.010      50.033
2015    3       15    13  22    5.2675   452.1    7.000      50.020
2015    3       15    13  27    5.2631   452.2    6.991      50.006
2015    3       15    13  33    5.2587   452.2    6.981      49.991
2015    3       15    13  39    5.2546   452.3    6.972      49.975
2015    3       15    13  44    5.2504   452.3    6.962      49.958
2015    3       15    13  50    5.2464   452.4    6.952      49.939
2015    3       15    13  56    5.2425   452.4    6.941      49.919
2015    3       15    14   1    5.2386   452.5    6.931      49.898
2015    3       15    14   7    5.2348   452.5    6.921      49.876
2015    3       15    14  13    5.2311   452.6    6.910      49.853
2015    3       15    14  18    5.2274   452.6    6.900      49.828
2015    3       15    14  24    5.2238   452.7    6.889      49.802
2015    3       15    14  30    5.2202   452.7    6.878      49.775
2015    3       15    14  35    5.2166   452.8    6.867      49.748
2015    3       15    14  41    5.2131   452.8    6.856      49.718
2015    3       15    14  47    5.2096   452.9    6.845      49.688
2015    3       15    14  52    5.2061   452.9    6.834      49.657
2015    3       15    14  58    5.2025   453.0    6.823      49.626
2015    3       15    15   4    5.1990   453.0    6.811      49.594
2015    3       15    15   9    5.1954   453.1    6.800      49.561
2015    3       15    15  15    5.1918   453.1    6.788      49.527
2015    3       15    15  21    5.1883   453.2    6.776      49.492
2015    3       15    15  26    5.1847   453.3    6.764      49.457
2015    3       15    15  32    5.1809   453.3    6.752      49.421
2015    3       15    15  38    5.1772   453.4    6.739      49.384
2015    3       15    15  43    5.1736   453.4    6.726      49.346
2015    3       15    15  49    5.1698   453.5    6.713      49.307
2015    3       15    15  55    5.1658   453.6    6.700      49.267
2015    3       15    16   0    5.1621   453.6    6.686      49.224
2015    3       15    16   6    5.1580   453.7    6.673      49.179
2015    3       15    16  12    5.1540   453.7    6.659      49.133
2015    3       15    16  17    5.1502   453.8    6.646      49.084
2015    3       15    16  23    5.1462   453.8    6.632      49.033
2015    3       15    16  29    5.1421   453.9    6.618      48.981
2015    3       15    16  34    5.1381   453.9    6.604      48.928
2015    3       15    16  40    5.1340   454.0    6.590      48.873
2015    3       15    16  46    5.1299   454.0    6.576      48.818
2015    3       15    16  51    5.1258   454.0    6.562      48.760
2015    3       15    16  57    5.1216   454.1    6.548      48.701
2015    3       15    17   3    5.1173   454.1    6.535      48.641
2015    3       15    17   8    5.1131   454.1    6.521      48.580
2015    3       15    17  14    5.1092   454.1    6.508      48.519
2015    3       15    17  20    5.1049   454.2    6.494      48.458
2015    3       15    17  25    5.1010   454.2    6.481      48.396
2015    3       15    17  31    5.0969   454.2    6.468      48.334
2015    3       15    17  37    5.0928   454.2    6.455      48.273
2015    3       15    17  42    5.0887   454.3    6.443      48.211
2015    3       15    17  48    5.0846   454.3    6.430      48.149
2015    3       15    17  54    5.0803   454.3    6.417      48.087
2015    3       15    17  59    5.0764   454.3    6.405      48.025
2015    3       15    18   5    5.0724   454.3    6.393      47.964
2015    3       15    18  11    5.0681   454.3    6.381      47.902
2015    3       15    18  16    5.0641   454.3    6.369      47.841
2015    3       15    18  22    5.0603   454.3    6.358      47.781
2015    3       15    18  28    5.0563   454.3    6.346      47.721
2015    3       15    18  33    5.0523   454.3    6.335      47.661
2015    3       15    18  39    5.0483   454.3    6.324      47.602
2015    3       15    18  45    5.0441   454.3    6.312      47.543
2015    3       15    18  50    5.0403   454.3    6.301      47.485
2015    3       15    18  56    5.0363   454.3    6.291      47.427
2015    3       15    19   1    5.0324   454.3    6.280      47.369
2015    3       15    19   7    5.0284   454.3    6.269      47.312
2015    3       15    19  13    5.0244   454.3    6.259      47.254
2015    3       15    19  18    5.0205   454.3    6.249      47.197
2015    3       15    19  24    5.0165   454.3    6.239      47.140
2015    3       15    19  30    5.0123   454.3    6.229      47.082
2015    3       15    19  35    5.0085   454.3    6.219      47.025
2015    3       15    19  41    5.0044   454.3    6.209      46.968
2015    3       15    19  47    5.0005   454.3    6.200      46.910
2015    3       15    19  52    4.9965   454.3    6.191      46.852
2015    3       15    19  58    4.9923   454.3    6.182      46.794
2015    3       15    20   4    4.9884   454.3    6.173      46.736
2015    3       15    20   9    4.9842   454.3    6.164      46.677
2015    3       15    20  15    4.9803   454.3    6.156      46.618
2015    3       15    20  21    4.9760   454.3    6.148      46.558
2015    3       15    20  26    4.9721   454.2    6.140      46.499
2015    3       15    20  32    4.9680   454.2    6.133      46.439
2015    3       15    20  38    4.9638   454.2    6.125      46.379
2015    3       15    20  43    4.9597   454.2    6.118      46.319
2015    3       15    20  49    4.9556   454.2    6.112      46.260
2015    3       15    20  55    4.9514   454.2    6.106      46.200
2015    3       15    21   0    4.9475   454.1    6.100      46.141
2015    3       15    21   6    4.9434   454.1    6.094      46.083
2015    3       15    21  12    4.9392   454.1    6.089      46.025
2015    3       15    21  17    4.9352   454.1    6.084      45.968
2015    3       15    21  23    4.9314   454.0    6.080      45.913
2015    3       15    21  29    4.9275   454.0    6.076      45.858
2015    3       15    21  34    4.9236   454.0    6.072      45.806
2015    3       15    21  40    4.9196   453.9    6.069      45.754
2015    3       15    21  46    4.9159   453.9    6.066      45.705
2015    3       15    21  51    4.9120   453.9    6.064      45.658
2015    3       15    21  57    4.9084   453.8    6.062      45.612
2015    3       15    22   3    4.9047   453.8    6.060      45.569
2015    3       15    22   8    4.9011   453.8    6.059      45.528
2015    3       15    22  14    4.8975   453.8    6.058      45.489
2015    3       15    22  20    4.8939   453.7    6.058      45.453
2015    3       15    22  25    4.8902   453.7    6.057      45.421
2015    3       15    22  31    4.8869   453.7    6.057      45.391
2015    3       15    22  37    4.8833   453.6    6.057      45.365
2015    3       15    22  42    4.8800   453.6    6.058      45.341
2015    3       15    22  48    4.8764   453.6    6.058      45.319
2015    3       15    22  54    4.8732   453.5    6.058      45.300
2015    3       15    22  59    4.8699   453.5    6.059      45.282
2015    3       15    23   5    4.8665   453.5    6.059      45.267
2015    3       15    23  11    4.8632   453.4    6.060      45.252
2015    3       15    23  16    4.8599   453.4    6.060      45.239
2015    3       15    23  22    4.8566   453.4    6.061      45.226
2015    3       15    23  28    4.8533   453.3    6.061      45.215
2015    3       15    23  33    4.8501   453.3    6.061      45.203
2015    3       15    23  39    4.8466   453.3    6.061      45.192
2015    3       15    23  45    4.8435   453.2    6.060      45.181
2015    3       15    23  50    4.8401   453.2    6.060      45.170
2015    3       15    23  56    4.8370   453.1    6.060      45.158
2015    3       16     0   2    4.8338   453.1    6.059      45.145
2015    3       16     0   7    4.8305   453.1    6.058      45.131
2015    3       16     0  13    4.8271   453.0    6.057      45.116
2015    3       16     0  19    4.8239   453.0    6.056      45.101
2015    3       16     0  24    4.8209   452.9    6.055      45.084
2015    3       16     0  30    4.8175   452.9    6.054      45.067
2015    3       16     0  36    4.8144   452.9    6.053      45.049
2015    3       16     0  41    4.8112   452.8    6.051      45.030
2015    3       16     0  47    4.8080   452.8    6.050      45.011
2015    3       16     0  53    4.8049   452.7    6.048      44.990
2015    3       16     0  58    4.8017   452.7    6.047      44.969
2015    3       16     1   4    4.7985   452.6    6.045      44.948
2015    3       16     1  10    4.7954   452.6    6.043      44.925
2015    3       16     1  15    4.7922   452.5    6.042      44.903
2015    3       16     1  21    4.7891   452.5    6.040      44.879
2015    3       16     1  27    4.7860   452.5    6.038      44.855
2015    3       16     1  32    4.7829   452.4    6.036      44.831
2015    3       16     1  38    4.7798   452.4    6.034      44.806
2015    3       16     1  44    4.7767   452.3    6.032      44.781
2015    3       16     1  49    4.7735   452.3    6.030      44.756
2015    3       16     1  55    4.7704   452.2    6.028      44.730
2015    3       16     2   1    4.7674   452.2    6.026      44.704
2015    3       16     2   6    4.7646   452.1    6.023      44.677
2015    3       16     2  12    4.7616   452.1    6.021      44.650
2015    3       16     2  18    4.7587   452.0    6.019      44.623
2015    3       16     2  23    4.7557   452.0    6.017      44.596
2015    3       16     2  29    4.7528   451.9    6.014      44.569
2015    3       16     2  35    4.7500   451.9    6.012      44.541
2015    3       16     2  40    4.7471   451.8    6.010      44.513
2015    3       16     2  46    4.7441   451.8    6.007      44.485
2015    3       16     2  52    4.7413   451.7    6.005      44.457
2015    3       16     2  57    4.7387   451.7    6.002      44.428
2015    3       16     3   3    4.7358   451.6    6.000      44.400
2015    3       16     3   9    4.7333   451.6    5.997      44.371
2015    3       16     3  14    4.7304   451.5    5.995      44.342
2015    3       16     3  20    4.7279   451.5    5.993      44.313
2015    3       16     3  26    4.7251   451.4    5.990      44.284
2015    3       16     3  31    4.7225   451.4    5.988      44.254
2015    3       16     3  37    4.7202   451.3    5.985      44.225
2015    3       16     3  43    4.7175   451.3    5.983      44.195
2015    3       16     3  48    4.7150   451.2    5.980      44.165
2015    3       16     3  54    4.7128   451.2    5.978      44.136
2015    3       16     4   0    4.7104   451.1    5.975      44.106
2015    3       16     4   5    4.7080   451.1    5.973      44.076
2015    3       16     4  11    4.7057   451.0    5.971      44.046
2015    3       16     4  16    4.7034   450.9    5.969      44.017
2015    3       16     4  22    4.7011   450.9    5.966      43.987
2015    3       16     4  28    4.6989   450.8    5.964      43.958
2015    3       16     4  33    4.6965   450.8    5.962      43.928
2015    3       16     4  39    4.6946   450.7    5.960      43.899
2015    3       16     4  45    4.6925   450.7    5.958      43.870
2015    3       16     4  50    4.6904   450.6    5.956      43.842
2015    3       16     4  56    4.6884   450.5    5.954      43.814
2015    3       16     5   2    4.6863   450.5    5.953      43.786
2015    3       16     5   7    4.6845   450.4    5.951      43.758
2015    3       16     5  13    4.6827   450.4    5.949      43.731
2015    3       16     5  19    4.6808   450.3    5.948      43.705
2015    3       16     5  24    4.6789   450.2    5.947      43.679
2015    3       16     5  30    4.6773   450.2    5.945      43.653
2015    3       16     5  36    4.6754   450.1    5.944      43.628
2015    3       16     5  41    4.6739   450.1    5.943      43.603
2015    3       16     5  47    4.6723   450.0    5.942      43.579
2015    3       16     5  53    4.6708   450.0    5.942      43.556
2015    3       16     5  58    4.6692   449.9    5.941      43.533
2015    3       16     6   4    4.6676   449.8    5.940      43.511
2015    3       16     6  10    4.6662   449.8    5.940      43.489
2015    3       16     6  15    4.6646   449.7    5.940      43.468
2015    3       16     6  21    4.6632   449.7    5.939      43.447
2015    3       16     6  27    4.6618   449.6    5.939      43.427
2015    3       16     6  32    4.6605   449.5    5.939      43.408
2015    3       16     6  38    4.6591   449.5    5.939      43.389
2015    3       16     6  44    4.6578   449.4    5.939      43.370
2015    3       16     6  49    4.6564   449.4    5.940      43.352
2015    3       16     6  55    4.6549   449.3    5.940      43.334
2015    3       16     7   1    4.6535   449.3    5.940      43.316
2015    3       16     7   6    4.6523   449.2    5.941      43.298
2015    3       16     7  12    4.6509   449.1    5.941      43.281
2015    3       16     7  18    4.6495   449.1    5.941      43.264
2015    3       16     7  23    4.6481   449.0    5.942      43.247
2015    3       16     7  29    4.6467   449.0    5.942      43.230
2015    3       16     7  35    4.6453   448.9    5.943      43.214
2015    3       16     7  40    4.6439   448.9    5.943      43.197
2015    3       16     7  46    4.6425   448.8    5.944      43.180
2015    3       16     7  52    4.6410   448.7    5.944      43.163
2015    3       16     7  57    4.6396   448.7    5.945      43.147
2015    3       16     8   3    4.6381   448.6    5.945      43.130
2015    3       16     8   9    4.6368   448.6    5.946      43.113
2015    3       16     8  14    4.6353   448.5    5.946      43.096
2015    3       16     8  20    4.6338   448.5    5.947      43.079
2015    3       16     8  26    4.6323   448.4    5.947      43.062
2015    3       16     8  31    4.6311   448.3    5.948      43.045
2015    3       16     8  37    4.6296   448.3    5.948      43.028
2015    3       16     8  43    4.6281   448.2    5.949      43.011
2015    3       16     8  48    4.6267   448.2    5.949      42.994
2015    3       16     8  54    4.6254   448.1    5.950      42.977
2015    3       16     9   0    4.6238   448.0    5.950      42.960
2015    3       16     9   5    4.6224   448.0    5.951      42.943
2015    3       16     9  11    4.6212   447.9    5.951      42.925
2015    3       16     9  17    4.6198   447.9    5.952      42.908
2015    3       16     9  22    4.6182   447.8    5.952      42.891
2015    3       16     9  28    4.6170   447.8    5.953      42.874
2015    3       16     9  34    4.6155   447.7    5.953      42.857
2015    3       16     9  39    4.6143   447.6    5.954      42.840
2015    3       16     9  45    4.6129   447.6    5.954      42.823
2015    3       16     9  51    4.6114   447.5    5.955      42.806
2015    3       16     9  56    4.6101   447.5    5.955      42.788
2015    3       16    10   2    4.6089   447.4    5.955      42.771
2015    3       16    10   8    4.6075   447.4    5.956      42.754
2015    3       16    10  13    4.6062   447.3    5.956      42.737
2015    3       16    10  19    4.6050   447.2    5.956      42.720
2015    3       16    10  25    4.6037   447.2    5.957      42.703
2015    3       16    10  30    4.6025   447.1    5.957      42.686
2015    3       16    10  36    4.6010   447.1    5.957      42.669
2015    3       16    10  42    4.5998   447.0    5.958      42.652
2015    3       16    10  47    4.5987   447.0    5.958      42.636
2015    3       16    10  53    4.5975   446.9    5.958      42.619
2015    3       16    10  59    4.5963   446.8    5.958      42.602
2015    3       16    11   4    4.5949   446.8    5.958      42.585
2015    3       16    11  10    4.5938   446.7    5.958      42.569
2015    3       16    11  16    4.5927   446.7    5.958      42.552
2015    3       16    11  21    4.5914   446.6    5.958      42.536
2015    3       16    11  27    4.5904   446.5    5.958      42.519
2015    3       16    11  33    4.5891   446.5    5.958      42.503
2015    3       16    11  38    4.5882   446.4    5.958      42.486
2015    3       16    11  44    4.5869   446.4    5.958      42.470
2015    3       16    11  50    4.5858   446.3    5.958      42.454
2015    3       16    11  55    4.5849   446.2    5.958      42.438
2015    3       16    12   1    4.5839   446.2    5.958      42.422
2015    3       16    12   7    4.5828   446.1    5.958      42.406
2015    3       16    12  12    4.5817   446.1    5.958      42.390
2015    3       16    12  18    4.5808   446.0    5.958      42.375
2015    3       16    12  24    4.5799   445.9    5.958      42.359
2015    3       16    12  29    4.5789   445.9    5.958      42.343
2015    3       16    12  35    4.5780   445.8    5.958      42.328
2015    3       16    12  41    4.5770   445.8    5.958      42.313
2015    3       16    12  46    4.5762   445.7    5.958      42.298
2015    3       16    12  52    4.5753   445.6    5.958      42.283
2015    3       16    12  58    4.5743   445.6    5.958      42.268
2015    3       16    13   3    4.5735   445.5    5.958      42.254
2015    3       16    13   9    4.5728   445.4    5.958      42.239
2015    3       16    13  15    4.5720   445.4    5.958      42.225
2015    3       16    13  20    4.5712   445.3    5.959      42.211
2015    3       16    13  26    4.5704   445.3    5.959      42.197
2015    3       16    13  32    4.5697   445.2    5.959      42.183
2015    3       16    13  37    4.5691   445.1    5.959      42.170
2015    3       16    13  43    4.5684   445.1    5.960      42.157
2015    3       16    13  49    4.5677   445.0    5.960      42.143
2015    3       16    13  54    4.5671   444.9    5.961      42.130
2015    3       16    14   0    4.5664   444.9    5.961      42.117
2015    3       16    14   6    4.5659   444.8    5.962      42.105
2015    3       16    14  11    4.5652   444.7    5.962      42.092
2015    3       16    14  17    4.5647   444.7    5.963      42.080
2015    3       16    14  22    4.5642   444.6    5.963      42.068
2015    3       16    14  28    4.5637   444.5    5.964      42.056
2015    3       16    14  34    4.5632   444.5    5.965      42.044
2015    3       16    14  39    4.5627   444.4    5.966      42.032
2015    3       16    14  45    4.5621   444.3    5.967      42.020
2015    3       16    14  51    4.5617   444.3    5.968      42.008
2015    3       16    14  56    4.5613   444.2    5.969      41.997
2015    3       16    15   2    4.5607   444.1    5.970      41.986
2015    3       16    15   8    4.5604   444.1    5.971      41.974
2015    3       16    15  13    4.5599   444.0    5.972      41.963
2015    3       16    15  19    4.5595   443.9    5.973      41.952
2015    3       16    15  25    4.5591   443.9    5.974      41.941
2015    3       16    15  30    4.5587   443.8    5.975      41.930
2015    3       16    15  36    4.5583   443.7    5.977      41.919
2015    3       16    15  42    4.5580   443.7    5.978      41.908
2015    3       16    15  47    4.5576   443.6    5.979      41.898
2015    3       16    15  53    4.5572   443.5    5.981      41.887
2015    3       16    15  59    4.5569   443.4    5.982      41.877
2015    3       16    16   4    4.5566   443.4    5.984      41.866
2015    3       16    16  10    4.5563   443.3    5.985      41.855
2015    3       16    16  16    4.5559   443.2    5.986      41.845
2015    3       16    16  21    4.5556   443.2    5.988      41.834
2015    3       16    16  27    4.5553   443.1    5.989      41.824
2015    3       16    16  33    4.5550   443.0    5.991      41.813
2015    3       16    16  38    4.5547   443.0    5.992      41.803
2015    3       16    16  44    4.5544   442.9    5.994      41.792
2015    3       16    16  50    4.5542   442.8    5.995      41.782
2015    3       16    16  55    4.5539   442.8    5.997      41.771
2015    3       16    17   1    4.5537   442.7    5.999      41.760
2015    3       16    17   7    4.5534   442.6    6.000      41.749
2015    3       16    17  12    4.5531   442.5    6.002      41.738
2015    3       16    17  18    4.5529   442.5    6.003      41.727
2015    3       16    17  24    4.5527   442.4    6.005      41.717
2015    3       16    17  29    4.5525   442.3    6.006      41.706
2015    3       16    17  35    4.5523   442.3    6.008      41.694
2015    3       16    17  41    4.5520   442.2    6.009      41.684
2015    3       16    17  46    4.5519   442.1    6.010      41.672
2015    3       16    17  52    4.5517   442.1    6.012      41.661
2015    3       16    17  58    4.5515   442.0    6.013      41.650
2015    3       16    18   3    4.5513   441.9    6.015      41.639
2015    3       16    18   9    4.5512   441.9    6.016      41.628
2015    3       16    18  15    4.5511   441.8    6.018      41.617
2015    3       16    18  20    4.5510   441.7    6.019      41.606
2015    3       16    18  26    4.5508   441.6    6.021      41.596
2015    3       16    18  32    4.5506   441.6    6.022      41.585
2015    3       16    18  37    4.5506   441.5    6.023      41.574
2015    3       16    18  43    4.5505   441.4    6.025      41.563
2015    3       16    18  49    4.5505   441.4    6.026      41.553
2015    3       16    18  54    4.5504   441.3    6.028      41.543
2015    3       16    19   0    4.5504   441.2    6.029      41.532
2015    3       16    19   6    4.5503   441.2    6.031      41.523
2015    3       16    19  11    4.5503   441.1    6.032      41.513
2015    3       16    19  17    4.5503   441.0    6.034      41.503
2015    3       16    19  23    4.5504   441.0    6.035      41.494
2015    3       16    19  28    4.5504   440.9    6.037      41.484
2015    3       16    19  34    4.5504   440.8    6.038      41.476
2015    3       16    19  40    4.5506   440.8    6.040      41.467
2015    3       16    19  45    4.5506   440.7    6.042      41.459
2015    3       16    19  51    4.5507   440.6    6.043      41.450
2015    3       16    19  57    4.5509   440.6    6.045      41.443
2015    3       16    20   2    4.5511   440.5    6.047      41.435
2015    3       16    20   8    4.5511   440.4    6.048      41.428
2015    3       16    20  14    4.5514   440.4    6.050      41.421
2015    3       16    20  19    4.5516   440.3    6.052      41.414
2015    3       16    20  25    4.5519   440.2    6.054      41.408
2015    3       16    20  31    4.5520   440.2    6.056      41.402
2015    3       16    20  36    4.5523   440.1    6.058      41.397
2015    3       16    20  42    4.5526   440.0    6.060      41.392
2015    3       16    20  48    4.5530   440.0    6.062      41.387
2015    3       16    20  53    4.5534   439.9    6.065      41.383
2015    3       16    20  59    4.5537   439.9    6.067      41.378
2015    3       16    21   5    4.5541   439.8    6.069      41.375
2015    3       16    21  10    4.5545   439.7    6.072      41.371
2015    3       16    21  16    4.5549   439.7    6.074      41.368
2015    3       16    21  22    4.5553   439.6    6.076      41.365
2015    3       16    21  27    4.5558   439.5    6.079      41.363
2015    3       16    21  33    4.5564   439.5    6.082      41.361
2015    3       16    21  39    4.5568   439.4    6.084      41.359
2015    3       16    21  44    4.5574   439.3    6.087      41.358
2015    3       16    21  50    4.5580   439.3    6.090      41.357
2015    3       16    21  56    4.5585   439.2    6.093      41.356
2015    3       16    22   1    4.5590   439.1    6.095      41.355
2015    3       16    22   7    4.5596   439.1    6.098      41.355
2015    3       16    22  13    4.5604   439.0    6.101      41.355
2015    3       16    22  18    4.5610   438.9    6.104      41.355
2015    3       16    22  24    4.5616   438.9    6.107      41.355
2015    3       16    22  30    4.5624   438.8    6.111      41.356
2015    3       16    22  35    4.5631   438.8    6.114      41.356
2015    3       16    22  41    4.5638   438.7    6.117      41.357
2015    3       16    22  47    4.5644   438.6    6.120      41.358
2015    3       16    22  52    4.5653   438.6    6.123      41.359
2015    3       16    22  58    4.5660   438.5    6.127      41.360
2015    3       16    23   4    4.5669   438.4    6.130      41.361
2015    3       16    23   9    4.5677   438.4    6.133      41.362
2015    3       16    23  15    4.5686   438.3    6.137      41.363
2015    3       16    23  21    4.5694   438.3    6.140      41.364
2015    3       16    23  26    4.5703   438.2    6.144      41.365
2015    3       16    23  32    4.5710   438.1    6.147      41.366
2015    3       16    23  37    4.5721   438.1    6.150      41.367
2015    3       16    23  43    4.5730   438.0    6.154      41.368
2015    3       16    23  49    4.5739   438.0    6.157      41.369
2015    3       16    23  54    4.5747   437.9    6.161      41.370
2015    3       17     0   0    4.5757   437.8    6.164      41.370
2015    3       17     0   6    4.5765   437.8    6.167      41.370
2015    3       17     0  11    4.5772   437.7    6.170      41.369
2015    3       17     0  17    4.5778   437.7    6.173      41.368
2015    3       17     0  23    4.5787   437.6    6.176      41.367
2015    3       17     0  28    4.5793   437.5    6.178      41.365
2015    3       17     0  34    4.5802   437.5    6.181      41.364
2015    3       17     0  40    4.5809   437.4    6.184      41.363
2015    3       17     0  45    4.5817   437.4    6.187      41.362
2015    3       17     0  51    4.5825   437.3    6.190      41.361
2015    3       17     0  57    4.5833   437.3    6.193      41.360
2015    3       17     1   2    4.5840   437.2    6.196      41.359
2015    3       17     1   8    4.5850   437.2    6.199      41.358
2015    3       17     1  14    4.5858   437.1    6.202      41.356
2015    3       17     1  19    4.5867   437.0    6.205      41.355
2015    3       17     1  25    4.5876   437.0    6.208      41.355
2015    3       17     1  31    4.5885   436.9    6.211      41.354
2015    3       17     1  36    4.5894   436.9    6.214      41.353
2015    3       17     1  42    4.5903   436.8    6.217      41.352
2015    3       17     1  48    4.5912   436.8    6.220      41.352
2015    3       17     1  53    4.5921   436.7    6.223      41.352
2015    3       17     1  59    4.5929   436.7    6.227      41.351
2015    3       17     2   5    4.5939   436.6    6.230      41.351
2015    3       17     2  10    4.5950   436.6    6.233      41.351
2015    3       17     2  16    4.5960   436.5    6.236      41.352
2015    3       17     2  22    4.5968   436.5    6.239      41.352
2015    3       17     2  27    4.5979   436.4    6.243      41.353
2015    3       17     2  33    4.5990   436.4    6.246      41.354
2015    3       17     2  39    4.6000   436.3    6.249      41.355
2015    3       17     2  44    4.6009   436.3    6.253      41.356
2015    3       17     2  50    4.6021   436.2    6.256      41.358
2015    3       17     2  56    4.6031   436.2    6.260      41.360
2015    3       17     3   1    4.6040   436.2    6.263      41.362
2015    3       17     3   7    4.6053   436.1    6.267      41.364
2015    3       17     3  13    4.6064   436.1    6.270      41.367
2015    3       17     3  18    4.6075   436.0    6.274      41.370
2015    3       17     3  24    4.6086   436.0    6.278      41.373
2015    3       17     3  30    4.6098   435.9    6.281      41.376
2015    3       17     3  35    4.6109   435.9    6.285      41.380
2015    3       17     3  41    4.6120   435.9    6.289      41.384
2015    3       17     3  47    4.6132   435.8    6.293      41.388
2015    3       17     3  52    4.6145   435.8    6.296      41.392
2015    3       17     3  58    4.6157   435.7    6.300      41.397
2015    3       17     4   4    4.6168   435.7    6.304      41.402
2015    3       17     4   9    4.6182   435.7    6.308      41.408
2015    3       17     4  15    4.6195   435.6    6.312      41.413
2015    3       17     4  21    4.6208   435.6    6.317      41.419
2015    3       17     4  26    4.6220   435.5    6.321      41.426
2015    3       17     4  32    4.6234   435.5    6.325      41.432
2015    3       17     4  38    4.6249   435.5    6.329      41.439
2015    3       17     4  43    4.6262   435.4    6.334      41.446
2015    3       17     4  49    4.6276   435.4    6.338      41.454
2015    3       17     4  55    4.6291   435.4    6.343      41.462
2015    3       17     5   0    4.6305   435.3    6.347      41.470
2015    3       17     5   6    4.6318   435.3    6.352      41.479
2015    3       17     5  12    4.6334   435.3    6.357      41.488
2015    3       17     5  17    4.6349   435.2    6.362      41.497
2015    3       17     5  23    4.6363   435.2    6.366      41.507
2015    3       17     5  29    4.6380   435.2    6.371      41.517
2015    3       17     5  34    4.6395   435.1    6.376      41.527
2015    3       17     5  40    4.6411   435.1    6.381      41.538
2015    3       17     5  46    4.6426   435.1    6.386      41.549
2015    3       17     5  51    4.6441   435.1    6.392      41.560
2015    3       17     5  57    4.6458   435.0    6.397      41.572
2015    3       17     6   3    4.6473   435.0    6.402      41.584
2015    3       17     6   8    4.6491   435.0    6.407      41.596
2015    3       17     6  14    4.6508   435.0    6.413      41.609
2015    3       17     6  20    4.6524   434.9    6.418      41.622
2015    3       17     6  25    4.6541   434.9    6.424      41.635
2015    3       17     6  31    4.6558   434.9    6.429      41.648
2015    3       17     6  37    4.6575   434.9    6.435      41.662
2015    3       17     6  42    4.6592   434.9    6.440      41.676
2015    3       17     6  48    4.6610   434.8    6.446      41.691
2015    3       17     6  54    4.6627   434.8    6.451      41.705
2015    3       17     6  59    4.6645   434.8    6.457      41.720
2015    3       17     7   5    4.6663   434.8    6.463      41.736
2015    3       17     7  11    4.6681   434.8    6.469      41.751
2015    3       17     7  16    4.6698   434.8    6.474      41.767
2015    3       17     7  22    4.6716   434.7    6.480      41.783
2015    3       17     7  28    4.6735   434.7    6.486      41.800
2015    3       17     7  33    4.6753   434.7    6.492      41.817
2015    3       17     7  39    4.6771   434.7    6.498      41.834
2015    3       17     7  45    4.6789   434.7    6.503      41.852
2015    3       17     7  50    4.6806   434.7    6.509      41.871
2015    3       17     7  56    4.6824   434.7    6.515      41.890
2015    3       17     8   2    4.6842   434.7    6.520      41.910
2015    3       17     8   7    4.6860   434.7    6.526      41.931
2015    3       17     8  13    4.6877   434.7    6.531      41.952
2015    3       17     8  19    4.6895   434.7    6.536      41.973
2015    3       17     8  24    4.6913   434.7    6.541      41.995
2015    3       17     8  30    4.6930   434.7    6.546      42.016
2015    3       17     8  36    4.6946   434.7    6.551      42.037
2015    3       17     8  41    4.6965   434.7    6.556      42.057
2015    3       17     8  47    4.6981   434.7    6.561      42.077
2015    3       17     8  53    4.6998   434.6    6.566      42.096
2015    3       17     8  58    4.7016   434.6    6.570      42.116
2015    3       17     9   4    4.7032   434.6    6.575      42.135
2015    3       17     9  10    4.7050   434.6    6.580      42.153
2015    3       17     9  15    4.7068   434.6    6.584      42.172
2015    3       17     9  21    4.7085   434.6    6.588      42.190
2015    3       17     9  26    4.7102   434.6    6.593      42.207
2015    3       17     9  32    4.7117   434.6    6.597      42.224
2015    3       17     9  38    4.7134   434.6    6.601      42.242
2015    3       17     9  43    4.7153   434.6    6.606      42.258
2015    3       17     9  49    4.7170   434.6    6.610      42.275
2015    3       17     9  55    4.7187   434.6    6.614      42.291
2015    3       17    10   0    4.7202   434.6    6.618      42.308
2015    3       17    10   6    4.7221   434.6    6.622      42.324
2015    3       17    10  12    4.7238   434.6    6.626      42.339
2015    3       17    10  17    4.7255   434.7    6.630      42.354
2015    3       17    10  23    4.7272   434.7    6.634      42.369
2015    3       17    10  29    4.7289   434.7    6.638      42.384
2015    3       17    10  34    4.7308   434.7    6.641      42.398
2015    3       17    10  40    4.7327   434.7    6.645      42.412
2015    3       17    10  46    4.7346   434.7    6.649      42.426
2015    3       17    10  51    4.7365   434.7    6.653      42.440
2015    3       17    10  57    4.7385   434.7    6.656      42.453
2015    3       17    11   3    4.7404   434.7    6.660      42.466
2015    3       17    11   8    4.7423   434.7    6.664      42.479
2015    3       17    11  14    4.7443   434.7    6.667      42.491
2015    3       17    11  20    4.7463   434.7    6.671      42.504
2015    3       17    11  25    4.7482   434.7    6.674      42.516
2015    3       17    11  31    4.7502   434.7    6.678      42.528
2015    3       17    11  37    4.7522   434.7    6.681      42.539
2015    3       17    11  42    4.7542   434.7    6.685      42.551
2015    3       17    11  48    4.7563   434.7    6.688      42.563
2015    3       17    11  54    4.7583   434.7    6.692      42.574
2015    3       17    11  59    4.7603   434.7    6.696      42.586
2015    3       17    12   5    4.7624   434.7    6.699      42.597
2015    3       17    12  11    4.7644   434.8    6.703      42.608
2015    3       17    12  16    4.7665   434.8    6.706      42.619
2015    3       17    12  22    4.7686   434.8    6.710      42.630
2015    3       17    12  28    4.7706   434.8    6.714      42.642
2015    3       17    12  33    4.7727   434.8    6.717      42.653
2015    3       17    12  39    4.7748   434.8    6.721      42.664
2015    3       17    12  45    4.7769   434.8    6.725      42.675
2015    3       17    12  50    4.7790   434.8    6.729      42.687
2015    3       17    12  56    4.7811   434.8    6.733      42.699
2015    3       17    13   2    4.7832   434.8    6.736      42.710
2015    3       17    13   7    4.7853   434.9    6.740      42.722
2015    3       17    13  13    4.7875   434.9    6.744      42.734
2015    3       17    13  19    4.7896   434.9    6.748      42.747
2015    3       17    13  24    4.7918   434.9    6.753      42.760
2015    3       17    13  30    4.7939   434.9    6.757      42.773
2015    3       17    13  36    4.7961   434.9    6.761      42.786
2015    3       17    13  41    4.7982   434.9    6.765      42.799
2015    3       17    13  47    4.8004   435.0    6.769      42.813
2015    3       17    13  53    4.8026   435.0    6.774      42.828
2015    3       17    13  58    4.8048   435.0    6.778      42.842
2015    3       17    14   4    4.8070   435.0    6.782      42.857
2015    3       17    14  10    4.8092   435.0    6.787      42.872
2015    3       17    14  15    4.8114   435.0    6.791      42.888
2015    3       17    14  21    4.8136   435.0    6.796      42.904
2015    3       17    14  27    4.8158   435.1    6.800      42.922
2015    3       17    14  32    4.8179   435.1    6.805      42.939
2015    3       17    14  38    4.8201   435.1    6.809      42.958
2015    3       17    14  44    4.8223   435.1    6.814      42.976
2015    3       17    14  49    4.8244   435.2    6.818      42.996
2015    3       17    14  55    4.8266   435.2    6.823      43.016
2015    3       17    15   1    4.8287   435.2    6.827      43.037
2015    3       17    15   6    4.8308   435.2    6.831      43.058
2015    3       17    15  12    4.8329   435.2    6.835      43.080
2015    3       17    15  18    4.8350   435.3    6.839      43.102
2015    3       17    15  23    4.8371   435.3    6.843      43.123
2015    3       17    15  29    4.8392   435.3    6.847      43.145
2015    3       17    15  35    4.8412   435.3    6.851      43.168
2015    3       17    15  40    4.8433   435.4    6.855      43.190
2015    3       17    15  46    4.8454   435.4    6.859      43.212
2015    3       17    15  52    4.8474   435.4    6.863      43.233
2015    3       17    15  57    4.8495   435.4    6.866      43.255
2015    3       17    16   3    4.8516   435.4    6.870      43.277
2015    3       17    16   9    4.8536   435.5    6.874      43.298
2015    3       17    16  14    4.8557   435.5    6.877      43.320
2015    3       17    16  20    4.8578   435.5    6.881      43.341
2015    3       17    16  26    4.8599   435.5    6.884      43.362
2015    3       17    16  31    4.8620   435.6    6.887      43.383
2015    3       17    16  37    4.8640   435.6    6.891      43.403
2015    3       17    16  43    4.8662   435.6    6.894      43.423
2015    3       17    16  48    4.8683   435.6    6.898      43.444
2015    3       17    16  54    4.8704   435.7    6.901      43.464
2015    3       17    17   0    4.8725   435.7    6.904      43.484
2015    3       17    17   5    4.8747   435.7    6.907      43.504
2015    3       17    17  11    4.8769   435.7    6.911      43.523
2015    3       17    17  17    4.8790   435.8    6.914      43.543
2015    3       17    17  22    4.8812   435.8    6.917      43.562
2015    3       17    17  28    4.8835   435.8    6.920      43.582
2015    3       17    17  34    4.8857   435.8    6.924      43.601
2015    3       17    17  39    4.8880   435.9    6.927      43.620
2015    3       17    17  45    4.8902   435.9    6.930      43.639
2015    3       17    17  51    4.8925   435.9    6.933      43.658
2015    3       17    17  56    4.8949   436.0    6.936      43.678
2015    3       17    18   2    4.8972   436.0    6.940      43.697
2015    3       17    18   8    4.8996   436.0    6.943      43.716
2015    3       17    18  13    4.9020   436.0    6.946      43.735
2015    3       17    18  19    4.9045   436.1    6.950      43.754
2015    3       17    18  25    4.9069   436.1    6.953      43.773
2015    3       17    18  30    4.9094   436.1    6.956      43.792
2015    3       17    18  36    4.9120   436.2    6.960      43.811
2015    3       17    18  42    4.9145   436.2    6.963      43.830
2015    3       17    18  47    4.9170   436.2    6.967      43.849
2015    3       17    18  53    4.9196   436.3    6.970      43.869
2015    3       17    18  59    4.9222   436.3    6.974      43.888
2015    3       17    19   4    4.9248   436.3    6.978      43.907
2015    3       17    19  10    4.9274   436.4    6.981      43.927
2015    3       17    19  16    4.9300   436.4    6.985      43.947
2015    3       17    19  21    4.9327   436.4    6.989      43.967
2015    3       17    19  27    4.9353   436.5    6.993      43.987
2015    3       17    19  33    4.9379   436.5    6.997      44.007
2015    3       17    19  38    4.9405   436.6    7.001      44.027
2015    3       17    19  44    4.9431   436.6    7.005      44.048
2015    3       17    19  50    4.9457   436.6    7.010      44.070
2015    3       17    19  55    4.9483   436.7    7.014      44.092
2015    3       17    20   1    4.9509   436.7    7.018      44.114
2015    3       17    20   6    4.9534   436.8    7.022      44.137
2015    3       17    20  12    4.9560   436.8    7.026      44.160
2015    3       17    20  18    4.9585   436.9    7.031      44.183
2015    3       17    20  23    4.9610   436.9    7.035      44.206
2015    3       17    20  29    4.9635   436.9    7.039      44.230
2015    3       17    20  35    4.9659   437.0    7.043      44.254
2015    3       17    20  40    4.9683   437.0    7.047      44.278
2015    3       17    20  46    4.9707   437.1    7.051      44.303
2015    3       17    20  52    4.9731   437.1    7.054      44.327
2015    3       17    20  57    4.9755   437.2    7.058      44.351
2015    3       17    21   3    4.9778   437.2    7.062      44.375
2015    3       17    21   9    4.9801   437.3    7.065      44.399
2015    3       17    21  14    4.9824   437.3    7.068      44.422
2015    3       17    21  20    4.9847   437.4    7.072      44.445
2015    3       17    21  26    4.9870   437.4    7.075      44.468
2015    3       17    21  31    4.9892   437.5    7.078      44.490
2015    3       17    21  37    4.9915   437.5    7.081      44.513
2015    3       17    21  43    4.9937   437.5    7.084      44.535
2015    3       17    21  48    4.9959   437.6    7.087      44.556
2015    3       17    21  54    4.9982   437.6    7.089      44.578
2015    3       17    22   0    5.0004   437.7    7.092      44.599
2015    3       17    22   5    5.0026   437.7    7.095      44.620
2015    3       17    22  11    5.0048   437.7    7.097      44.641
2015    3       17    22  17    5.0070   437.8    7.100      44.661
2015    3       17    22  22    5.0092   437.8    7.102      44.682
2015    3       17    22  28    5.0115   437.9    7.105      44.702
2015    3       17    22  34    5.0137   437.9    7.107      44.722
2015    3       17    22  39    5.0159   438.0    7.109      44.742
2015    3       17    22  45    5.0181   438.0    7.112      44.761
2015    3       17    22  51    5.0204   438.0    7.114      44.781
2015    3       17    22  56    5.0226   438.1    7.116      44.800
2015    3       17    23   2    5.0248   438.1    7.118      44.820
2015    3       17    23   8    5.0271   438.1    7.120      44.839
2015    3       17    23  13    5.0293   438.2    7.122      44.858
2015    3       17    23  19    5.0316   438.2    7.124      44.877
2015    3       17    23  25    5.0339   438.3    7.126      44.897
2015    3       17    23  30    5.0361   438.3    7.128      44.916
2015    3       17    23  36    5.0384   438.3    7.130      44.935
2015    3       17    23  42    5.0407   438.4    7.132      44.954
2015    3       17    23  47    5.0430   438.4    7.134      44.973
2015    3       17    23  53    5.0453   438.5    7.136      44.992
2015    3       17    23  59    5.0477   438.5    7.138      45.011
2015    3       18     0   4    5.0503   438.5    7.141      45.033
2015    3       18     0  10    5.0530   438.6    7.143      45.055
2015    3       18     0  16    5.0558   438.6    7.146      45.077
2015    3       18     0  21    5.0586   438.6    7.148      45.099
2015    3       18     0  27    5.0613   438.7    7.151      45.121
2015    3       18     0  33    5.0641   438.7    7.154      45.143
2015    3       18     0  38    5.0670   438.8    7.156      45.166
2015    3       18     0  44    5.0698   438.8    7.159      45.188
2015    3       18     0  50    5.0727   438.9    7.162      45.211
2015    3       18     0  55    5.0756   438.9    7.164      45.234
2015    3       18     1   1    5.0786   438.9    7.167      45.258
2015    3       18     1   7    5.0815   439.0    7.170      45.282
2015    3       18     1  12    5.0846   439.0    7.173      45.305
2015    3       18     1  18    5.0876   439.1    7.176      45.330
2015    3       18     1  24    5.0907   439.1    7.179      45.354
2015    3       18     1  29    5.0938   439.2    7.182      45.379
2015    3       18     1  35    5.0970   439.2    7.186      45.405
2015    3       18     1  41    5.1002   439.3    7.189      45.431
2015    3       18     1  46    5.1034   439.3    7.193      45.457
2015    3       18     1  52    5.1067   439.3    7.196      45.483
2015    3       18     1  58    5.1100   439.4    7.200      45.511
2015    3       18     2   3    5.1133   439.4    7.204      45.539
2015    3       18     2   9    5.1167   439.5    7.208      45.567
2015    3       18     2  15    5.1201   439.6    7.212      45.596
2015    3       18     2  20    5.1236   439.6    7.216      45.625
2015    3       18     2  26    5.1270   439.7    7.221      45.656
2015    3       18     2  32    5.1305   439.7    7.225      45.686
2015    3       18     2  37    5.1340   439.8    7.230      45.718
2015    3       18     2  43    5.1375   439.8    7.235      45.750
2015    3       18     2  49    5.1410   439.9    7.239      45.783
2015    3       18     2  54    5.1445   440.0    7.244      45.817
2015    3       18     3   0    5.1479   440.0    7.249      45.852
2015    3       18     3   6    5.1514   440.1    7.254      45.887
2015    3       18     3  11    5.1549   440.2    7.259      45.924
2015    3       18     3  17    5.1583   440.3    7.264      45.961
2015    3       18     3  23    5.1617   440.3    7.269      45.999
2015    3       18     3  28    5.1651   440.4    7.274      46.037
2015    3       18     3  34    5.1686   440.5    7.279      46.075
2015    3       18     3  40    5.1719   440.6    7.284      46.114
2015    3       18     3  45    5.1753   440.6    7.289      46.152
2015    3       18     3  51    5.1787   440.7    7.294      46.191
2015    3       18     3  57    5.1821   440.8    7.298      46.230
2015    3       18     4   2    5.1854   440.9    7.303      46.268
2015    3       18     4   8    5.1887   440.9    7.307      46.307
2015    3       18     4  14    5.1920   441.0    7.312      46.346
2015    3       18     4  19    5.1953   441.1    7.316      46.385
2015    3       18     4  25    5.1986   441.2    7.321      46.424
2015    3       18     4  31    5.2020   441.3    7.325      46.462
2015    3       18     4  36    5.2053   441.3    7.329      46.500
2015    3       18     4  42    5.2086   441.4    7.333      46.538
2015    3       18     4  48    5.2119   441.5    7.338      46.575
2015    3       18     4  53    5.2153   441.6    7.342      46.612
2015    3       18     4  59    5.2186   441.6    7.346      46.649
2015    3       18     5   5    5.2220   441.7    7.350      46.686
2015    3       18     5  10    5.2254   441.8    7.355      46.723
2015    3       18     5  16    5.2288   441.9    7.359      46.760
2015    3       18     5  22    5.2323   442.0    7.363      46.798
2015    3       18     5  27    5.2357   442.0    7.367      46.836
2015    3       18     5  33    5.2392   442.1    7.372      46.874
2015    3       18     5  39    5.2427   442.2    7.376      46.913
2015    3       18     5  44    5.2462   442.3    7.380      46.953
2015    3       18     5  50    5.2496   442.4    7.384      46.992
2015    3       18     5  55    5.2531   442.5    7.388      47.033
2015    3       18     6   1    5.2565   442.6    7.392      47.073
2015    3       18     6   7    5.2599   442.7    7.396      47.114
2015    3       18     6  12    5.2633   442.8    7.400      47.155
2015    3       18     6  18    5.2667   442.9    7.403      47.197
2015    3       18     6  24    5.2700   442.9    7.406      47.239
2015    3       18     6  29    5.2734   443.0    7.410      47.280
2015    3       18     6  35    5.2767   443.1    7.412      47.321
2015    3       18     6  41    5.2800   443.2    7.415      47.361
2015    3       18     6  46    5.2833   443.3    7.418      47.400
2015    3       18     6  52    5.2865   443.4    7.420      47.439
2015    3       18     6  58    5.2898   443.5    7.423      47.477
2015    3       18     7   3    5.2930   443.6    7.425      47.515
2015    3       18     7   9    5.2962   443.7    7.427      47.551
2015    3       18     7  15    5.2994   443.8    7.429      47.588
2015    3       18     7  20    5.3026   443.8    7.431      47.624
2015    3       18     7  26    5.3059   443.9    7.433      47.659
2015    3       18     7  32    5.3091   444.0    7.434      47.694
2015    3       18     7  37    5.3123   444.1    7.436      47.728
2015    3       18     7  43    5.3155   444.2    7.437      47.763
2015    3       18     7  49    5.3187   444.3    7.439      47.796
2015    3       18     7  54    5.3219   444.4    7.440      47.830
2015    3       18     8   0    5.3251   444.4    7.442      47.863
2015    3       18     8   6    5.3284   444.5    7.443      47.896
2015    3       18     8  11    5.3316   444.6    7.445      47.928
2015    3       18     8  17    5.3349   444.7    7.446      47.961
2015    3       18     8  23    5.3381   444.8    7.447      47.993
2015    3       18     8  28    5.3414   444.9    7.449      48.025
2015    3       18     8  34    5.3446   445.0    7.450      48.057
2015    3       18     8  40    5.3479   445.0    7.451      48.089
2015    3       18     8  45    5.3512   445.1    7.453      48.121
2015    3       18     8  51    5.3546   445.2    7.454      48.153
2015    3       18     8  57    5.3579   445.3    7.455      48.184
2015    3       18     9   2    5.3612   445.4    7.457      48.216
2015    3       18     9   8    5.3646   445.5    7.458      48.248
2015    3       18     9  14    5.3680   445.5    7.460      48.280
2015    3       18     9  19    5.3714   445.6    7.461      48.312
2015    3       18     9  25    5.3748   445.7    7.463      48.345
2015    3       18     9  31    5.3782   445.8    7.464      48.377
2015    3       18     9  36    5.3816   445.9    7.466      48.410
2015    3       18     9  42    5.3851   446.0    7.468      48.443
2015    3       18     9  48    5.3886   446.1    7.469      48.476
2015    3       18     9  53    5.3921   446.2    7.471      48.510
2015    3       18     9  59    5.3955   446.3    7.473      48.543
2015    3       18    10   5    5.3990   446.3    7.475      48.578
2015    3       18    10  10    5.4025   446.4    7.477      48.612
2015    3       18    10  16    5.4060   446.5    7.478      48.647
2015    3       18    10  22    5.4095   446.6    7.480      48.683
2015    3       18    10  27    5.4131   446.7    7.482      48.719
2015    3       18    10  33    5.4165   446.8    7.484      48.755
2015    3       18    10  39    5.4201   446.9    7.486      48.791
2015    3       18    10  44    5.4236   447.0    7.488      48.828
2015    3       18    10  50    5.4271   447.1    7.490      48.864
2015    3       18    10  56    5.4306   447.2    7.492      48.900
2015    3       18    11   1    5.4342   447.3    7.494      48.937
2015    3       18    11   7    5.4377   447.4    7.497      48.974
2015    3       18    11  13    5.4413   447.5    7.499      49.011
2015    3       18    11  18    5.4449   447.6    7.502      49.048
2015    3       18    11  24    5.4486   447.7    7.504      49.086
2015    3       18    11  30    5.4522   447.8    7.507      49.123
2015    3       18    11  35    5.4559   447.9    7.510      49.162
2015    3       18    11  41    5.4596   448.0    7.513      49.201
2015    3       18    11  47    5.4633   448.1    7.516      49.241
2015    3       18    11  52    5.4671   448.2    7.520      49.281
2015    3       18    11  58    5.4709   448.3    7.523      49.322
2015    3       18    12   4    5.4748   448.5    7.527      49.364
2015    3       18    12   9    5.4787   448.6    7.531      49.407
2015    3       18    12  15    5.4826   448.7    7.535      49.452
2015    3       18    12  21    5.4865   448.8    7.539      49.497
2015    3       18    12  26    5.4904   448.9    7.543      49.544
2015    3       18    12  32    5.4944   449.1    7.547      49.592
2015    3       18    12  38    5.4983   449.2    7.552      49.643
2015    3       18    12  43    5.5023   449.3    7.556      49.695
2015    3       18    12  49    5.5062   449.5    7.560      49.749
2015    3       18    12  55    5.5101   449.6    7.564      49.804
2015    3       18    13   0    5.5140   449.7    7.569      49.860
2015    3       18    13   6    5.5179   449.9    7.573      49.917
2015    3       18    13  12    5.5217   450.0    7.577      49.974
2015    3       18    13  17    5.5256   450.1    7.581      50.032
2015    3       18    13  23    5.5293   450.3    7.585      50.091
2015    3       18    13  29    5.5331   450.4    7.589      50.151
2015    3       18    13  34    5.5368   450.6    7.593      50.211
2015    3       18    13  40    5.5405   450.7    7.596      50.271
2015    3       18    13  46    5.5442   450.9    7.600      50.332
2015    3       18    13  51    5.5479   451.0    7.603      50.393
2015    3       18    13  57    5.5515   451.2    7.607      50.454
2015    3       18    14   3    5.5551   451.3    7.610      50.515
2015    3       18    14   8    5.5587   451.5    7.613      50.576
2015    3       18    14  14    5.5622   451.6    7.616      50.636
2015    3       18    14  20    5.5657   451.8    7.619      50.697
2015    3       18    14  25    5.5692   451.9    7.622      50.758
2015    3       18    14  31    5.5727   452.1    7.624      50.817
2015    3       18    14  37    5.5762   452.2    7.627      50.876
2015    3       18    14  42    5.5797   452.3    7.629      50.934
2015    3       18    14  48    5.5832   452.5    7.632      50.993
2015    3       18    14  54    5.5867   452.6    7.634      51.051
2015    3       18    14  59    5.5902   452.8    7.636      51.109
2015    3       18    15   5    5.5937   452.9    7.639      51.167
2015    3       18    15  11    5.5972   453.1    7.641      51.224
2015    3       18    15  16    5.6007   453.2    7.643      51.282
2015    3       18    15  22    5.6043   453.4    7.645      51.339
2015    3       18    15  28    5.6078   453.5    7.648      51.398
2015    3       18    15  33    5.6114   453.7    7.650      51.456
2015    3       18    15  39    5.6149   453.8    7.652      51.516
2015    3       18    15  45    5.6184   454.0    7.653      51.576
2015    3       18    15  50    5.6219   454.2    7.655      51.636
2015    3       18    15  56    5.6254   454.3    7.656      51.696
2015    3       18    16   1    5.6288   454.5    7.657      51.756
2015    3       18    16   7    5.6321   454.6    7.658      51.815
2015    3       18    16  13    5.6355   454.8    7.659      51.873
2015    3       18    16  18    5.6388   455.0    7.660      51.929
2015    3       18    16  24    5.6421   455.1    7.660      51.984
2015    3       18    16  30    5.6453   455.3    7.660      52.038
2015    3       18    16  35    5.6485   455.4    7.660      52.091
2015    3       18    16  41    5.6516   455.6    7.660      52.143
2015    3       18    16  47    5.6548   455.8    7.659      52.194
2015    3       18    16  52    5.6579   455.9    7.659      52.243
2015    3       18    16  58    5.6610   456.1    7.658      52.292
2015    3       18    17   4    5.6641   456.2    7.657      52.340
2015    3       18    17   9    5.6672   456.4    7.656      52.387
2015    3       18    17  15    5.6702   456.5    7.655      52.434
2015    3       18    17  21    5.6732   456.7    7.654      52.479
2015    3       18    17  26    5.6762   456.9    7.653      52.524
2015    3       18    17  32    5.6793   457.0    7.652      52.569
2015    3       18    17  38    5.6823   457.2    7.651      52.612
2015    3       18    17  43    5.6853   457.3    7.649      52.656
2015    3       18    17  49    5.6883   457.5    7.648      52.698
2015    3       18    17  55    5.6912   457.7    7.647      52.741
2015    3       18    18   0    5.6942   457.8    7.645      52.782
2015    3       18    18   6    5.6972   458.0    7.644      52.824
2015    3       18    18  12    5.7002   458.1    7.642      52.865
2015    3       18    18  17    5.7032   458.3    7.641      52.906
2015    3       18    18  23    5.7062   458.5    7.639      52.947
2015    3       18    18  29    5.7092   458.6    7.638      52.987
2015    3       18    18  34    5.7122   458.8    7.637      53.028
2015    3       18    18  40    5.7152   458.9    7.636      53.069
2015    3       18    18  46    5.7182   459.1    7.635      53.109
2015    3       18    18  51    5.7213   459.3    7.633      53.150
2015    3       18    18  57    5.7243   459.4    7.632      53.191
2015    3       18    19   3    5.7274   459.6    7.631      53.233
2015    3       18    19   8    5.7305   459.8    7.631      53.275
2015    3       18    19  14    5.7335   459.9    7.630      53.317
2015    3       18    19  20    5.7366   460.1    7.629      53.360
2015    3       18    19  25    5.7397   460.3    7.628      53.404
2015    3       18    19  31    5.7428   460.4    7.628      53.448
2015    3       18    19  37    5.7458   460.6    7.627      53.493
2015    3       18    19  42    5.7488   460.8    7.626      53.540
2015    3       18    19  48    5.7518   461.0    7.626      53.587
2015    3       18    19  54    5.7548   461.2    7.625      53.636
2015    3       18    19  59    5.7578   461.3    7.624      53.685
2015    3       18    20   5    5.7608   461.5    7.623      53.734
2015    3       18    20  11    5.7638   461.7    7.623      53.784
2015    3       18    20  16    5.7668   461.9    7.622      53.834
2015    3       18    20  22    5.7697   462.1    7.621      53.883
2015    3       18    20  28    5.7726   462.3    7.621      53.933
2015    3       18    20  33    5.7756   462.4    7.620      53.983
2015    3       18    20  39    5.7785   462.6    7.620      54.033
2015    3       18    20  45    5.7814   462.8    7.620      54.084
2015    3       18    20  50    5.7844   463.0    7.619      54.136
2015    3       18    20  56    5.7873   463.2    7.619      54.187
2015    3       18    21   2    5.7902   463.3    7.620      54.240
2015    3       18    21   7    5.7931   463.5    7.620      54.293
2015    3       18    21  13    5.7961   463.7    7.620      54.347
2015    3       18    21  19    5.7990   463.9    7.621      54.403
2015    3       18    21  24    5.8019   464.1    7.622      54.459
2015    3       18    21  30    5.8049   464.3    7.622      54.516
2015    3       18    21  36    5.8078   464.4    7.623      54.574
2015    3       18    21  41    5.8108   464.6    7.625      54.633
2015    3       18    21  47    5.8138   464.8    7.626      54.693
2015    3       18    21  53    5.8168   465.0    7.628      54.754
2015    3       18    21  58    5.8199   465.2    7.629      54.815
2015    3       18    22   4    5.8230   465.4    7.631      54.877
2015    3       18    22  10    5.8262   465.6    7.634      54.941
2015    3       18    22  15    5.8294   465.8    7.636      55.007
2015    3       18    22  21    5.8327   465.9    7.639      55.074
2015    3       18    22  27    5.8360   466.1    7.642      55.143
2015    3       18    22  32    5.8394   466.3    7.645      55.213
2015    3       18    22  38    5.8428   466.5    7.649      55.286
2015    3       18    22  44    5.8463   466.8    7.652      55.361
2015    3       18    22  49    5.8498   467.0    7.656      55.439
2015    3       18    22  55    5.8533   467.2    7.660      55.519
2015    3       18    23   1    5.8569   467.4    7.663      55.601
2015    3       18    23   6    5.8604   467.6    7.667      55.685
2015    3       18    23  12    5.8639   467.8    7.670      55.770
2015    3       18    23  18    5.8674   468.1    7.674      55.856
2015    3       18    23  23    5.8708   468.3    7.677      55.943
2015    3       18    23  29    5.8742   468.5    7.679      56.031
2015    3       18    23  35    5.8776   468.8    7.682      56.120
2015    3       18    23  40    5.8808   469.0    7.684      56.209
2015    3       18    23  46    5.8840   469.3    7.686      56.300
2015    3       18    23  52    5.8872   469.5    7.687      56.390
2015    3       18    23  57    5.8902   469.8    7.688      56.480
2015    3       19     0   3    5.8932   470.0    7.689      56.568
2015    3       19     0   9    5.8962   470.3    7.689      56.654
2015    3       19     0  14    5.8990   470.5    7.689      56.739
2015    3       19     0  20    5.9019   470.8    7.689      56.821
2015    3       19     0  26    5.9046   471.0    7.688      56.902
2015    3       19     0  31    5.9073   471.3    7.687      56.982
2015    3       19     0  37    5.9100   471.5    7.685      57.060
2015    3       19     0  43    5.9126   471.8    7.684      57.136
2015    3       19     0  48    5.9152   472.0    7.682      57.212
2015    3       19     0  54    5.9177   472.3    7.680      57.286
2015    3       19     1   0    5.9203   472.6    7.678      57.359
2015    3       19     1   5    5.9227   472.8    7.675      57.430
2015    3       19     1  11    5.9252   473.1    7.672      57.501
2015    3       19     1  17    5.9276   473.3    7.669      57.570
2015    3       19     1  22    5.9299   473.6    7.666      57.638
2015    3       19     1  28    5.9323   473.9    7.662      57.705
2015    3       19     1  34    5.9346   474.1    7.659      57.772
2015    3       19     1  39    5.9368   474.4    7.655      57.837
2015    3       19     1  45    5.9390   474.7    7.650      57.901
2015    3       19     1  50    5.9412   474.9    7.646      57.964
2015    3       19     1  56    5.9434   475.2    7.641      58.026
2015    3       19     2   2    5.9455   475.5    7.637      58.087
2015    3       19     2   7    5.9476   475.8    7.632      58.147
2015    3       19     2  13    5.9496   476.0    7.627      58.206
2015    3       19     2  19    5.9516   476.3    7.621      58.265
2015    3       19     2  24    5.9535   476.6    7.616      58.322
2015    3       19     2  30    5.9554   476.9    7.610      58.379
2015    3       19     2  36    5.9573   477.1    7.604      58.435
2015    3       19     2  41    5.9591   477.4    7.598      58.490
2015    3       19     2  47    5.9609   477.7    7.591      58.544
2015    3       19     2  53    5.9626   478.0    7.585      58.597
2015    3       19     2  58    5.9643   478.3    7.578      58.650
2015    3       19     3   4    5.9659   478.5    7.572      58.702
2015    3       19     3  10    5.9675   478.8    7.565      58.754
2015    3       19     3  15    5.9690   479.1    7.558      58.805
2015    3       19     3  21    5.9705   479.4    7.551      58.855
2015    3       19     3  27    5.9719   479.7    7.544      58.905
2015    3       19     3  32    5.9733   480.0    7.536      58.954
2015    3       19     3  38    5.9746   480.3    7.529      59.002
2015    3       19     3  44    5.9759   480.6    7.522      59.051
2015    3       19     3  49    5.9772   480.8    7.514      59.099
2015    3       19     3  55    5.9783   481.1    7.507      59.146
2015    3       19     4   1    5.9795   481.4    7.499      59.193
2015    3       19     4   6    5.9806   481.7    7.491      59.240
2015    3       19     4  12    5.9817   482.0    7.484      59.287
2015    3       19     4  18    5.9827   482.3    7.477      59.334
2015    3       19     4  23    5.9837   482.6    7.469      59.381
2015    3       19     4  29    5.9847   482.9    7.462      59.427
2015    3       19     4  35    5.9857   483.1    7.455      59.474
2015    3       19     4  40    5.9866   483.4    7.447      59.521
2015    3       19     4  46    5.9875   483.7    7.440      59.569
2015    3       19     4  52    5.9885   484.0    7.434      59.616
2015    3       19     4  57    5.9894   484.3    7.427      59.665
2015    3       19     5   3    5.9903   484.6    7.421      59.714
2015    3       19     5   9    5.9913   484.9    7.414      59.764
2015    3       19     5  14    5.9922   485.1    7.408      59.815
2015    3       19     5  20    5.9932   485.4    7.402      59.866
2015    3       19     5  26    5.9942   485.7    7.397      59.919
2015    3       19     5  31    5.9952   486.0    7.391      59.973
2015    3       19     5  37    5.9962   486.3    7.386      60.028
2015    3       19     5  43    5.9973   486.5    7.381      60.084
2015    3       19     5  48    5.9983   486.8    7.376      60.142
2015    3       19     5  54    5.9994   487.1    7.372      60.202
2015    3       19     6   0    6.0005   487.4    7.368      60.263
2015    3       19     6   5    6.0017   487.7    7.364      60.325
2015    3       19     6  11    6.0028   488.0    7.360      60.390
2015    3       19     6  17    6.0040   488.3    7.356      60.456
2015    3       19     6  22    6.0051   488.5    7.353      60.523
2015    3       19     6  28    6.0063   488.8    7.349      60.592
2015    3       19     6  34    6.0074   489.1    7.346      60.662
2015    3       19     6  39    6.0085   489.4    7.343      60.733
2015    3       19     6  45    6.0096   489.7    7.340      60.808
2015    3       19     6  51    6.0107   490.0    7.337      60.884
2015    3       19     6  56    6.0117   490.3    7.334      60.962
2015    3       19     7   2    6.0126   490.6    7.331      61.043
2015    3       19     7   8    6.0135   491.0    7.327      61.124
2015    3       19     7  13    6.0142   491.3    7.323      61.206
2015    3       19     7  19    6.0149   491.6    7.319      61.287
2015    3       19     7  25    6.0154   491.9    7.314      61.366
2015    3       19     7  30    6.0159   492.2    7.309      61.442
2015    3       19     7  36    6.0162   492.5    7.303      61.517
2015    3       19     7  42    6.0164   492.8    7.298      61.589
2015    3       19     7  47    6.0165   493.2    7.292      61.659
2015    3       19     7  53    6.0164   493.5    7.286      61.727
2015    3       19     7  59    6.0164   493.8    7.279      61.794
2015    3       19     8   4    6.0161   494.1    7.273      61.860
2015    3       19     8  10    6.0159   494.4    7.266      61.924
2015    3       19     8  16    6.0155   494.7    7.258      61.987
2015    3       19     8  21    6.0152   495.0    7.251      62.050
2015    3       19     8  27    6.0147   495.3    7.243      62.111
2015    3       19     8  33    6.0142   495.6    7.236      62.171
2015    3       19     8  38    6.0137   495.9    7.228      62.230
2015    3       19     8  44    6.0131   496.2    7.219      62.288
2015    3       19     8  50    6.0124   496.5    7.211      62.345
2015    3       19     8  55    6.0118   496.8    7.202      62.401
2015    3       19     9   1    6.0110   497.1    7.193      62.456
2015    3       19     9   7    6.0102   497.4    7.184      62.511
2015    3       19     9  12    6.0093   497.7    7.175      62.563
2015    3       19     9  18    6.0084   498.0    7.165      62.615
2015    3       19     9  24    6.0075   498.3    7.156      62.666
2015    3       19     9  29    6.0065   498.6    7.146      62.716
2015    3       19     9  35    6.0054   498.9    7.136      62.764
2015    3       19     9  41    6.0042   499.2    7.125      62.811
2015    3       19     9  46    6.0030   499.5    7.115      62.857
2015    3       19     9  52    6.0018   499.9    7.104      62.901
2015    3       19     9  58    6.0005   500.2    7.093      62.944
2015    3       19    10   3    5.9991   500.5    7.082      62.986
2015    3       19    10   9    5.9977   500.8    7.071      63.026
2015    3       19    10  15    5.9962   501.1    7.060      63.065
2015    3       19    10  20    5.9946   501.4    7.048      63.102
2015    3       19    10  26    5.9930   501.8    7.036      63.138
2015    3       19    10  32    5.9912   502.1    7.024      63.173
2015    3       19    10  37    5.9894   502.4    7.012      63.207
2015    3       19    10  43    5.9875   502.8    6.999      63.240
2015    3       19    10  49    5.9855   503.1    6.987      63.272
2015    3       19    10  54    5.9834   503.4    6.974      63.302
2015    3       19    11   0    5.9813   503.8    6.961      63.331
2015    3       19    11   6    5.9790   504.1    6.947      63.359
2015    3       19    11  11    5.9766   504.5    6.934      63.387
2015    3       19    11  17    5.9740   504.8    6.920      63.416
2015    3       19    11  22    5.9714   505.2    6.906      63.443
2015    3       19    11  28    5.9686   505.6    6.892      63.469
2015    3       19    11  34    5.9658   505.9    6.877      63.493
2015    3       19    11  39    5.9628   506.2    6.863      63.514
2015    3       19    11  45    5.9598   506.6    6.848      63.534
2015    3       19    11  51    5.9568   506.9    6.834      63.551
2015    3       19    11  56    5.9538   507.2    6.820      63.566
2015    3       19    12   2    5.9508   507.5    6.806      63.580
2015    3       19    12   8    5.9479   507.8    6.792      63.595
2015    3       19    12  13    5.9450   508.1    6.779      63.610
2015    3       19    12  19    5.9422   508.4    6.766      63.627
2015    3       19    12  25    5.9395   508.7    6.753      63.645
2015    3       19    12  30    5.9368   509.0    6.741      63.663
2015    3       19    12  36    5.9341   509.2    6.729      63.683
2015    3       19    12  42    5.9315   509.5    6.717      63.704
2015    3       19    12  47    5.9288   509.8    6.705      63.727
2015    3       19    12  53    5.9262   510.1    6.693      63.751
2015    3       19    12  59    5.9235   510.4    6.682      63.777
2015    3       19    13   4    5.9209   510.7    6.670      63.807
2015    3       19    13  10    5.9182   511.0    6.659      63.839
2015    3       19    13  16    5.9155   511.3    6.648      63.872
2015    3       19    13  21    5.9127   511.7    6.636      63.906
2015    3       19    13  27    5.9100   512.0    6.625      63.941
2015    3       19    13  33    5.9071   512.3    6.614      63.976
2015    3       19    13  38    5.9043   512.6    6.603      64.010
2015    3       19    13  44    5.9014   512.9    6.592      64.043
2015    3       19    13  50    5.8984   513.2    6.581      64.073
2015    3       19    13  55    5.8953   513.5    6.570      64.103
2015    3       19    14   1    5.8922   513.8    6.559      64.132
2015    3       19    14   7    5.8890   514.1    6.548      64.160
2015    3       19    14  12    5.8858   514.4    6.537      64.188
2015    3       19    14  18    5.8824   514.7    6.526      64.216
2015    3       19    14  24    5.8789   515.0    6.515      64.243
2015    3       19    14  29    5.8754   515.3    6.503      64.269
2015    3       19    14  35    5.8718   515.7    6.492      64.294
2015    3       19    14  41    5.8681   516.0    6.480      64.317
2015    3       19    14  46    5.8643   516.3    6.468      64.339
2015    3       19    14  52    5.8604   516.6    6.456      64.358
2015    3       19    14  58    5.8564   516.9    6.444      64.376
2015    3       19    15   3    5.8523   517.1    6.431      64.391
2015    3       19    15   9    5.8482   517.4    6.419      64.406
2015    3       19    15  15    5.8440   517.7    6.407      64.418
2015    3       19    15  20    5.8397   518.0    6.394      64.428
2015    3       19    15  26    5.8353   518.3    6.382      64.437
2015    3       19    15  32    5.8309   518.5    6.370      64.445
2015    3       19    15  37    5.8264   518.8    6.357      64.452
2015    3       19    15  43    5.8219   519.1    6.345      64.457
2015    3       19    15  49    5.8174   519.3    6.332      64.462
2015    3       19    15  54    5.8128   519.6    6.319      64.464
2015    3       19    16   0    5.8082   519.8    6.307      64.465
2015    3       19    16   6    5.8036   520.1    6.294      64.464
2015    3       19    16  11    5.7990   520.3    6.281      64.461
2015    3       19    16  17    5.7944   520.6    6.269      64.457
2015    3       19    16  23    5.7898   520.8    6.256      64.453
2015    3       19    16  28    5.7852   521.0    6.244      64.448
2015    3       19    16  34    5.7806   521.3    6.231      64.442
2015    3       19    16  40    5.7761   521.5    6.219      64.435
2015    3       19    16  45    5.7715   521.7    6.207      64.427
2015    3       19    16  51    5.7670   521.9    6.195      64.419
2015    3       19    16  57    5.7625   522.1    6.183      64.411
2015    3       19    17   2    5.7581   522.3    6.171      64.401
2015    3       19    17   8    5.7536   522.5    6.159      64.392
2015    3       19    17  14    5.7492   522.7    6.147      64.382
2015    3       19    17  19    5.7448   522.9    6.136      64.372
2015    3       19    17  25    5.7404   523.1    6.124      64.362
2015    3       19    17  31    5.7359   523.3    6.113      64.351
2015    3       19    17  36    5.7315   523.6    6.101      64.341
2015    3       19    17  42    5.7271   523.8    6.090      64.331
2015    3       19    17  48    5.7226   524.0    6.079      64.321
2015    3       19    17  53    5.7181   524.3    6.067      64.311
2015    3       19    17  59    5.7137   524.5    6.056      64.301
2015    3       19    18   5    5.7091   524.8    6.044      64.291
2015    3       19    18  10    5.7045   525.0    6.033      64.278
2015    3       19    18  16    5.6998   525.2    6.021      64.263
2015    3       19    18  22    5.6950   525.5    6.009      64.246
2015    3       19    18  27    5.6902   525.7    5.997      64.229
2015    3       19    18  33    5.6853   526.0    5.985      64.212
2015    3       19    18  39    5.6803   526.2    5.973      64.195
2015    3       19    18  44    5.6753   526.5    5.960      64.177
2015    3       19    18  50    5.6702   526.7    5.948      64.156
2015    3       19    18  56    5.6651   527.0    5.935      64.133
2015    3       19    19   1    5.6600   527.2    5.923      64.109
2015    3       19    19   7    5.6549   527.4    5.911      64.082
2015    3       19    19  13    5.6499   527.6    5.899      64.052
2015    3       19    19  18    5.6450   527.7    5.888      64.020
2015    3       19    19  24    5.6402   527.9    5.877      63.989
2015    3       19    19  30    5.6356   528.1    5.866      63.960
2015    3       19    19  35    5.6310   528.2    5.856      63.933
2015    3       19    19  41    5.6265   528.3    5.847      63.909
2015    3       19    19  47    5.6221   528.5    5.838      63.887
2015    3       19    19  52    5.6179   528.6    5.829      63.867
2015    3       19    19  58    5.6137   528.8    5.821      63.851
2015    3       19    20   4    5.6096   528.9    5.814      63.839
2015    3       19    20   9    5.6056   529.0    5.807      63.829
2015    3       19    20  15    5.6016   529.2    5.800      63.822
2015    3       19    20  21    5.5976   529.3    5.793      63.818
2015    3       19    20  26    5.5937   529.5    5.787      63.820
2015    3       19    20  32    5.5899   529.7    5.780      63.826
2015    3       19    20  37    5.5860   529.8    5.774      63.835
2015    3       19    20  43    5.5822   530.0    5.768      63.845
2015    3       19    20  49    5.5784   530.2    5.761      63.856
2015    3       19    20  54    5.5745   530.4    5.755      63.868
2015    3       19    21   0    5.5707   530.6    5.748      63.879
2015    3       19    21   6    5.5668   530.8    5.742      63.886
2015    3       19    21  11    5.5629   530.9    5.735      63.890
2015    3       19    21  17    5.5589   531.1    5.727      63.891
2015    3       19    21  23    5.5548   531.3    5.720      63.890
2015    3       19    21  28    5.5507   531.4    5.712      63.887
2015    3       19    21  34    5.5465   531.6    5.705      63.883
2015    3       19    21  40    5.5422   531.8    5.697      63.877
2015    3       19    21  45    5.5379   532.0    5.689      63.871
2015    3       19    21  51    5.5336   532.1    5.680      63.863
2015    3       19    21  57    5.5292   532.3    5.672      63.856
2015    3       19    22   2    5.5248   532.5    5.664      63.847
2015    3       19    22   8    5.5203   532.7    5.655      63.838
2015    3       19    22  14    5.5159   532.9    5.647      63.828
2015    3       19    22  19    5.5114   533.0    5.638      63.817
2015    3       19    22  25    5.5069   533.2    5.630      63.805
2015    3       19    22  31    5.5024   533.4    5.621      63.791
2015    3       19    22  36    5.4980   533.6    5.613      63.777
2015    3       19    22  42    5.4934   533.8    5.604      63.762
2015    3       19    22  48    5.4889   534.0    5.595      63.746
2015    3       19    22  53    5.4843   534.1    5.587      63.729
2015    3       19    22  59    5.4797   534.3    5.578      63.711
2015    3       19    23   5    5.4751   534.5    5.569      63.691
2015    3       19    23  10    5.4705   534.7    5.561      63.669
2015    3       19    23  16    5.4659   534.8    5.552      63.646
2015    3       19    23  22    5.4613   535.0    5.544      63.620
2015    3       19    23  27    5.4567   535.1    5.535      63.593
2015    3       19    23  33    5.4522   535.3    5.527      63.565
2015    3       19    23  39    5.4477   535.4    5.518      63.536
2015    3       19    23  44    5.4432   535.6    5.510      63.507
2015    3       19    23  50    5.4388   535.7    5.502      63.479
2015    3       19    23  56    5.4344   535.8    5.494      63.450
2015    3       20     0   1    5.4301   535.9    5.487      63.421
