year    month   day   hour  minute  B_enl V_enl   n_enl       T_enl
[year] [month] [day] [hour][minute] [nT]  [km/s]  [cm-3]      [kK]
2015    3        5     0   5    7.1828   474.5    7.111      49.596
2015    3        5     0  10    7.1865   474.7    7.109      49.643
2015    3        5     0  15    7.1902   474.8    7.108      49.690
2015    3        5     0  21    7.1939   475.0    7.107      49.738
2015    3        5     0  26    7.1978   475.2    7.106      49.788
2015    3        5     0  32    7.2015   475.4    7.105      49.838
2015    3        5     0  37    7.2053   475.6    7.105      49.891
2015    3        5     0  42    7.2091   475.7    7.104      49.944
2015    3        5     0  48    7.2130   475.9    7.104      49.999
2015    3        5     0  53    7.2169   476.1    7.104      50.056
2015    3        5     0  58    7.2209   476.3    7.104      50.113
2015    3        5     1   4    7.2246   476.5    7.104      50.173
2015    3        5     1   9    7.2287   476.7    7.105      50.234
2015    3        5     1  14    7.2324   476.9    7.105      50.296
2015    3        5     1  20    7.2362   477.1    7.105      50.359
2015    3        5     1  25    7.2400   477.3    7.105      50.424
2015    3        5     1  31    7.2440   477.5    7.105      50.489
2015    3        5     1  36    7.2475   477.7    7.105      50.555
2015    3        5     1  41    7.2512   477.9    7.105      50.621
2015    3        5     1  47    7.2550   478.1    7.105      50.688
2015    3        5     1  52    7.2586   478.3    7.104      50.754
2015    3        5     1  57    7.2619   478.5    7.103      50.820
2015    3        5     2   3    7.2654   478.7    7.102      50.886
2015    3        5     2   8    7.2688   479.0    7.101      50.951
2015    3        5     2  13    7.2721   479.2    7.100      51.016
2015    3        5     2  19    7.2754   479.4    7.098      51.080
2015    3        5     2  24    7.2786   479.6    7.096      51.143
2015    3        5     2  30    7.2817   479.8    7.094      51.206
2015    3        5     2  35    7.2849   480.1    7.091      51.267
2015    3        5     2  40    7.2879   480.3    7.089      51.328
2015    3        5     2  46    7.2911   480.5    7.086      51.387
2015    3        5     2  51    7.2941   480.7    7.083      51.446
2015    3        5     2  56    7.2970   481.0    7.080      51.504
2015    3        5     3   2    7.2998   481.2    7.076      51.561
2015    3        5     3   7    7.3026   481.4    7.073      51.617
2015    3        5     3  12    7.3054   481.6    7.069      51.673
2015    3        5     3  18    7.3082   481.9    7.065      51.728
2015    3        5     3  23    7.3110   482.1    7.061      51.782
2015    3        5     3  29    7.3137   482.3    7.057      51.836
2015    3        5     3  34    7.3166   482.5    7.053      51.889
2015    3        5     3  39    7.3193   482.8    7.049      51.941
2015    3        5     3  45    7.3218   483.0    7.044      51.993
2015    3        5     3  50    7.3244   483.2    7.040      52.044
2015    3        5     3  55    7.3270   483.5    7.035      52.095
2015    3        5     4   1    7.3296   483.7    7.031      52.145
2015    3        5     4   6    7.3322   483.9    7.026      52.195
2015    3        5     4  11    7.3348   484.2    7.021      52.245
2015    3        5     4  17    7.3373   484.4    7.016      52.294
2015    3        5     4  22    7.3400   484.6    7.012      52.343
2015    3        5     4  27    7.3424   484.9    7.007      52.392
2015    3        5     4  33    7.3449   485.1    7.002      52.441
2015    3        5     4  38    7.3475   485.3    6.997      52.489
2015    3        5     4  44    7.3498   485.6    6.992      52.538
2015    3        5     4  49    7.3523   485.8    6.987      52.586
2015    3        5     4  54    7.3547   486.0    6.982      52.635
2015    3        5     5   0    7.3572   486.3    6.977      52.684
2015    3        5     5   5    7.3595   486.5    6.972      52.733
2015    3        5     5  10    7.3619   486.8    6.966      52.782
2015    3        5     5  16    7.3642   487.0    6.961      52.832
2015    3        5     5  21    7.3665   487.2    6.956      52.881
2015    3        5     5  26    7.3689   487.5    6.951      52.930
2015    3        5     5  32    7.3712   487.7    6.945      52.979
2015    3        5     5  37    7.3733   488.0    6.940      53.027
2015    3        5     5  43    7.3755   488.2    6.934      53.076
2015    3        5     5  48    7.3777   488.5    6.929      53.124
2015    3        5     5  53    7.3799   488.7    6.923      53.173
2015    3        5     5  59    7.3820   489.0    6.918      53.221
2015    3        5     6   4    7.3841   489.2    6.912      53.268
2015    3        5     6   9    7.3862   489.4    6.906      53.315
2015    3        5     6  15    7.3883   489.7    6.901      53.362
2015    3        5     6  20    7.3903   489.9    6.895      53.409
2015    3        5     6  25    7.3924   490.2    6.889      53.455
2015    3        5     6  31    7.3944   490.4    6.883      53.501
2015    3        5     6  36    7.3965   490.7    6.878      53.547
2015    3        5     6  42    7.3986   490.9    6.872      53.593
2015    3        5     6  47    7.4005   491.2    6.866      53.638
2015    3        5     6  52    7.4027   491.4    6.861      53.684
2015    3        5     6  58    7.4046   491.7    6.855      53.730
2015    3        5     7   3    7.4067   491.9    6.850      53.775
2015    3        5     7   8    7.4086   492.1    6.845      53.821
2015    3        5     7  14    7.4107   492.4    6.839      53.867
2015    3        5     7  19    7.4127   492.6    6.834      53.913
2015    3        5     7  24    7.4147   492.9    6.829      53.960
2015    3        5     7  30    7.4168   493.1    6.824      54.007
2015    3        5     7  35    7.4188   493.4    6.819      54.054
2015    3        5     7  41    7.4209   493.6    6.815      54.102
2015    3        5     7  46    7.4230   493.9    6.810      54.152
2015    3        5     7  51    7.4251   494.1    6.805      54.203
2015    3        5     7  57    7.4269   494.4    6.800      54.254
2015    3        5     8   2    7.4288   494.6    6.796      54.306
2015    3        5     8   7    7.4308   494.9    6.791      54.360
2015    3        5     8  13    7.4327   495.2    6.786      54.414
2015    3        5     8  18    7.4347   495.4    6.781      54.469
2015    3        5     8  23    7.4363   495.7    6.776      54.524
2015    3        5     8  29    7.4381   496.0    6.771      54.580
2015    3        5     8  34    7.4398   496.2    6.766      54.636
2015    3        5     8  40    7.4415   496.5    6.761      54.692
2015    3        5     8  45    7.4431   496.8    6.755      54.749
2015    3        5     8  50    7.4446   497.0    6.750      54.805
2015    3        5     8  56    7.4461   497.3    6.744      54.861
2015    3        5     9   1    7.4476   497.6    6.738      54.917
2015    3        5     9   6    7.4490   497.9    6.732      54.973
2015    3        5     9  12    7.4505   498.1    6.726      55.028
2015    3        5     9  17    7.4516   498.4    6.720      55.082
2015    3        5     9  22    7.4529   498.7    6.714      55.136
2015    3        5     9  28    7.4543   498.9    6.707      55.190
2015    3        5     9  33    7.4553   499.2    6.701      55.243
2015    3        5     9  39    7.4565   499.5    6.694      55.296
2015    3        5     9  44    7.4576   499.8    6.687      55.349
2015    3        5     9  49    7.4589   500.0    6.681      55.401
2015    3        5     9  55    7.4597   500.3    6.674      55.452
2015    3        5    10   0    7.4609   500.6    6.667      55.504
2015    3        5    10   5    7.4617   500.9    6.660      55.554
2015    3        5    10  11    7.4627   501.2    6.653      55.605
2015    3        5    10  16    7.4636   501.4    6.646      55.655
2015    3        5    10  21    7.4645   501.7    6.639      55.705
2015    3        5    10  27    7.4653   502.0    6.632      55.754
2015    3        5    10  32    7.4661   502.3    6.625      55.803
2015    3        5    10  38    7.4669   502.5    6.617      55.852
2015    3        5    10  43    7.4676   502.8    6.610      55.901
2015    3        5    10  48    7.4684   503.1    6.603      55.949
2015    3        5    10  54    7.4691   503.4    6.596      55.997
2015    3        5    10  59    7.4697   503.6    6.588      56.044
2015    3        5    11   4    7.4704   503.9    6.581      56.092
2015    3        5    11  10    7.4710   504.2    6.574      56.139
2015    3        5    11  15    7.4718   504.5    6.566      56.186
2015    3        5    11  20    7.4722   504.8    6.559      56.232
2015    3        5    11  26    7.4727   505.0    6.552      56.279
2015    3        5    11  31    7.4733   505.3    6.545      56.325
2015    3        5    11  37    7.4738   505.6    6.538      56.372
2015    3        5    11  42    7.4744   505.9    6.530      56.418
2015    3        5    11  47    7.4749   506.1    6.523      56.464
2015    3        5    11  53    7.4756   506.4    6.516      56.510
2015    3        5    11  58    7.4761   506.7    6.509      56.557
2015    3        5    12   3    7.4766   506.9    6.502      56.603
2015    3        5    12   9    7.4771   507.2    6.495      56.650
2015    3        5    12  14    7.4773   507.5    6.489      56.698
2015    3        5    12  19    7.4777   507.8    6.482      56.746
2015    3        5    12  25    7.4782   508.1    6.475      56.795
2015    3        5    12  30    7.4787   508.3    6.468      56.844
2015    3        5    12  36    7.4789   508.6    6.461      56.893
2015    3        5    12  41    7.4793   508.9    6.454      56.943
2015    3        5    12  46    7.4796   509.2    6.447      56.993
2015    3        5    12  52    7.4798   509.5    6.440      57.043
2015    3        5    12  57    7.4801   509.7    6.433      57.093
2015    3        5    13   2    7.4805   510.0    6.426      57.144
2015    3        5    13   8    7.4805   510.3    6.419      57.195
2015    3        5    13  13    7.4806   510.6    6.412      57.245
2015    3        5    13  18    7.4807   510.9    6.405      57.295
2015    3        5    13  24    7.4808   511.2    6.397      57.345
2015    3        5    13  29    7.4809   511.4    6.390      57.394
2015    3        5    13  34    7.4809   511.7    6.383      57.443
2015    3        5    13  40    7.4809   512.0    6.375      57.492
2015    3        5    13  45    7.4808   512.3    6.368      57.541
2015    3        5    13  51    7.4808   512.6    6.360      57.589
2015    3        5    13  56    7.4807   512.9    6.353      57.638
2015    3        5    14   1    7.4806   513.1    6.345      57.685
2015    3        5    14   7    7.4804   513.4    6.337      57.733
2015    3        5    14  12    7.4803   513.7    6.330      57.780
2015    3        5    14  17    7.4801   514.0    6.322      57.827
2015    3        5    14  23    7.4798   514.3    6.314      57.874
2015    3        5    14  28    7.4796   514.6    6.307      57.920
2015    3        5    14  33    7.4793   514.8    6.299      57.967
2015    3        5    14  39    7.4790   515.1    6.291      58.013
2015    3        5    14  44    7.4787   515.4    6.283      58.059
2015    3        5    14  50    7.4783   515.7    6.276      58.105
2015    3        5    14  55    7.4782   516.0    6.268      58.151
2015    3        5    15   0    7.4775   516.3    6.260      58.196
2015    3        5    15   6    7.4770   516.6    6.252      58.242
2015    3        5    15  11    7.4765   516.9    6.244      58.287
2015    3        5    15  16    7.4760   517.1    6.237      58.333
2015    3        5    15  22    7.4754   517.4    6.229      58.378
2015    3        5    15  27    7.4748   517.7    6.221      58.423
2015    3        5    15  32    7.4742   518.0    6.213      58.468
2015    3        5    15  38    7.4735   518.3    6.205      58.514
2015    3        5    15  43    7.4728   518.6    6.198      58.559
2015    3        5    15  49    7.4721   518.9    6.190      58.604
2015    3        5    15  54    7.4714   519.2    6.182      58.650
2015    3        5    15  59    7.4706   519.5    6.174      58.695
2015    3        5    16   5    7.4698   519.8    6.166      58.740
2015    3        5    16  10    7.4689   520.0    6.159      58.786
2015    3        5    16  15    7.4680   520.3    6.151      58.831
2015    3        5    16  21    7.4674   520.6    6.143      58.877
2015    3        5    16  26    7.4661   520.9    6.135      58.922
2015    3        5    16  31    7.4651   521.2    6.128      58.968
2015    3        5    16  37    7.4641   521.5    6.120      59.013
2015    3        5    16  42    7.4630   521.8    6.112      59.058
2015    3        5    16  48    7.4619   522.1    6.104      59.103
2015    3        5    16  53    7.4611   522.4    6.097      59.148
2015    3        5    16  58    7.4596   522.7    6.089      59.193
2015    3        5    17   4    7.4585   522.9    6.081      59.237
2015    3        5    17   9    7.4572   523.2    6.073      59.281
2015    3        5    17  14    7.4560   523.5    6.065      59.325
2015    3        5    17  20    7.4547   523.8    6.058      59.369
2015    3        5    17  25    7.4534   524.1    6.050      59.412
2015    3        5    17  30    7.4521   524.4    6.042      59.456
2015    3        5    17  36    7.4508   524.7    6.034      59.498
2015    3        5    17  41    7.4494   525.0    6.026      59.541
2015    3        5    17  47    7.4480   525.2    6.018      59.583
2015    3        5    17  52    7.4466   525.5    6.010      59.625
2015    3        5    17  57    7.4452   525.8    6.003      59.667
2015    3        5    18   3    7.4437   526.1    5.995      59.708
2015    3        5    18   8    7.4423   526.4    5.987      59.749
2015    3        5    18  13    7.4408   526.6    5.979      59.791
2015    3        5    18  19    7.4393   526.9    5.971      59.831
2015    3        5    18  24    7.4379   527.2    5.964      59.872
2015    3        5    18  29    7.4364   527.5    5.956      59.912
2015    3        5    18  35    7.4349   527.7    5.948      59.953
2015    3        5    18  40    7.4334   528.0    5.940      59.993
2015    3        5    18  46    7.4320   528.3    5.933      60.033
2015    3        5    18  51    7.4305   528.5    5.925      60.073
2015    3        5    18  56    7.4290   528.8    5.918      60.114
2015    3        5    19   2    7.4276   529.1    5.911      60.154
2015    3        5    19   7    7.4262   529.4    5.903      60.195
2015    3        5    19  12    7.4247   529.6    5.896      60.236
2015    3        5    19  18    7.4233   529.9    5.889      60.277
2015    3        5    19  23    7.4219   530.2    5.882      60.319
2015    3        5    19  28    7.4208   530.4    5.875      60.360
2015    3        5    19  34    7.4192   530.7    5.868      60.403
2015    3        5    19  39    7.4178   531.0    5.862      60.446
2015    3        5    19  45    7.4165   531.2    5.855      60.490
2015    3        5    19  50    7.4152   531.5    5.849      60.534
2015    3        5    19  55    7.4139   531.8    5.843      60.579
2015    3        5    20   1    7.4126   532.0    5.837      60.625
2015    3        5    20   6    7.4113   532.3    5.831      60.673
2015    3        5    20  11    7.4101   532.6    5.826      60.722
2015    3        5    20  17    7.4088   532.8    5.820      60.772
2015    3        5    20  22    7.4074   533.1    5.814      60.824
2015    3        5    20  27    7.4061   533.4    5.809      60.876
2015    3        5    20  33    7.4047   533.7    5.803      60.929
2015    3        5    20  38    7.4036   534.0    5.798      60.983
2015    3        5    20  44    7.4021   534.3    5.792      61.036
2015    3        5    20  49    7.4004   534.5    5.786      61.089
2015    3        5    20  54    7.3991   534.8    5.781      61.142
2015    3        5    21   0    7.3975   535.1    5.775      61.195
2015    3        5    21   5    7.3958   535.4    5.768      61.247
2015    3        5    21  10    7.3939   535.7    5.762      61.298
2015    3        5    21  16    7.3921   536.0    5.755      61.348
2015    3        5    21  21    7.3903   536.3    5.749      61.396
2015    3        5    21  26    7.3885   536.6    5.742      61.443
2015    3        5    21  32    7.3866   536.8    5.735      61.489
2015    3        5    21  37    7.3847   537.1    5.728      61.534
2015    3        5    21  43    7.3827   537.4    5.720      61.578
2015    3        5    21  48    7.3807   537.7    5.713      61.621
2015    3        5    21  53    7.3787   538.0    5.705      61.663
2015    3        5    21  59    7.3767   538.3    5.698      61.705
2015    3        5    22   4    7.3746   538.5    5.690      61.745
2015    3        5    22   9    7.3726   538.8    5.683      61.785
2015    3        5    22  15    7.3705   539.1    5.675      61.824
2015    3        5    22  20    7.3684   539.4    5.667      61.863
2015    3        5    22  25    7.3662   539.7    5.659      61.901
2015    3        5    22  31    7.3641   539.9    5.652      61.939
2015    3        5    22  36    7.3619   540.2    5.644      61.976
2015    3        5    22  42    7.3598   540.5    5.636      62.013
2015    3        5    22  47    7.3576   540.8    5.628      62.049
2015    3        5    22  52    7.3556   541.0    5.620      62.085
2015    3        5    22  58    7.3532   541.3    5.613      62.121
2015    3        5    23   3    7.3510   541.6    5.605      62.156
2015    3        5    23   8    7.3487   541.9    5.597      62.191
2015    3        5    23  14    7.3465   542.1    5.589      62.226
2015    3        5    23  19    7.3442   542.4    5.581      62.260
2015    3        5    23  24    7.3420   542.7    5.574      62.294
2015    3        5    23  30    7.3397   543.0    5.566      62.328
2015    3        5    23  35    7.3374   543.2    5.558      62.362
2015    3        5    23  41    7.3351   543.5    5.551      62.396
2015    3        5    23  46    7.3328   543.8    5.543      62.429
2015    3        5    23  51    7.3305   544.1    5.536      62.463
2015    3        5    23  57    7.3283   544.3    5.528      62.496
2015    3        6     0   2    7.3259   544.6    5.521      62.529
2015    3        6     0   7    7.3236   544.9    5.513      62.562
2015    3        6     0  13    7.3214   545.1    5.506      62.595
2015    3        6     0  18    7.3189   545.4    5.499      62.628
2015    3        6     0  23    7.3167   545.7    5.492      62.661
2015    3        6     0  29    7.3143   545.9    5.485      62.695
2015    3        6     0  34    7.3121   546.2    5.478      62.728
2015    3        6     0  39    7.3098   546.5    5.471      62.762
2015    3        6     0  45    7.3076   546.7    5.465      62.797
2015    3        6     0  50    7.3052   547.0    5.458      62.833
2015    3        6     0  56    7.3030   547.3    5.452      62.869
2015    3        6     1   1    7.3008   547.5    5.445      62.906
2015    3        6     1   6    7.2985   547.8    5.439      62.944
2015    3        6     1  12    7.2964   548.1    5.433      62.982
2015    3        6     1  17    7.2942   548.3    5.427      63.022
2015    3        6     1  22    7.2920   548.6    5.421      63.062
2015    3        6     1  28    7.2899   548.8    5.416      63.102
2015    3        6     1  33    7.2878   549.1    5.410      63.144
2015    3        6     1  38    7.2857   549.4    5.405      63.187
2015    3        6     1  44    7.2837   549.6    5.399      63.232
2015    3        6     1  49    7.2816   549.9    5.394      63.278
2015    3        6     1  55    7.2796   550.2    5.389      63.325
2015    3        6     2   0    7.2776   550.4    5.384      63.372
2015    3        6     2   5    7.2756   550.7    5.378      63.420
2015    3        6     2  11    7.2736   551.0    5.373      63.468
2015    3        6     2  16    7.2716   551.3    5.368      63.517
2015    3        6     2  21    7.2695   551.5    5.362      63.565
2015    3        6     2  27    7.2675   551.8    5.357      63.613
2015    3        6     2  32    7.2655   552.1    5.352      63.661
2015    3        6     2  37    7.2634   552.4    5.346      63.709
2015    3        6     2  43    7.2613   552.6    5.341      63.757
2015    3        6     2  48    7.2592   552.9    5.335      63.803
2015    3        6     2  54    7.2572   553.2    5.330      63.849
2015    3        6     2  59    7.2551   553.4    5.324      63.894
2015    3        6     3   4    7.2531   553.7    5.319      63.938
2015    3        6     3  10    7.2511   554.0    5.314      63.983
2015    3        6     3  15    7.2490   554.3    5.308      64.028
2015    3        6     3  20    7.2470   554.5    5.303      64.073
2015    3        6     3  26    7.2449   554.8    5.298      64.120
2015    3        6     3  31    7.2428   555.1    5.293      64.166
2015    3        6     3  36    7.2408   555.3    5.288      64.213
2015    3        6     3  42    7.2387   555.6    5.282      64.260
2015    3        6     3  47    7.2366   555.9    5.277      64.307
2015    3        6     3  53    7.2344   556.2    5.272      64.354
2015    3        6     3  58    7.2323   556.5    5.266      64.400
2015    3        6     4   3    7.2301   556.7    5.261      64.446
2015    3        6     4   9    7.2278   557.0    5.255      64.490
2015    3        6     4  14    7.2255   557.3    5.249      64.535
2015    3        6     4  19    7.2232   557.6    5.243      64.578
2015    3        6     4  25    7.2209   557.9    5.237      64.619
2015    3        6     4  30    7.2185   558.2    5.230      64.659
2015    3        6     4  35    7.2160   558.4    5.224      64.697
2015    3        6     4  41    7.2136   558.7    5.217      64.734
2015    3        6     4  46    7.2111   559.0    5.210      64.769
2015    3        6     4  52    7.2086   559.3    5.203      64.804
2015    3        6     4  57    7.2061   559.6    5.196      64.837
2015    3        6     5   2    7.2036   559.8    5.189      64.869
2015    3        6     5   8    7.2010   560.1    5.182      64.900
2015    3        6     5  13    7.1985   560.4    5.175      64.930
2015    3        6     5  18    7.1959   560.7    5.168      64.959
2015    3        6     5  24    7.1933   560.9    5.160      64.987
2015    3        6     5  29    7.1908   561.2    5.153      65.015
2015    3        6     5  34    7.1882   561.5    5.146      65.042
2015    3        6     5  40    7.1856   561.7    5.139      65.068
2015    3        6     5  45    7.1830   562.0    5.131      65.094
2015    3        6     5  51    7.1804   562.3    5.124      65.120
2015    3        6     5  56    7.1778   562.5    5.117      65.144
2015    3        6     6   1    7.1752   562.8    5.110      65.169
2015    3        6     6   7    7.1726   563.1    5.103      65.194
2015    3        6     6  12    7.1700   563.3    5.096      65.218
2015    3        6     6  17    7.1674   563.6    5.089      65.242
2015    3        6     6  23    7.1649   563.8    5.082      65.267
2015    3        6     6  28    7.1623   564.1    5.075      65.292
2015    3        6     6  33    7.1597   564.4    5.068      65.317
2015    3        6     6  39    7.1571   564.6    5.061      65.343
2015    3        6     6  44    7.1546   564.9    5.055      65.370
2015    3        6     6  50    7.1520   565.1    5.048      65.398
2015    3        6     6  55    7.1494   565.4    5.042      65.426
2015    3        6     7   0    7.1469   565.7    5.036      65.455
2015    3        6     7   6    7.1443   565.9    5.030      65.484
2015    3        6     7  11    7.1418   566.2    5.024      65.515
2015    3        6     7  16    7.1393   566.4    5.018      65.546
2015    3        6     7  22    7.1368   566.7    5.012      65.578
2015    3        6     7  27    7.1343   566.9    5.006      65.612
2015    3        6     7  32    7.1319   567.2    5.001      65.647
2015    3        6     7  38    7.1295   567.4    4.996      65.684
2015    3        6     7  43    7.1271   567.7    4.990      65.721
2015    3        6     7  49    7.1248   568.0    4.985      65.761
2015    3        6     7  54    7.1224   568.2    4.980      65.802
2015    3        6     7  59    7.1201   568.5    4.975      65.844
2015    3        6     8   5    7.1178   568.7    4.971      65.887
2015    3        6     8  10    7.1155   569.0    4.966      65.931
2015    3        6     8  15    7.1132   569.3    4.961      65.976
2015    3        6     8  21    7.1109   569.5    4.956      66.021
2015    3        6     8  26    7.1086   569.8    4.952      66.067
2015    3        6     8  31    7.1063   570.1    4.947      66.114
2015    3        6     8  37    7.1040   570.3    4.942      66.160
2015    3        6     8  42    7.1017   570.6    4.938      66.206
2015    3        6     8  48    7.0994   570.9    4.933      66.252
2015    3        6     8  53    7.0971   571.1    4.928      66.300
2015    3        6     8  58    7.0948   571.4    4.924      66.348
2015    3        6     9   4    7.0925   571.7    4.919      66.396
2015    3        6     9   9    7.0902   572.0    4.914      66.444
2015    3        6     9  14    7.0878   572.2    4.910      66.492
2015    3        6     9  20    7.0854   572.5    4.905      66.540
2015    3        6     9  25    7.0830   572.8    4.900      66.587
2015    3        6     9  30    7.0806   573.1    4.895      66.633
2015    3        6     9  36    7.0781   573.3    4.890      66.678
2015    3        6     9  41    7.0756   573.6    4.884      66.723
2015    3        6     9  47    7.0731   573.9    4.879      66.766
2015    3        6     9  52    7.0705   574.2    4.873      66.809
2015    3        6     9  57    7.0678   574.5    4.867      66.849
2015    3        6    10   3    7.0652   574.7    4.861      66.888
2015    3        6    10   8    7.0625   575.0    4.855      66.925
2015    3        6    10  13    7.0598   575.3    4.849      66.960
2015    3        6    10  19    7.0570   575.6    4.843      66.994
2015    3        6    10  24    7.0543   575.8    4.836      67.027
2015    3        6    10  29    7.0515   576.1    4.830      67.058
2015    3        6    10  35    7.0487   576.4    4.823      67.088
2015    3        6    10  40    7.0458   576.6    4.817      67.118
2015    3        6    10  45    7.0430   576.9    4.810      67.146
2015    3        6    10  51    7.0401   577.2    4.804      67.173
2015    3        6    10  56    7.0373   577.4    4.797      67.199
2015    3        6    11   2    7.0344   577.7    4.790      67.225
2015    3        6    11   7    7.0315   578.0    4.784      67.250
2015    3        6    11  12    7.0286   578.2    4.777      67.274
2015    3        6    11  18    7.0257   578.5    4.770      67.297
2015    3        6    11  23    7.0228   578.7    4.764      67.320
2015    3        6    11  28    7.0200   579.0    4.757      67.343
2015    3        6    11  34    7.0171   579.2    4.751      67.365
2015    3        6    11  39    7.0142   579.5    4.744      67.387
2015    3        6    11  44    7.0113   579.7    4.738      67.409
2015    3        6    11  50    7.0085   580.0    4.732      67.431
2015    3        6    11  55    7.0056   580.2    4.725      67.453
2015    3        6    12   1    7.0027   580.5    4.719      67.475
2015    3        6    12   6    6.9999   580.7    4.713      67.498
2015    3        6    12  11    6.9971   581.0    4.707      67.522
2015    3        6    12  17    6.9942   581.2    4.701      67.546
2015    3        6    12  22    6.9914   581.5    4.695      67.571
2015    3        6    12  27    6.9886   581.7    4.689      67.596
2015    3        6    12  33    6.9858   582.0    4.684      67.622
2015    3        6    12  38    6.9829   582.2    4.678      67.648
2015    3        6    12  43    6.9802   582.5    4.673      67.675
2015    3        6    12  49    6.9774   582.7    4.667      67.704
2015    3        6    12  54    6.9746   583.0    4.662      67.733
2015    3        6    13   0    6.9718   583.2    4.656      67.763
2015    3        6    13   5    6.9690   583.5    4.651      67.794
2015    3        6    13  10    6.9662   583.7    4.645      67.825
2015    3        6    13  16    6.9635   584.0    4.640      67.856
2015    3        6    13  21    6.9607   584.2    4.635      67.888
2015    3        6    13  26    6.9580   584.5    4.630      67.919
2015    3        6    13  32    6.9552   584.7    4.624      67.950
2015    3        6    13  37    6.9525   585.0    4.619      67.982
2015    3        6    13  42    6.9497   585.2    4.614      68.014
2015    3        6    13  48    6.9470   585.5    4.609      68.047
2015    3        6    13  53    6.9442   585.7    4.603      68.080
2015    3        6    13  59    6.9414   586.0    4.598      68.112
2015    3        6    14   4    6.9387   586.2    4.593      68.145
2015    3        6    14   9    6.9359   586.4    4.588      68.177
2015    3        6    14  15    6.9332   586.7    4.583      68.210
2015    3        6    14  20    6.9304   586.9    4.577      68.242
2015    3        6    14  25    6.9276   587.2    4.572      68.275
2015    3        6    14  31    6.9249   587.4    4.567      68.308
2015    3        6    14  36    6.9222   587.7    4.562      68.341
2015    3        6    14  41    6.9195   587.9    4.557      68.374
2015    3        6    14  47    6.9168   588.1    4.552      68.409
2015    3        6    14  52    6.9141   588.4    4.547      68.444
2015    3        6    14  58    6.9114   588.6    4.542      68.480
2015    3        6    15   3    6.9087   588.9    4.537      68.515
2015    3        6    15   8    6.9060   589.1    4.532      68.552
2015    3        6    15  14    6.9033   589.4    4.527      68.587
2015    3        6    15  19    6.9006   589.6    4.522      68.623
2015    3        6    15  24    6.8979   589.9    4.517      68.657
2015    3        6    15  30    6.8951   590.1    4.512      68.691
2015    3        6    15  35    6.8924   590.4    4.507      68.725
2015    3        6    15  40    6.8896   590.6    4.501      68.757
2015    3        6    15  46    6.8868   590.9    4.496      68.789
2015    3        6    15  51    6.8839   591.1    4.490      68.819
2015    3        6    15  57    6.8810   591.4    4.485      68.848
2015    3        6    16   2    6.8781   591.6    4.479      68.876
2015    3        6    16   7    6.8752   591.8    4.473      68.902
2015    3        6    16  13    6.8723   592.1    4.468      68.927
2015    3        6    16  18    6.8693   592.3    4.462      68.951
2015    3        6    16  23    6.8663   592.6    4.456      68.974
2015    3        6    16  29    6.8634   592.8    4.450      68.997
2015    3        6    16  34    6.8604   593.1    4.445      69.018
2015    3        6    16  39    6.8574   593.3    4.439      69.039
2015    3        6    16  45    6.8543   593.5    4.433      69.059
2015    3        6    16  50    6.8513   593.8    4.428      69.080
2015    3        6    16  55    6.8483   594.0    4.422      69.099
2015    3        6    17   1    6.8453   594.2    4.417      69.119
2015    3        6    17   6    6.8422   594.5    4.411      69.138
2015    3        6    17  12    6.8392   594.7    4.406      69.158
2015    3        6    17  17    6.8361   594.9    4.400      69.178
2015    3        6    17  22    6.8331   595.1    4.395      69.198
2015    3        6    17  28    6.8301   595.4    4.390      69.219
2015    3        6    17  33    6.8270   595.6    4.385      69.241
2015    3        6    17  38    6.8240   595.8    4.380      69.263
2015    3        6    17  44    6.8209   596.1    4.374      69.285
2015    3        6    17  49    6.8179   596.3    4.369      69.308
2015    3        6    17  54    6.8148   596.5    4.365      69.332
2015    3        6    18   0    6.8118   596.7    4.360      69.357
2015    3        6    18   5    6.8087   597.0    4.355      69.382
2015    3        6    18  11    6.8057   597.2    4.350      69.409
2015    3        6    18  16    6.8026   597.4    4.345      69.436
2015    3        6    18  21    6.7996   597.6    4.340      69.463
2015    3        6    18  27    6.7966   597.8    4.335      69.491
2015    3        6    18  32    6.7935   598.1    4.331      69.518
2015    3        6    18  37    6.7905   598.3    4.326      69.545
2015    3        6    18  43    6.7875   598.5    4.321      69.572
2015    3        6    18  48    6.7845   598.7    4.316      69.599
2015    3        6    18  53    6.7815   598.9    4.312      69.626
2015    3        6    18  59    6.7785   599.1    4.307      69.653
2015    3        6    19   4    6.7755   599.4    4.302      69.679
2015    3        6    19  10    6.7726   599.6    4.298      69.706
2015    3        6    19  15    6.7697   599.8    4.293      69.733
2015    3        6    19  20    6.7667   600.0    4.289      69.760
2015    3        6    19  26    6.7638   600.2    4.284      69.787
2015    3        6    19  31    6.7609   600.4    4.280      69.815
2015    3        6    19  36    6.7580   600.6    4.276      69.843
2015    3        6    19  42    6.7552   600.8    4.271      69.871
2015    3        6    19  47    6.7523   601.0    4.267      69.899
2015    3        6    19  52    6.7495   601.2    4.263      69.928
2015    3        6    19  58    6.7467   601.5    4.258      69.958
2015    3        6    20   3    6.7439   601.7    4.254      69.989
2015    3        6    20   9    6.7410   601.9    4.250      70.020
2015    3        6    20  14    6.7383   602.1    4.246      70.051
2015    3        6    20  19    6.7355   602.3    4.241      70.082
2015    3        6    20  25    6.7327   602.5    4.237      70.113
2015    3        6    20  30    6.7300   602.8    4.232      70.144
2015    3        6    20  35    6.7272   603.0    4.228      70.174
2015    3        6    20  41    6.7244   603.2    4.223      70.203
2015    3        6    20  46    6.7217   603.4    4.219      70.231
2015    3        6    20  51    6.7189   603.6    4.214      70.260
2015    3        6    20  57    6.7161   603.8    4.209      70.287
2015    3        6    21   2    6.7133   604.1    4.204      70.312
2015    3        6    21   8    6.7105   604.3    4.199      70.337
2015    3        6    21  13    6.7077   604.5    4.195      70.360
2015    3        6    21  18    6.7049   604.7    4.190      70.382
2015    3        6    21  24    6.7021   604.9    4.185      70.404
2015    3        6    21  29    6.6992   605.1    4.180      70.424
2015    3        6    21  34    6.6964   605.3    4.175      70.444
2015    3        6    21  40    6.6936   605.5    4.170      70.463
2015    3        6    21  45    6.6907   605.7    4.165      70.481
2015    3        6    21  50    6.6879   606.0    4.160      70.499
2015    3        6    21  56    6.6851   606.2    4.155      70.516
2015    3        6    22   1    6.6822   606.4    4.150      70.532
2015    3        6    22   7    6.6794   606.6    4.145      70.549
2015    3        6    22  12    6.6765   606.8    4.140      70.565
2015    3        6    22  17    6.6736   607.0    4.136      70.581
2015    3        6    22  23    6.6707   607.2    4.131      70.596
2015    3        6    22  28    6.6678   607.4    4.126      70.611
2015    3        6    22  33    6.6648   607.6    4.122      70.626
2015    3        6    22  39    6.6618   607.8    4.117      70.642
2015    3        6    22  44    6.6588   608.0    4.113      70.657
2015    3        6    22  49    6.6557   608.2    4.108      70.673
2015    3        6    22  55    6.6527   608.4    4.104      70.688
2015    3        6    23   0    6.6496   608.6    4.099      70.704
2015    3        6    23   5    6.6465   608.8    4.095      70.720
2015    3        6    23  11    6.6434   609.0    4.090      70.737
2015    3        6    23  16    6.6402   609.2    4.086      70.753
2015    3        6    23  22    6.6371   609.4    4.081      70.769
2015    3        6    23  27    6.6339   609.6    4.077      70.786
2015    3        6    23  32    6.6307   609.8    4.073      70.802
2015    3        6    23  38    6.6276   610.0    4.068      70.820
2015    3        6    23  43    6.6244   610.2    4.064      70.837
2015    3        6    23  48    6.6212   610.4    4.060      70.854
2015    3        6    23  54    6.6180   610.6    4.055      70.872
2015    3        6    23  59    6.6149   610.8    4.051      70.889
2015    3        7     0   4    6.6117   611.0    4.047      70.907
2015    3        7     0  10    6.6085   611.1    4.043      70.925
2015    3        7     0  15    6.6053   611.3    4.039      70.944
2015    3        7     0  21    6.6022   611.5    4.035      70.962
2015    3        7     0  26    6.5991   611.7    4.031      70.982
2015    3        7     0  31    6.5960   611.9    4.027      71.002
2015    3        7     0  37    6.5929   612.0    4.023      71.023
2015    3        7     0  42    6.5898   612.2    4.019      71.044
2015    3        7     0  47    6.5867   612.4    4.015      71.067
2015    3        7     0  53    6.5836   612.6    4.012      71.089
2015    3        7     0  58    6.5805   612.8    4.008      71.113
2015    3        7     1   3    6.5775   612.9    4.004      71.137
2015    3        7     1   9    6.5745   613.1    4.001      71.162
2015    3        7     1  14    6.5715   613.3    3.997      71.188
2015    3        7     1  20    6.5685   613.5    3.993      71.214
2015    3        7     1  25    6.5655   613.6    3.990      71.241
2015    3        7     1  30    6.5626   613.8    3.986      71.269
2015    3        7     1  36    6.5597   614.0    3.983      71.296
2015    3        7     1  41    6.5568   614.2    3.979      71.322
2015    3        7     1  46    6.5538   614.3    3.975      71.348
2015    3        7     1  52    6.5510   614.5    3.971      71.374
2015    3        7     1  57    6.5481   614.7    3.968      71.398
2015    3        7     2   2    6.5452   614.9    3.964      71.422
2015    3        7     2   8    6.5423   615.0    3.960      71.445
2015    3        7     2  13    6.5395   615.2    3.956      71.467
2015    3        7     2  19    6.5366   615.4    3.952      71.487
2015    3        7     2  24    6.5337   615.5    3.948      71.507
2015    3        7     2  29    6.5309   615.7    3.944      71.525
2015    3        7     2  35    6.5281   615.9    3.940      71.542
2015    3        7     2  40    6.5253   616.0    3.936      71.558
2015    3        7     2  45    6.5224   616.2    3.932      71.573
2015    3        7     2  51    6.5197   616.4    3.928      71.587
2015    3        7     2  56    6.5169   616.5    3.924      71.601
2015    3        7     3   1    6.5140   616.7    3.920      71.614
2015    3        7     3   7    6.5113   616.9    3.916      71.626
2015    3        7     3  12    6.5085   617.0    3.912      71.637
2015    3        7     3  18    6.5057   617.2    3.908      71.648
2015    3        7     3  23    6.5029   617.4    3.904      71.658
2015    3        7     3  28    6.5001   617.5    3.900      71.668
2015    3        7     3  34    6.4973   617.7    3.896      71.678
2015    3        7     3  39    6.4945   617.9    3.892      71.687
2015    3        7     3  44    6.4918   618.0    3.888      71.696
2015    3        7     3  50    6.4889   618.2    3.884      71.705
2015    3        7     3  55    6.4861   618.3    3.880      71.714
2015    3        7     4   0    6.4833   618.5    3.876      71.723
2015    3        7     4   6    6.4805   618.7    3.872      71.731
2015    3        7     4  11    6.4776   618.8    3.869      71.740
2015    3        7     4  16    6.4748   619.0    3.865      71.749
2015    3        7     4  22    6.4720   619.1    3.861      71.757
2015    3        7     4  27    6.4691   619.3    3.858      71.766
2015    3        7     4  33    6.4663   619.5    3.854      71.775
2015    3        7     4  38    6.4634   619.6    3.850      71.784
2015    3        7     4  43    6.4605   619.8    3.847      71.793
2015    3        7     4  49    6.4576   619.9    3.844      71.802
2015    3        7     4  54    6.4547   620.1    3.840      71.812
2015    3        7     4  59    6.4518   620.2    3.837      71.823
2015    3        7     5   5    6.4489   620.4    3.834      71.833
2015    3        7     5  10    6.4459   620.5    3.830      71.844
2015    3        7     5  15    6.4429   620.7    3.827      71.856
2015    3        7     5  21    6.4400   620.9    3.824      71.868
2015    3        7     5  26    6.4370   621.0    3.821      71.881
2015    3        7     5  32    6.4340   621.2    3.818      71.894
2015    3        7     5  37    6.4310   621.3    3.815      71.907
2015    3        7     5  42    6.4279   621.5    3.812      71.920
2015    3        7     5  48    6.4249   621.6    3.809      71.935
2015    3        7     5  53    6.4218   621.8    3.806      71.950
2015    3        7     5  58    6.4187   621.9    3.803      71.965
2015    3        7     6   4    6.4156   622.1    3.800      71.981
2015    3        7     6   9    6.4125   622.2    3.796      71.997
2015    3        7     6  14    6.4094   622.4    3.793      72.013
2015    3        7     6  20    6.4063   622.5    3.790      72.029
2015    3        7     6  25    6.4032   622.7    3.787      72.046
2015    3        7     6  31    6.4001   622.8    3.784      72.062
2015    3        7     6  36    6.3970   623.0    3.781      72.079
2015    3        7     6  41    6.3939   623.1    3.778      72.095
2015    3        7     6  47    6.3908   623.2    3.775      72.112
2015    3        7     6  52    6.3877   623.4    3.771      72.127
2015    3        7     6  57    6.3846   623.5    3.768      72.143
2015    3        7     7   3    6.3815   623.7    3.765      72.158
2015    3        7     7   8    6.3784   623.8    3.761      72.172
2015    3        7     7  13    6.3754   623.9    3.758      72.186
2015    3        7     7  19    6.3723   624.1    3.755      72.200
2015    3        7     7  24    6.3693   624.2    3.751      72.213
2015    3        7     7  30    6.3663   624.3    3.748      72.225
2015    3        7     7  35    6.3633   624.5    3.744      72.237
2015    3        7     7  40    6.3603   624.6    3.741      72.248
2015    3        7     7  46    6.3573   624.7    3.737      72.258
2015    3        7     7  51    6.3544   624.8    3.734      72.268
2015    3        7     7  56    6.3514   625.0    3.730      72.277
2015    3        7     8   2    6.3485   625.1    3.727      72.286
2015    3        7     8   7    6.3456   625.2    3.724      72.294
2015    3        7     8  12    6.3427   625.3    3.720      72.301
2015    3        7     8  18    6.3399   625.4    3.717      72.308
2015    3        7     8  23    6.3370   625.6    3.713      72.315
2015    3        7     8  29    6.3342   625.7    3.710      72.320
2015    3        7     8  34    6.3314   625.8    3.706      72.326
2015    3        7     8  39    6.3286   625.9    3.703      72.330
2015    3        7     8  45    6.3258   626.0    3.700      72.334
2015    3        7     8  50    6.3230   626.1    3.696      72.338
2015    3        7     8  55    6.3202   626.3    3.693      72.341
2015    3        7     9   1    6.3175   626.4    3.690      72.344
2015    3        7     9   6    6.3148   626.5    3.687      72.347
2015    3        7     9  11    6.3120   626.6    3.683      72.349
2015    3        7     9  17    6.3093   626.7    3.680      72.350
2015    3        7     9  22    6.3065   626.8    3.677      72.352
2015    3        7     9  28    6.3039   627.0    3.674      72.353
2015    3        7     9  33    6.3012   627.1    3.671      72.354
2015    3        7     9  38    6.2984   627.2    3.668      72.355
2015    3        7     9  44    6.2957   627.3    3.665      72.356
2015    3        7     9  49    6.2930   627.4    3.662      72.356
2015    3        7     9  54    6.2903   627.5    3.659      72.357
2015    3        7    10   0    6.2876   627.6    3.656      72.357
2015    3        7    10   5    6.2848   627.7    3.653      72.358
2015    3        7    10  10    6.2821   627.8    3.651      72.359
2015    3        7    10  16    6.2793   627.9    3.648      72.359
2015    3        7    10  21    6.2766   628.0    3.645      72.360
2015    3        7    10  27    6.2738   628.2    3.642      72.361
2015    3        7    10  32    6.2710   628.3    3.640      72.362
2015    3        7    10  37    6.2683   628.4    3.637      72.364
2015    3        7    10  43    6.2655   628.5    3.635      72.366
2015    3        7    10  48    6.2627   628.6    3.632      72.368
2015    3        7    10  53    6.2599   628.7    3.629      72.371
2015    3        7    10  59    6.2571   628.8    3.627      72.374
2015    3        7    11   4    6.2542   628.9    3.624      72.377
2015    3        7    11   9    6.2514   629.0    3.622      72.380
2015    3        7    11  15    6.2485   629.1    3.620      72.384
2015    3        7    11  20    6.2457   629.2    3.617      72.388
2015    3        7    11  25    6.2428   629.3    3.615      72.392
2015    3        7    11  31    6.2399   629.4    3.612      72.397
2015    3        7    11  36    6.2370   629.5    3.610      72.401
2015    3        7    11  42    6.2341   629.6    3.607      72.406
2015    3        7    11  47    6.2312   629.7    3.605      72.410
2015    3        7    11  52    6.2283   629.8    3.603      72.415
2015    3        7    11  58    6.2253   629.9    3.600      72.420
2015    3        7    12   3    6.2224   630.0    3.598      72.425
2015    3        7    12   8    6.2195   630.1    3.596      72.430
2015    3        7    12  14    6.2165   630.2    3.593      72.436
2015    3        7    12  19    6.2136   630.3    3.591      72.441
2015    3        7    12  24    6.2106   630.4    3.588      72.447
2015    3        7    12  30    6.2077   630.5    3.586      72.452
2015    3        7    12  35    6.2047   630.6    3.584      72.458
2015    3        7    12  41    6.2017   630.7    3.581      72.463
2015    3        7    12  46    6.1987   630.8    3.579      72.468
2015    3        7    12  51    6.1958   630.9    3.576      72.473
2015    3        7    12  57    6.1928   631.0    3.574      72.478
2015    3        7    13   2    6.1899   631.0    3.571      72.482
2015    3        7    13   7    6.1870   631.1    3.568      72.487
2015    3        7    13  13    6.1841   631.2    3.566      72.491
2015    3        7    13  18    6.1811   631.3    3.563      72.495
2015    3        7    13  23    6.1782   631.4    3.561      72.498
2015    3        7    13  29    6.1753   631.5    3.558      72.502
2015    3        7    13  34    6.1724   631.6    3.556      72.505
2015    3        7    13  40    6.1696   631.6    3.553      72.507
2015    3        7    13  45    6.1667   631.7    3.550      72.510
2015    3        7    13  50    6.1639   631.8    3.548      72.511
2015    3        7    13  56    6.1610   631.9    3.545      72.513
2015    3        7    14   1    6.1582   632.0    3.543      72.514
2015    3        7    14   6    6.1553   632.0    3.540      72.515
2015    3        7    14  12    6.1526   632.1    3.538      72.515
2015    3        7    14  17    6.1498   632.2    3.535      72.515
2015    3        7    14  22    6.1470   632.3    3.533      72.515
2015    3        7    14  28    6.1443   632.3    3.530      72.514
2015    3        7    14  33    6.1415   632.4    3.527      72.512
2015    3        7    14  39    6.1387   632.5    3.525      72.511
2015    3        7    14  44    6.1360   632.6    3.522      72.508
2015    3        7    14  49    6.1333   632.6    3.520      72.506
2015    3        7    14  55    6.1305   632.7    3.517      72.502
2015    3        7    15   0    6.1277   632.8    3.515      72.499
2015    3        7    15   5    6.1250   632.9    3.512      72.495
2015    3        7    15  11    6.1223   632.9    3.510      72.490
2015    3        7    15  16    6.1196   633.0    3.507      72.485
2015    3        7    15  21    6.1169   633.1    3.505      72.480
2015    3        7    15  27    6.1142   633.1    3.502      72.474
2015    3        7    15  32    6.1114   633.2    3.500      72.468
2015    3        7    15  38    6.1087   633.3    3.498      72.461
2015    3        7    15  43    6.1060   633.3    3.495      72.454
2015    3        7    15  48    6.1032   633.4    3.493      72.447
2015    3        7    15  54    6.1005   633.5    3.490      72.439
2015    3        7    15  59    6.0978   633.5    3.488      72.431
2015    3        7    16   4    6.0951   633.6    3.485      72.424
2015    3        7    16  10    6.0923   633.6    3.483      72.416
2015    3        7    16  15    6.0896   633.7    3.481      72.408
2015    3        7    16  20    6.0869   633.8    3.478      72.400
2015    3        7    16  26    6.0842   633.8    3.476      72.392
2015    3        7    16  31    6.0814   633.9    3.474      72.384
2015    3        7    16  37    6.0787   633.9    3.471      72.376
2015    3        7    16  42    6.0760   634.0    3.469      72.368
2015    3        7    16  47    6.0733   634.1    3.467      72.361
2015    3        7    16  53    6.0705   634.1    3.465      72.353
2015    3        7    16  58    6.0678   634.2    3.463      72.346
2015    3        7    17   3    6.0651   634.2    3.461      72.340
2015    3        7    17   9    6.0624   634.3    3.458      72.333
2015    3        7    17  14    6.0597   634.3    3.456      72.327
2015    3        7    17  19    6.0569   634.4    3.454      72.321
2015    3        7    17  25    6.0542   634.4    3.452      72.315
2015    3        7    17  30    6.0515   634.5    3.450      72.310
2015    3        7    17  36    6.0488   634.5    3.449      72.305
2015    3        7    17  41    6.0461   634.6    3.447      72.300
2015    3        7    17  46    6.0434   634.6    3.445      72.295
2015    3        7    17  52    6.0407   634.7    3.443      72.291
2015    3        7    17  57    6.0380   634.7    3.441      72.287
2015    3        7    18   2    6.0352   634.8    3.439      72.283
2015    3        7    18   8    6.0325   634.8    3.437      72.279
2015    3        7    18  13    6.0298   634.9    3.436      72.276
2015    3        7    18  18    6.0271   634.9    3.434      72.273
2015    3        7    18  24    6.0243   635.0    3.432      72.269
2015    3        7    18  29    6.0216   635.0    3.430      72.265
2015    3        7    18  35    6.0188   635.1    3.428      72.261
2015    3        7    18  40    6.0161   635.1    3.426      72.257
2015    3        7    18  45    6.0133   635.2    3.425      72.253
2015    3        7    18  51    6.0106   635.2    3.423      72.249
2015    3        7    18  56    6.0078   635.3    3.421      72.244
2015    3        7    19   1    6.0050   635.3    3.419      72.239
2015    3        7    19   7    6.0023   635.3    3.417      72.233
2015    3        7    19  12    5.9995   635.4    3.415      72.228
2015    3        7    19  17    5.9967   635.4    3.413      72.222
2015    3        7    19  23    5.9939   635.5    3.412      72.216
2015    3        7    19  28    5.9912   635.5    3.410      72.209
2015    3        7    19  33    5.9884   635.5    3.408      72.203
2015    3        7    19  39    5.9856   635.6    3.406      72.196
2015    3        7    19  44    5.9828   635.6    3.404      72.189
2015    3        7    19  50    5.9801   635.6    3.402      72.182
2015    3        7    19  55    5.9773   635.7    3.400      72.175
2015    3        7    20   0    5.9745   635.7    3.399      72.169
2015    3        7    20   6    5.9718   635.7    3.397      72.162
2015    3        7    20  11    5.9691   635.8    3.395      72.155
2015    3        7    20  16    5.9663   635.8    3.393      72.149
2015    3        7    20  22    5.9637   635.8    3.392      72.142
2015    3        7    20  27    5.9610   635.8    3.390      72.136
2015    3        7    20  32    5.9583   635.9    3.388      72.131
2015    3        7    20  38    5.9556   635.9    3.387      72.125
2015    3        7    20  43    5.9530   635.9    3.385      72.120
2015    3        7    20  49    5.9503   636.0    3.384      72.116
2015    3        7    20  54    5.9477   636.0    3.382      72.112
2015    3        7    20  59    5.9451   636.0    3.381      72.109
2015    3        7    21   5    5.9425   636.0    3.379      72.106
2015    3        7    21  10    5.9399   636.1    3.378      72.104
2015    3        7    21  15    5.9374   636.1    3.377      72.101
2015    3        7    21  21    5.9348   636.1    3.375      72.099
2015    3        7    21  26    5.9322   636.2    3.374      72.097
2015    3        7    21  31    5.9297   636.2    3.372      72.095
2015    3        7    21  37    5.9271   636.2    3.371      72.094
2015    3        7    21  42    5.9245   636.2    3.370      72.092
2015    3        7    21  48    5.9220   636.3    3.368      72.091
2015    3        7    21  53    5.9195   636.3    3.367      72.088
2015    3        7    21  58    5.9169   636.3    3.366      72.086
2015    3        7    22   4    5.9144   636.4    3.364      72.083
2015    3        7    22   9    5.9118   636.4    3.363      72.080
2015    3        7    22  14    5.9092   636.4    3.361      72.076
2015    3        7    22  20    5.9067   636.4    3.360      72.071
2015    3        7    22  25    5.9041   636.5    3.358      72.066
2015    3        7    22  30    5.9015   636.5    3.356      72.060
2015    3        7    22  36    5.8989   636.5    3.355      72.053
2015    3        7    22  41    5.8963   636.5    3.353      72.045
2015    3        7    22  47    5.8937   636.5    3.351      72.037
2015    3        7    22  52    5.8911   636.6    3.349      72.028
2015    3        7    22  57    5.8886   636.6    3.348      72.019
2015    3        7    23   3    5.8859   636.6    3.346      72.009
2015    3        7    23   8    5.8833   636.6    3.344      71.999
2015    3        7    23  13    5.8807   636.6    3.342      71.988
2015    3        7    23  19    5.8781   636.7    3.340      71.976
2015    3        7    23  24    5.8755   636.7    3.338      71.964
2015    3        7    23  29    5.8728   636.7    3.336      71.952
2015    3        7    23  35    5.8702   636.7    3.334      71.939
2015    3        7    23  40    5.8675   636.7    3.332      71.926
2015    3        7    23  46    5.8649   636.7    3.330      71.912
2015    3        7    23  51    5.8622   636.8    3.328      71.898
2015    3        7    23  56    5.8596   636.8    3.326      71.884
2015    3        8     0   2    5.8569   636.8    3.324      71.869
2015    3        8     0   7    5.8543   636.8    3.322      71.855
2015    3        8     0  12    5.8517   636.8    3.320      71.840
2015    3        8     0  18    5.8491   636.8    3.319      71.825
2015    3        8     0  23    5.8464   636.8    3.317      71.810
2015    3        8     0  28    5.8438   636.8    3.315      71.795
2015    3        8     0  34    5.8412   636.8    3.313      71.781
2015    3        8     0  39    5.8386   636.8    3.311      71.766
2015    3        8     0  45    5.8360   636.8    3.309      71.752
2015    3        8     0  50    5.8334   636.8    3.308      71.738
2015    3        8     0  55    5.8308   636.8    3.306      71.724
2015    3        8     1   1    5.8282   636.8    3.304      71.710
2015    3        8     1   6    5.8256   636.8    3.303      71.697
2015    3        8     1  11    5.8230   636.9    3.301      71.684
2015    3        8     1  17    5.8204   636.9    3.300      71.671
2015    3        8     1  22    5.8178   636.9    3.298      71.658
2015    3        8     1  27    5.8152   636.9    3.297      71.645
2015    3        8     1  33    5.8126   636.9    3.295      71.632
2015    3        8     1  38    5.8100   636.9    3.294      71.620
2015    3        8     1  44    5.8074   636.9    3.293      71.607
2015    3        8     1  49    5.8047   636.9    3.291      71.594
2015    3        8     1  54    5.8021   636.9    3.290      71.582
2015    3        8     2   0    5.7995   636.9    3.289      71.569
2015    3        8     2   5    5.7968   636.9    3.287      71.556
2015    3        8     2  10    5.7941   636.9    3.286      71.544
2015    3        8     2  16    5.7915   636.9    3.285      71.531
2015    3        8     2  21    5.7887   636.9    3.284      71.518
2015    3        8     2  26    5.7861   636.9    3.282      71.505
2015    3        8     2  32    5.7834   636.9    3.281      71.493
2015    3        8     2  37    5.7806   636.8    3.280      71.480
2015    3        8     2  43    5.7779   636.8    3.279      71.467
2015    3        8     2  48    5.7752   636.8    3.278      71.455
2015    3        8     2  53    5.7725   636.8    3.276      71.443
2015    3        8     2  59    5.7698   636.8    3.275      71.431
2015    3        8     3   4    5.7671   636.8    3.274      71.420
2015    3        8     3   9    5.7645   636.8    3.273      71.409
2015    3        8     3  15    5.7618   636.8    3.272      71.398
2015    3        8     3  20    5.7591   636.7    3.271      71.388
2015    3        8     3  25    5.7565   636.7    3.270      71.378
2015    3        8     3  31    5.7539   636.7    3.269      71.369
2015    3        8     3  36    5.7513   636.7    3.268      71.361
2015    3        8     3  42    5.7487   636.7    3.267      71.353
2015    3        8     3  47    5.7461   636.7    3.266      71.346
2015    3        8     3  52    5.7435   636.6    3.265      71.340
2015    3        8     3  58    5.7410   636.6    3.265      71.334
2015    3        8     4   3    5.7385   636.6    3.264      71.329
2015    3        8     4   8    5.7359   636.6    3.263      71.325
2015    3        8     4  14    5.7335   636.6    3.263      71.322
2015    3        8     4  19    5.7310   636.6    3.262      71.319
2015    3        8     4  24    5.7286   636.6    3.261      71.317
2015    3        8     4  30    5.7261   636.5    3.261      71.316
2015    3        8     4  35    5.7237   636.5    3.261      71.316
2015    3        8     4  40    5.7213   636.5    3.260      71.317
2015    3        8     4  46    5.7190   636.5    3.260      71.319
2015    3        8     4  51    5.7166   636.5    3.259      71.321
2015    3        8     4  57    5.7142   636.5    3.259      71.325
2015    3        8     5   2    5.7119   636.4    3.258      71.328
2015    3        8     5   7    5.7095   636.4    3.258      71.331
2015    3        8     5  13    5.7071   636.4    3.257      71.334
2015    3        8     5  18    5.7048   636.4    3.257      71.337
2015    3        8     5  23    5.7024   636.4    3.256      71.339
2015    3        8     5  29    5.7000   636.4    3.255      71.340
2015    3        8     5  34    5.6975   636.4    3.254      71.341
2015    3        8     5  39    5.6951   636.4    3.253      71.340
2015    3        8     5  45    5.6927   636.4    3.252      71.337
2015    3        8     5  50    5.6902   636.4    3.251      71.334
2015    3        8     5  56    5.6877   636.4    3.250      71.329
2015    3        8     6   1    5.6853   636.4    3.249      71.323
2015    3        8     6   6    5.6829   636.4    3.248      71.316
2015    3        8     6  12    5.6803   636.4    3.246      71.308
2015    3        8     6  17    5.6779   636.3    3.245      71.299
2015    3        8     6  22    5.6754   636.3    3.244      71.289
2015    3        8     6  28    5.6729   636.3    3.242      71.278
2015    3        8     6  33    5.6704   636.3    3.241      71.266
2015    3        8     6  38    5.6678   636.3    3.239      71.253
2015    3        8     6  44    5.6653   636.3    3.238      71.240
2015    3        8     6  49    5.6627   636.3    3.236      71.225
2015    3        8     6  55    5.6602   636.3    3.234      71.210
2015    3        8     7   0    5.6576   636.3    3.233      71.194
2015    3        8     7   5    5.6550   636.3    3.231      71.177
2015    3        8     7  11    5.6524   636.2    3.229      71.160
2015    3        8     7  16    5.6498   636.2    3.228      71.142
2015    3        8     7  21    5.6471   636.2    3.226      71.124
2015    3        8     7  27    5.6445   636.2    3.224      71.105
2015    3        8     7  32    5.6418   636.2    3.222      71.085
2015    3        8     7  37    5.6391   636.1    3.221      71.065
2015    3        8     7  43    5.6364   636.1    3.219      71.045
2015    3        8     7  48    5.6337   636.1    3.217      71.024
2015    3        8     7  54    5.6310   636.1    3.216      71.003
2015    3        8     7  59    5.6283   636.1    3.214      70.981
2015    3        8     8   4    5.6255   636.1    3.212      70.960
2015    3        8     8  10    5.6227   636.0    3.210      70.938
2015    3        8     8  15    5.6199   636.0    3.209      70.915
2015    3        8     8  20    5.6171   636.0    3.207      70.893
2015    3        8     8  26    5.6143   636.0    3.205      70.871
2015    3        8     8  31    5.6114   635.9    3.204      70.848
2015    3        8     8  36    5.6085   635.9    3.202      70.826
2015    3        8     8  42    5.6056   635.9    3.200      70.803
2015    3        8     8  47    5.6027   635.9    3.199      70.779
2015    3        8     8  53    5.5998   635.8    3.197      70.756
2015    3        8     8  58    5.5968   635.8    3.195      70.733
2015    3        8     9   3    5.5938   635.8    3.194      70.709
2015    3        8     9   9    5.5908   635.7    3.192      70.685
2015    3        8     9  14    5.5878   635.7    3.190      70.661
2015    3        8     9  19    5.5848   635.7    3.189      70.637
2015    3        8     9  25    5.5818   635.6    3.187      70.612
2015    3        8     9  30    5.5788   635.6    3.186      70.588
2015    3        8     9  35    5.5758   635.6    3.184      70.564
2015    3        8     9  41    5.5727   635.5    3.183      70.539
2015    3        8     9  46    5.5697   635.5    3.181      70.515
2015    3        8     9  52    5.5667   635.4    3.180      70.492
2015    3        8     9  57    5.5637   635.4    3.179      70.469
2015    3        8    10   2    5.5606   635.3    3.177      70.446
2015    3        8    10   8    5.5577   635.3    3.176      70.424
2015    3        8    10  13    5.5547   635.2    3.175      70.403
2015    3        8    10  18    5.5517   635.2    3.174      70.382
2015    3        8    10  24    5.5488   635.1    3.173      70.363
2015    3        8    10  29    5.5459   635.1    3.172      70.344
2015    3        8    10  34    5.5430   635.0    3.171      70.325
2015    3        8    10  40    5.5401   634.9    3.171      70.308
2015    3        8    10  45    5.5372   634.9    3.170      70.291
2015    3        8    10  51    5.5343   634.8    3.169      70.275
2015    3        8    10  56    5.5315   634.8    3.169      70.259
2015    3        8    11   1    5.5287   634.7    3.168      70.245
2015    3        8    11   7    5.5259   634.6    3.168      70.232
2015    3        8    11  12    5.5231   634.6    3.167      70.220
2015    3        8    11  17    5.5203   634.5    3.167      70.209
2015    3        8    11  23    5.5175   634.4    3.167      70.199
2015    3        8    11  28    5.5148   634.4    3.166      70.190
2015    3        8    11  33    5.5121   634.3    3.166      70.182
2015    3        8    11  39    5.5093   634.3    3.166      70.173
2015    3        8    11  44    5.5066   634.2    3.165      70.165
2015    3        8    11  50    5.5040   634.1    3.165      70.158
2015    3        8    11  55    5.5013   634.1    3.165      70.152
2015    3        8    12   0    5.4987   634.0    3.164      70.147
2015    3        8    12   6    5.4961   633.9    3.164      70.142
2015    3        8    12  11    5.4935   633.9    3.164      70.136
2015    3        8    12  16    5.4909   633.8    3.163      70.131
2015    3        8    12  22    5.4883   633.8    3.163      70.126
2015    3        8    12  27    5.4857   633.7    3.162      70.120
2015    3        8    12  32    5.4832   633.6    3.162      70.114
2015    3        8    12  38    5.4806   633.6    3.161      70.108
2015    3        8    12  43    5.4781   633.5    3.160      70.101
2015    3        8    12  49    5.4756   633.5    3.160      70.094
2015    3        8    12  54    5.4730   633.4    3.159      70.086
2015    3        8    12  59    5.4705   633.4    3.158      70.078
2015    3        8    13   5    5.4679   633.3    3.157      70.069
2015    3        8    13  10    5.4654   633.3    3.156      70.058
2015    3        8    13  15    5.4629   633.3    3.155      70.048
2015    3        8    13  21    5.4603   633.2    3.154      70.036
2015    3        8    13  26    5.4578   633.2    3.153      70.024
2015    3        8    13  31    5.4552   633.1    3.152      70.011
2015    3        8    13  37    5.4527   633.1    3.151      69.998
2015    3        8    13  42    5.4501   633.0    3.150      69.983
2015    3        8    13  47    5.4475   633.0    3.149      69.969
2015    3        8    13  53    5.4449   632.9    3.148      69.954
2015    3        8    13  58    5.4422   632.9    3.147      69.938
2015    3        8    14   4    5.4396   632.8    3.145      69.922
2015    3        8    14   9    5.4369   632.8    3.144      69.905
2015    3        8    14  14    5.4342   632.7    3.143      69.888
2015    3        8    14  20    5.4314   632.7    3.141      69.870
2015    3        8    14  25    5.4287   632.6    3.140      69.851
2015    3        8    14  30    5.4259   632.6    3.139      69.832
2015    3        8    14  36    5.4231   632.5    3.137      69.811
2015    3        8    14  41    5.4203   632.5    3.136      69.790
2015    3        8    14  46    5.4175   632.4    3.134      69.768
2015    3        8    14  52    5.4147   632.4    3.132      69.745
2015    3        8    14  57    5.4118   632.3    3.131      69.721
2015    3        8    15   3    5.4089   632.3    3.129      69.695
2015    3        8    15   8    5.4060   632.2    3.127      69.669
2015    3        8    15  13    5.4031   632.2    3.126      69.642
2015    3        8    15  19    5.4002   632.1    3.124      69.614
2015    3        8    15  24    5.3972   632.0    3.122      69.584
2015    3        8    15  29    5.3943   632.0    3.120      69.554
2015    3        8    15  35    5.3914   631.9    3.118      69.523
2015    3        8    15  40    5.3884   631.8    3.116      69.491
2015    3        8    15  45    5.3855   631.8    3.115      69.459
2015    3        8    15  51    5.3825   631.7    3.113      69.426
2015    3        8    15  56    5.3796   631.6    3.111      69.392
2015    3        8    16   2    5.3767   631.5    3.109      69.358
2015    3        8    16   7    5.3737   631.4    3.107      69.324
2015    3        8    16  12    5.3708   631.4    3.106      69.290
2015    3        8    16  18    5.3680   631.3    3.104      69.256
2015    3        8    16  23    5.3651   631.2    3.103      69.222
2015    3        8    16  28    5.3623   631.1    3.101      69.189
2015    3        8    16  34    5.3594   631.0    3.100      69.156
2015    3        8    16  39    5.3567   630.9    3.098      69.124
2015    3        8    16  44    5.3540   630.8    3.097      69.093
2015    3        8    16  50    5.3513   630.7    3.096      69.063
2015    3        8    16  55    5.3487   630.6    3.095      69.034
2015    3        8    17   1    5.3461   630.5    3.094      69.007
2015    3        8    17   6    5.3436   630.4    3.094      68.983
2015    3        8    17  11    5.3411   630.3    3.093      68.960
2015    3        8    17  17    5.3386   630.2    3.093      68.938
2015    3        8    17  22    5.3362   630.1    3.092      68.918
2015    3        8    17  27    5.3338   630.0    3.092      68.900
2015    3        8    17  33    5.3314   630.0    3.092      68.882
2015    3        8    17  38    5.3290   629.9    3.092      68.866
2015    3        8    17  43    5.3267   629.8    3.092      68.850
2015    3        8    17  49    5.3243   629.7    3.092      68.834
2015    3        8    17  54    5.3220   629.6    3.091      68.820
2015    3        8    18   0    5.3197   629.5    3.091      68.807
2015    3        8    18   5    5.3174   629.4    3.091      68.795
2015    3        8    18  10    5.3152   629.3    3.091      68.782
2015    3        8    18  16    5.3129   629.2    3.091      68.770
2015    3        8    18  21    5.3107   629.2    3.091      68.758
2015    3        8    18  26    5.3085   629.1    3.091      68.746
2015    3        8    18  32    5.3063   629.0    3.091      68.733
2015    3        8    18  37    5.3042   628.9    3.091      68.720
2015    3        8    18  42    5.3020   628.8    3.091      68.706
2015    3        8    18  48    5.2999   628.7    3.091      68.692
2015    3        8    18  53    5.2978   628.7    3.090      68.678
2015    3        8    18  59    5.2957   628.6    3.090      68.662
2015    3        8    19   4    5.2936   628.5    3.090      68.645
2015    3        8    19   9    5.2916   628.4    3.089      68.628
2015    3        8    19  15    5.2896   628.3    3.089      68.609
2015    3        8    19  20    5.2875   628.2    3.088      68.590
2015    3        8    19  25    5.2855   628.2    3.088      68.570
2015    3        8    19  31    5.2835   628.1    3.088      68.550
2015    3        8    19  36    5.2816   628.0    3.087      68.530
2015    3        8    19  41    5.2796   627.9    3.087      68.509
2015    3        8    19  47    5.2777   627.8    3.086      68.488
2015    3        8    19  52    5.2758   627.7    3.086      68.467
2015    3        8    19  58    5.2738   627.6    3.086      68.446
2015    3        8    20   3    5.2719   627.6    3.085      68.424
2015    3        8    20   8    5.2700   627.5    3.085      68.402
2015    3        8    20  14    5.2681   627.4    3.084      68.379
2015    3        8    20  19    5.2662   627.3    3.084      68.356
2015    3        8    20  24    5.2643   627.2    3.083      68.332
2015    3        8    20  30    5.2624   627.1    3.083      68.308
2015    3        8    20  35    5.2605   627.1    3.082      68.284
2015    3        8    20  40    5.2586   627.0    3.082      68.258
2015    3        8    20  46    5.2567   626.9    3.081      68.233
2015    3        8    20  51    5.2548   626.8    3.081      68.206
2015    3        8    20  57    5.2528   626.7    3.080      68.179
2015    3        8    21   2    5.2509   626.6    3.080      68.151
2015    3        8    21   7    5.2491   626.5    3.079      68.123
2015    3        8    21  13    5.2472   626.4    3.078      68.094
2015    3        8    21  18    5.2453   626.3    3.078      68.064
2015    3        8    21  23    5.2435   626.2    3.077      68.034
2015    3        8    21  29    5.2416   626.1    3.077      68.004
2015    3        8    21  34    5.2398   626.0    3.076      67.974
2015    3        8    21  39    5.2381   625.9    3.075      67.944
2015    3        8    21  45    5.2364   625.8    3.075      67.913
2015    3        8    21  50    5.2347   625.7    3.075      67.883
2015    3        8    21  56    5.2331   625.6    3.074      67.853
2015    3        8    22   1    5.2315   625.5    3.074      67.824
2015    3        8    22   6    5.2299   625.4    3.074      67.795
2015    3        8    22  12    5.2285   625.3    3.074      67.766
2015    3        8    22  17    5.2270   625.2    3.074      67.740
2015    3        8    22  22    5.2257   625.0    3.074      67.714
2015    3        8    22  28    5.2244   624.9    3.075      67.690
2015    3        8    22  33    5.2231   624.8    3.075      67.666
2015    3        8    22  38    5.2219   624.7    3.075      67.644
2015    3        8    22  44    5.2207   624.6    3.076      67.622
2015    3        8    22  49    5.2196   624.5    3.076      67.601
2015    3        8    22  54    5.2185   624.4    3.077      67.580
2015    3        8    23   0    5.2174   624.3    3.077      67.560
2015    3        8    23   5    5.2164   624.1    3.077      67.540
2015    3        8    23  11    5.2153   624.0    3.078      67.520
2015    3        8    23  16    5.2143   623.9    3.078      67.501
2015    3        8    23  21    5.2132   623.8    3.079      67.483
2015    3        8    23  27    5.2121   623.7    3.079      67.464
2015    3        8    23  32    5.2110   623.6    3.079      67.444
2015    3        8    23  37    5.2099   623.5    3.079      67.425
2015    3        8    23  43    5.2087   623.4    3.080      67.405
2015    3        8    23  48    5.2075   623.2    3.080      67.384
2015    3        8    23  53    5.2063   623.1    3.080      67.362
2015    3        8    23  59    5.2050   623.0    3.080      67.339
2015    3        9     0   4    5.2036   622.9    3.079      67.315
2015    3        9     0  10    5.2023   622.8    3.079      67.290
2015    3        9     0  15    5.2009   622.7    3.079      67.263
2015    3        9     0  20    5.1994   622.6    3.078      67.234
2015    3        9     0  26    5.1979   622.5    3.078      67.204
2015    3        9     0  31    5.1963   622.4    3.077      67.171
2015    3        9     0  36    5.1948   622.3    3.076      67.138
2015    3        9     0  42    5.1931   622.1    3.075      67.103
2015    3        9     0  47    5.1914   622.0    3.075      67.067
2015    3        9     0  52    5.1897   621.9    3.074      67.029
2015    3        9     0  58    5.1879   621.8    3.073      66.991
2015    3        9     1   3    5.1861   621.7    3.072      66.951
2015    3        9     1   9    5.1842   621.5    3.071      66.910
2015    3        9     1  14    5.1823   621.4    3.070      66.868
2015    3        9     1  19    5.1803   621.3    3.068      66.826
2015    3        9     1  25    5.1783   621.1    3.067      66.782
2015    3        9     1  30    5.1762   621.0    3.066      66.737
2015    3        9     1  35    5.1740   620.9    3.065      66.691
2015    3        9     1  41    5.1718   620.7    3.063      66.645
2015    3        9     1  46    5.1696   620.6    3.062      66.597
2015    3        9     1  51    5.1673   620.5    3.061      66.549
2015    3        9     1  57    5.1649   620.3    3.059      66.500
2015    3        9     2   2    5.1625   620.2    3.058      66.450
2015    3        9     2   8    5.1601   620.0    3.056      66.399
2015    3        9     2  13    5.1576   619.9    3.055      66.347
2015    3        9     2  18    5.1551   619.7    3.053      66.295
2015    3        9     2  24    5.1525   619.6    3.052      66.242
2015    3        9     2  29    5.1499   619.4    3.050      66.187
2015    3        9     2  34    5.1473   619.3    3.048      66.132
2015    3        9     2  40    5.1446   619.1    3.047      66.076
2015    3        9     2  45    5.1419   618.9    3.045      66.020
2015    3        9     2  50    5.1391   618.8    3.043      65.962
2015    3        9     2  56    5.1364   618.6    3.041      65.904
2015    3        9     3   1    5.1336   618.4    3.039      65.845
2015    3        9     3   7    5.1307   618.3    3.038      65.785
2015    3        9     3  12    5.1279   618.1    3.036      65.725
2015    3        9     3  17    5.1250   617.9    3.034      65.663
2015    3        9     3  23    5.1221   617.7    3.032      65.601
2015    3        9     3  28    5.1192   617.5    3.030      65.539
2015    3        9     3  33    5.1162   617.3    3.029      65.475
2015    3        9     3  39    5.1132   617.1    3.027      65.412
2015    3        9     3  44    5.1102   617.0    3.025      65.347
2015    3        9     3  49    5.1072   616.8    3.023      65.283
2015    3        9     3  55    5.1042   616.6    3.022      65.219
2015    3        9     4   0    5.1012   616.4    3.020      65.154
2015    3        9     4   6    5.0982   616.2    3.019      65.090
2015    3        9     4  11    5.0952   616.0    3.017      65.026
2015    3        9     4  16    5.0922   615.8    3.016      64.963
2015    3        9     4  22    5.0892   615.5    3.014      64.900
2015    3        9     4  27    5.0862   615.3    3.013      64.838
2015    3        9     4  32    5.0832   615.1    3.012      64.776
2015    3        9     4  38    5.0803   614.9    3.011      64.716
2015    3        9     4  43    5.0774   614.7    3.010      64.657
2015    3        9     4  48    5.0745   614.5    3.010      64.598
2015    3        9     4  54    5.0716   614.3    3.009      64.541
2015    3        9     4  59    5.0688   614.1    3.009      64.485
2015    3        9     5   5    5.0660   613.9    3.008      64.430
2015    3        9     5  10    5.0632   613.7    3.008      64.376
2015    3        9     5  15    5.0604   613.5    3.008      64.324
2015    3        9     5  21    5.0576   613.3    3.008      64.272
2015    3        9     5  26    5.0548   613.1    3.007      64.221
2015    3        9     5  31    5.0521   612.9    3.007      64.171
2015    3        9     5  37    5.0493   612.7    3.007      64.122
2015    3        9     5  42    5.0465   612.5    3.008      64.073
2015    3        9     5  47    5.0438   612.2    3.008      64.024
2015    3        9     5  53    5.0410   612.0    3.008      63.976
2015    3        9     5  58    5.0382   611.8    3.008      63.928
2015    3        9     6   4    5.0355   611.6    3.008      63.881
2015    3        9     6   9    5.0327   611.4    3.008      63.834
2015    3        9     6  14    5.0300   611.2    3.009      63.788
2015    3        9     6  20    5.0272   611.0    3.009      63.743
2015    3        9     6  25    5.0244   610.8    3.009      63.698
2015    3        9     6  30    5.0217   610.6    3.009      63.654
2015    3        9     6  36    5.0189   610.4    3.009      63.610
2015    3        9     6  41    5.0161   610.2    3.010      63.566
2015    3        9     6  46    5.0133   610.0    3.010      63.522
2015    3        9     6  52    5.0106   609.8    3.010      63.478
2015    3        9     6  57    5.0078   609.6    3.010      63.435
2015    3        9     7   3    5.0050   609.4    3.010      63.392
2015    3        9     7   8    5.0022   609.2    3.010      63.348
2015    3        9     7  13    4.9994   609.0    3.010      63.304
2015    3        9     7  19    4.9966   608.8    3.009      63.260
2015    3        9     7  24    4.9938   608.6    3.009      63.216
2015    3        9     7  29    4.9910   608.4    3.009      63.171
2015    3        9     7  35    4.9882   608.2    3.009      63.127
2015    3        9     7  40    4.9854   608.0    3.009      63.082
2015    3        9     7  45    4.9826   607.8    3.008      63.036
2015    3        9     7  51    4.9797   607.6    3.008      62.991
2015    3        9     7  56    4.9768   607.4    3.008      62.945
2015    3        9     8   1    4.9740   607.2    3.007      62.898
2015    3        9     8   7    4.9711   607.1    3.007      62.852
2015    3        9     8  12    4.9683   606.9    3.006      62.805
2015    3        9     8  18    4.9653   606.7    3.006      62.757
2015    3        9     8  23    4.9623   606.5    3.005      62.709
2015    3        9     8  28    4.9595   606.3    3.004      62.661
2015    3        9     8  34    4.9565   606.1    3.004      62.613
2015    3        9     8  39    4.9535   605.9    3.003      62.563
2015    3        9     8  44    4.9506   605.7    3.002      62.514
2015    3        9     8  50    4.9475   605.5    3.002      62.464
2015    3        9     8  55    4.9445   605.3    3.001      62.413
2015    3        9     9   0    4.9415   605.1    3.000      62.362
2015    3        9     9   6    4.9384   604.9    2.999      62.311
2015    3        9     9  11    4.9354   604.7    2.999      62.259
2015    3        9     9  17    4.9323   604.5    2.998      62.206
2015    3        9     9  22    4.9292   604.3    2.997      62.154
2015    3        9     9  27    4.9261   604.1    2.996      62.100
2015    3        9     9  33    4.9230   603.9    2.995      62.047
2015    3        9     9  38    4.9199   603.7    2.994      61.993
2015    3        9     9  43    4.9167   603.5    2.994      61.939
2015    3        9     9  49    4.9136   603.3    2.993      61.885
2015    3        9     9  54    4.9104   603.1    2.992      61.831
2015    3        9     9  59    4.9073   602.9    2.991      61.776
2015    3        9    10   5    4.9041   602.7    2.990      61.721
2015    3        9    10  10    4.9010   602.5    2.990      61.667
2015    3        9    10  16    4.8979   602.2    2.989      61.613
2015    3        9    10  21    4.8947   602.0    2.988      61.559
2015    3        9    10  26    4.8916   601.8    2.988      61.505
2015    3        9    10  32    4.8884   601.6    2.987      61.452
2015    3        9    10  37    4.8853   601.4    2.987      61.400
2015    3        9    10  42    4.8822   601.2    2.986      61.348
2015    3        9    10  48    4.8792   600.9    2.986      61.296
2015    3        9    10  53    4.8761   600.7    2.986      61.246
2015    3        9    10  58    4.8730   600.5    2.986      61.196
2015    3        9    11   4    4.8699   600.3    2.986      61.148
2015    3        9    11   9    4.8669   600.1    2.986      61.101
2015    3        9    11  15    4.8638   599.8    2.986      61.054
2015    3        9    11  20    4.8608   599.6    2.986      61.009
2015    3        9    11  25    4.8577   599.4    2.986      60.964
2015    3        9    11  31    4.8547   599.2    2.986      60.920
2015    3        9    11  36    4.8517   598.9    2.987      60.877
2015    3        9    11  41    4.8487   598.7    2.987      60.835
2015    3        9    11  47    4.8457   598.5    2.988      60.793
2015    3        9    11  52    4.8428   598.3    2.988      60.752
2015    3        9    11  57    4.8399   598.0    2.989      60.712
2015    3        9    12   3    4.8370   597.8    2.990      60.673
2015    3        9    12   8    4.8341   597.6    2.990      60.635
2015    3        9    12  14    4.8312   597.4    2.991      60.597
2015    3        9    12  19    4.8283   597.1    2.992      60.559
2015    3        9    12  24    4.8254   596.9    2.993      60.522
2015    3        9    12  30    4.8225   596.7    2.994      60.485
2015    3        9    12  35    4.8196   596.5    2.995      60.448
2015    3        9    12  40    4.8167   596.2    2.996      60.410
2015    3        9    12  46    4.8137   596.0    2.997      60.373
2015    3        9    12  51    4.8108   595.8    2.997      60.334
2015    3        9    12  56    4.8078   595.6    2.998      60.296
2015    3        9    13   2    4.8048   595.3    2.999      60.257
2015    3        9    13   7    4.8018   595.1    3.000      60.217
2015    3        9    13  13    4.7988   594.9    3.000      60.176
2015    3        9    13  18    4.7957   594.7    3.001      60.135
2015    3        9    13  23    4.7927   594.5    3.001      60.093
2015    3        9    13  29    4.7895   594.2    3.002      60.051
2015    3        9    13  34    4.7865   594.0    3.002      60.008
2015    3        9    13  39    4.7834   593.8    3.002      59.964
2015    3        9    13  45    4.7803   593.6    3.003      59.920
2015    3        9    13  50    4.7772   593.3    3.003      59.876
2015    3        9    13  55    4.7741   593.1    3.003      59.830
2015    3        9    14   1    4.7709   592.9    3.004      59.785
2015    3        9    14   6    4.7678   592.7    3.004      59.739
2015    3        9    14  12    4.7646   592.4    3.004      59.692
2015    3        9    14  17    4.7614   592.2    3.004      59.645
2015    3        9    14  22    4.7582   592.0    3.005      59.598
2015    3        9    14  28    4.7550   591.7    3.005      59.550
2015    3        9    14  33    4.7518   591.5    3.005      59.502
2015    3        9    14  38    4.7486   591.3    3.005      59.453
2015    3        9    14  44    4.7454   591.0    3.006      59.404
2015    3        9    14  49    4.7422   590.8    3.006      59.355
2015    3        9    14  54    4.7389   590.6    3.006      59.306
2015    3        9    15   0    4.7357   590.3    3.006      59.257
2015    3        9    15   5    4.7325   590.1    3.007      59.208
2015    3        9    15  11    4.7293   589.9    3.007      59.159
2015    3        9    15  16    4.7261   589.6    3.007      59.111
2015    3        9    15  21    4.7229   589.4    3.008      59.062
2015    3        9    15  27    4.7198   589.1    3.008      59.014
2015    3        9    15  32    4.7166   588.9    3.009      58.966
2015    3        9    15  37    4.7135   588.6    3.010      58.919
2015    3        9    15  43    4.7104   588.4    3.011      58.872
2015    3        9    15  48    4.7073   588.1    3.012      58.825
2015    3        9    15  53    4.7043   587.9    3.013      58.780
2015    3        9    15  59    4.7012   587.6    3.014      58.736
2015    3        9    16   4    4.6982   587.4    3.015      58.694
2015    3        9    16   9    4.6953   587.1    3.016      58.653
2015    3        9    16  15    4.6923   586.9    3.018      58.612
2015    3        9    16  20    4.6893   586.6    3.019      58.573
2015    3        9    16  26    4.6864   586.4    3.021      58.534
2015    3        9    16  31    4.6834   586.1    3.022      58.496
2015    3        9    16  36    4.6805   585.9    3.024      58.459
2015    3        9    16  42    4.6775   585.7    3.025      58.421
2015    3        9    16  47    4.6746   585.4    3.027      58.385
2015    3        9    16  52    4.6717   585.2    3.029      58.349
2015    3        9    16  58    4.6687   584.9    3.030      58.314
2015    3        9    17   3    4.6658   584.7    3.032      58.279
2015    3        9    17   8    4.6628   584.4    3.034      58.243
2015    3        9    17  14    4.6599   584.2    3.036      58.208
2015    3        9    17  19    4.6570   583.9    3.037      58.173
2015    3        9    17  25    4.6541   583.7    3.039      58.139
2015    3        9    17  30    4.6512   583.5    3.041      58.104
2015    3        9    17  35    4.6483   583.2    3.043      58.070
2015    3        9    17  41    4.6453   583.0    3.045      58.036
2015    3        9    17  46    4.6424   582.7    3.047      58.002
2015    3        9    17  51    4.6395   582.5    3.050      57.969
2015    3        9    17  57    4.6366   582.2    3.052      57.936
2015    3        9    18   2    4.6337   582.0    3.054      57.903
2015    3        9    18   7    4.6308   581.7    3.056      57.870
2015    3        9    18  13    4.6279   581.5    3.058      57.837
2015    3        9    18  18    4.6250   581.2    3.061      57.805
2015    3        9    18  24    4.6221   581.0    3.063      57.773
2015    3        9    18  29    4.6191   580.7    3.065      57.742
2015    3        9    18  34    4.6162   580.5    3.067      57.711
2015    3        9    18  40    4.6133   580.2    3.069      57.680
2015    3        9    18  45    4.6103   580.0    3.071      57.650
2015    3        9    18  50    4.6074   579.7    3.074      57.619
2015    3        9    18  56    4.6044   579.5    3.076      57.588
2015    3        9    19   1    4.6015   579.2    3.078      57.557
2015    3        9    19   6    4.5985   579.0    3.080      57.527
2015    3        9    19  12    4.5956   578.7    3.082      57.496
2015    3        9    19  17    4.5926   578.5    3.084      57.465
2015    3        9    19  23    4.5897   578.2    3.085      57.434
2015    3        9    19  28    4.5867   578.0    3.087      57.402
2015    3        9    19  33    4.5838   577.8    3.089      57.370
2015    3        9    19  39    4.5808   577.5    3.091      57.337
2015    3        9    19  44    4.5778   577.3    3.093      57.304
2015    3        9    19  49    4.5749   577.0    3.094      57.271
2015    3        9    19  55    4.5719   576.8    3.096      57.237
2015    3        9    20   0    4.5690   576.6    3.098      57.203
2015    3        9    20   5    4.5660   576.3    3.100      57.168
2015    3        9    20  11    4.5631   576.1    3.101      57.133
2015    3        9    20  16    4.5601   575.9    3.103      57.098
2015    3        9    20  22    4.5572   575.6    3.105      57.063
2015    3        9    20  27    4.5542   575.4    3.106      57.027
2015    3        9    20  32    4.5513   575.1    3.108      56.992
2015    3        9    20  38    4.5483   574.9    3.109      56.956
2015    3        9    20  43    4.5454   574.7    3.111      56.921
2015    3        9    20  48    4.5424   574.4    3.112      56.885
2015    3        9    20  54    4.5395   574.2    3.114      56.850
2015    3        9    20  59    4.5365   573.9    3.115      56.814
2015    3        9    21   4    4.5336   573.7    3.116      56.779
2015    3        9    21  10    4.5306   573.5    3.118      56.743
2015    3        9    21  15    4.5277   573.2    3.119      56.708
2015    3        9    21  21    4.5248   573.0    3.120      56.672
2015    3        9    21  26    4.5218   572.8    3.122      56.635
2015    3        9    21  31    4.5189   572.5    3.123      56.598
2015    3        9    21  37    4.5160   572.3    3.124      56.561
2015    3        9    21  42    4.5130   572.0    3.125      56.523
2015    3        9    21  47    4.5101   571.8    3.126      56.484
2015    3        9    21  53    4.5071   571.5    3.127      56.444
2015    3        9    21  58    4.5042   571.3    3.128      56.404
2015    3        9    22   3    4.5014   571.0    3.129      56.363
2015    3        9    22   9    4.4985   570.8    3.130      56.321
2015    3        9    22  14    4.4956   570.5    3.131      56.279
2015    3        9    22  20    4.4927   570.3    3.132      56.236
2015    3        9    22  25    4.4898   570.0    3.133      56.192
2015    3        9    22  30    4.4870   569.8    3.133      56.148
2015    3        9    22  36    4.4842   569.5    3.134      56.104
2015    3        9    22  41    4.4813   569.3    3.135      56.060
2015    3        9    22  46    4.4784   569.0    3.136      56.015
2015    3        9    22  52    4.4758   568.8    3.137      55.971
2015    3        9    22  57    4.4730   568.5    3.138      55.926
2015    3        9    23   2    4.4703   568.3    3.139      55.881
2015    3        9    23   8    4.4676   568.0    3.140      55.836
2015    3        9    23  13    4.4649   567.7    3.141      55.792
2015    3        9    23  19    4.4622   567.5    3.142      55.748
2015    3        9    23  24    4.4595   567.2    3.143      55.704
2015    3        9    23  29    4.4569   567.0    3.144      55.660
2015    3        9    23  35    4.4542   566.7    3.145      55.617
2015    3        9    23  40    4.4516   566.4    3.146      55.574
2015    3        9    23  45    4.4491   566.2    3.147      55.531
2015    3        9    23  51    4.4466   565.9    3.149      55.488
2015    3        9    23  56    4.4440   565.7    3.150      55.446
2015    3       10     0   1    4.4415   565.4    3.151      55.404
2015    3       10     0   7    4.4389   565.1    3.152      55.362
2015    3       10     0  12    4.4363   564.9    3.154      55.321
2015    3       10     0  18    4.4339   564.6    3.155      55.280
2015    3       10     0  23    4.4314   564.3    3.156      55.239
2015    3       10     0  28    4.4289   564.1    3.158      55.198
2015    3       10     0  34    4.4265   563.8    3.159      55.157
2015    3       10     0  39    4.4239   563.5    3.161      55.117
2015    3       10     0  44    4.4216   563.3    3.162      55.077
2015    3       10     0  50    4.4191   563.0    3.164      55.037
2015    3       10     0  55    4.4167   562.7    3.165      54.997
2015    3       10     1   0    4.4143   562.5    3.167      54.957
2015    3       10     1   6    4.4119   562.2    3.169      54.917
2015    3       10     1  11    4.4095   561.9    3.170      54.877
2015    3       10     1  17    4.4071   561.7    3.172      54.838
2015    3       10     1  22    4.4048   561.4    3.174      54.798
2015    3       10     1  27    4.4024   561.1    3.176      54.759
2015    3       10     1  33    4.4000   560.8    3.178      54.720
2015    3       10     1  38    4.3978   560.6    3.179      54.681
2015    3       10     1  43    4.3954   560.3    3.181      54.642
2015    3       10     1  49    4.3932   560.0    3.183      54.602
2015    3       10     1  54    4.3910   559.8    3.185      54.564
2015    3       10     1  59    4.3887   559.5    3.187      54.525
2015    3       10     2   5    4.3864   559.2    3.189      54.486
2015    3       10     2  10    4.3843   558.9    3.191      54.448
2015    3       10     2  16    4.3822   558.6    3.194      54.409
2015    3       10     2  21    4.3800   558.4    3.196      54.371
2015    3       10     2  26    4.3778   558.1    3.198      54.333
2015    3       10     2  32    4.3758   557.8    3.200      54.295
2015    3       10     2  37    4.3738   557.5    3.202      54.257
2015    3       10     2  42    4.3717   557.2    3.205      54.219
2015    3       10     2  48    4.3697   557.0    3.207      54.181
2015    3       10     2  53    4.3677   556.7    3.209      54.143
2015    3       10     2  58    4.3658   556.4    3.212      54.105
2015    3       10     3   4    4.3638   556.1    3.214      54.066
2015    3       10     3   9    4.3619   555.8    3.216      54.028
2015    3       10     3  14    4.3600   555.5    3.218      53.990
2015    3       10     3  20    4.3581   555.3    3.221      53.951
2015    3       10     3  25    4.3563   555.0    3.223      53.912
2015    3       10     3  31    4.3544   554.7    3.225      53.873
2015    3       10     3  36    4.3526   554.4    3.228      53.834
2015    3       10     3  41    4.3508   554.1    3.230      53.794
2015    3       10     3  47    4.3490   553.9    3.232      53.754
2015    3       10     3  52    4.3472   553.6    3.235      53.714
2015    3       10     3  57    4.3453   553.3    3.237      53.674
2015    3       10     4   3    4.3435   553.0    3.239      53.633
2015    3       10     4   8    4.3418   552.7    3.241      53.592
2015    3       10     4  13    4.3400   552.4    3.243      53.551
2015    3       10     4  19    4.3383   552.2    3.245      53.509
2015    3       10     4  24    4.3365   551.9    3.248      53.467
2015    3       10     4  30    4.3348   551.6    3.250      53.425
2015    3       10     4  35    4.3331   551.3    3.252      53.383
2015    3       10     4  40    4.3314   551.0    3.254      53.340
2015    3       10     4  46    4.3297   550.7    3.256      53.297
2015    3       10     4  51    4.3279   550.5    3.258      53.255
2015    3       10     4  56    4.3262   550.2    3.260      53.212
2015    3       10     5   2    4.3245   549.9    3.262      53.168
2015    3       10     5   7    4.3228   549.6    3.264      53.125
2015    3       10     5  12    4.3212   549.4    3.265      53.081
2015    3       10     5  18    4.3195   549.1    3.267      53.037
2015    3       10     5  23    4.3178   548.8    3.269      52.993
2015    3       10     5  29    4.3161   548.5    3.271      52.949
2015    3       10     5  34    4.3144   548.2    3.273      52.905
2015    3       10     5  39    4.3128   548.0    3.274      52.860
2015    3       10     5  45    4.3112   547.7    3.276      52.815
2015    3       10     5  50    4.3095   547.4    3.278      52.770
2015    3       10     5  55    4.3079   547.1    3.280      52.725
2015    3       10     6   1    4.3063   546.9    3.281      52.680
2015    3       10     6   6    4.3046   546.6    3.283      52.634
2015    3       10     6  11    4.3030   546.3    3.284      52.589
2015    3       10     6  17    4.3014   546.0    3.286      52.543
2015    3       10     6  22    4.2998   545.8    3.288      52.497
2015    3       10     6  28    4.2982   545.5    3.289      52.452
2015    3       10     6  33    4.2966   545.2    3.291      52.406
2015    3       10     6  38    4.2951   545.0    3.292      52.360
2015    3       10     6  44    4.2935   544.7    3.294      52.315
2015    3       10     6  49    4.2919   544.4    3.295      52.269
2015    3       10     6  54    4.2904   544.2    3.297      52.224
2015    3       10     7   0    4.2889   543.9    3.298      52.178
2015    3       10     7   5    4.2873   543.6    3.300      52.133
2015    3       10     7  10    4.2858   543.4    3.301      52.087
2015    3       10     7  16    4.2843   543.1    3.303      52.041
2015    3       10     7  21    4.2827   542.8    3.304      51.996
2015    3       10     7  27    4.2812   542.6    3.305      51.950
2015    3       10     7  32    4.2797   542.3    3.307      51.904
2015    3       10     7  37    4.2782   542.0    3.308      51.858
2015    3       10     7  43    4.2767   541.8    3.309      51.811
2015    3       10     7  48    4.2752   541.5    3.311      51.764
2015    3       10     7  53    4.2737   541.3    3.312      51.717
2015    3       10     7  59    4.2722   541.0    3.313      51.669
2015    3       10     8   4    4.2707   540.7    3.314      51.621
2015    3       10     8   9    4.2693   540.5    3.316      51.572
2015    3       10     8  15    4.2678   540.2    3.317      51.523
2015    3       10     8  20    4.2663   539.9    3.318      51.474
2015    3       10     8  26    4.2648   539.7    3.319      51.424
2015    3       10     8  31    4.2633   539.4    3.320      51.374
2015    3       10     8  36    4.2619   539.1    3.321      51.323
2015    3       10     8  42    4.2604   538.9    3.322      51.272
2015    3       10     8  47    4.2589   538.6    3.323      51.220
2015    3       10     8  52    4.2575   538.3    3.324      51.168
2015    3       10     8  58    4.2561   538.1    3.325      51.116
2015    3       10     9   3    4.2546   537.8    3.326      51.063
2015    3       10     9   8    4.2531   537.5    3.327      51.009
2015    3       10     9  14    4.2517   537.2    3.327      50.956
2015    3       10     9  19    4.2503   537.0    3.328      50.901
2015    3       10     9  25    4.2489   536.7    3.329      50.847
2015    3       10     9  30    4.2475   536.4    3.330      50.792
2015    3       10     9  35    4.2461   536.1    3.331      50.737
2015    3       10     9  41    4.2447   535.9    3.332      50.681
2015    3       10     9  46    4.2433   535.6    3.332      50.625
2015    3       10     9  51    4.2419   535.3    3.333      50.569
2015    3       10     9  57    4.2405   535.0    3.334      50.513
2015    3       10    10   2    4.2391   534.8    3.335      50.457
2015    3       10    10   7    4.2378   534.5    3.336      50.401
2015    3       10    10  13    4.2364   534.2    3.337      50.345
2015    3       10    10  18    4.2351   533.9    3.338      50.289
2015    3       10    10  24    4.2338   533.6    3.339      50.233
2015    3       10    10  29    4.2325   533.4    3.340      50.177
2015    3       10    10  34    4.2313   533.1    3.341      50.122
2015    3       10    10  40    4.2300   532.8    3.342      50.067
2015    3       10    10  45    4.2288   532.5    3.343      50.013
2015    3       10    10  50    4.2276   532.2    3.344      49.958
2015    3       10    10  56    4.2264   532.0    3.345      49.905
2015    3       10    11   1    4.2252   531.7    3.346      49.852
2015    3       10    11   6    4.2240   531.4    3.348      49.799
2015    3       10    11  12    4.2229   531.1    3.349      49.747
2015    3       10    11  17    4.2218   530.9    3.350      49.695
2015    3       10    11  23    4.2207   530.6    3.352      49.644
2015    3       10    11  28    4.2196   530.3    3.353      49.593
2015    3       10    11  33    4.2186   530.0    3.355      49.543
2015    3       10    11  39    4.2175   529.8    3.356      49.493
2015    3       10    11  44    4.2165   529.5    3.358      49.444
2015    3       10    11  49    4.2154   529.2    3.360      49.394
2015    3       10    11  55    4.2144   529.0    3.361      49.346
2015    3       10    12   0    4.2133   528.7    3.363      49.297
2015    3       10    12   5    4.2123   528.4    3.365      49.249
2015    3       10    12  11    4.2113   528.1    3.366      49.201
2015    3       10    12  16    4.2103   527.9    3.368      49.154
2015    3       10    12  21    4.2093   527.6    3.370      49.106
2015    3       10    12  27    4.2084   527.3    3.372      49.059
2015    3       10    12  32    4.2074   527.0    3.374      49.013
2015    3       10    12  38    4.2064   526.8    3.375      48.966
2015    3       10    12  43    4.2054   526.5    3.377      48.920
2015    3       10    12  48    4.2045   526.2    3.379      48.874
2015    3       10    12  54    4.2036   525.9    3.381      48.829
2015    3       10    12  59    4.2027   525.7    3.383      48.783
2015    3       10    13   4    4.2017   525.4    3.385      48.738
2015    3       10    13  10    4.2008   525.1    3.387      48.694
2015    3       10    13  15    4.1999   524.9    3.389      48.649
2015    3       10    13  20    4.1990   524.6    3.391      48.605
2015    3       10    13  26    4.1982   524.3    3.393      48.561
2015    3       10    13  31    4.1973   524.0    3.395      48.517
2015    3       10    13  37    4.1964   523.8    3.397      48.473
2015    3       10    13  42    4.1955   523.5    3.399      48.429
2015    3       10    13  47    4.1946   523.2    3.401      48.385
2015    3       10    13  53    4.1938   523.0    3.402      48.342
2015    3       10    13  58    4.1929   522.7    3.404      48.298
2015    3       10    14   3    4.1921   522.4    3.406      48.254
2015    3       10    14   9    4.1911   522.1    3.408      48.210
2015    3       10    14  14    4.1903   521.9    3.410      48.166
2015    3       10    14  19    4.1894   521.6    3.412      48.122
2015    3       10    14  25    4.1886   521.3    3.414      48.078
2015    3       10    14  30    4.1877   521.0    3.416      48.034
2015    3       10    14  36    4.1869   520.8    3.418      47.989
2015    3       10    14  41    4.1860   520.5    3.420      47.944
2015    3       10    14  46    4.1852   520.2    3.422      47.900
2015    3       10    14  52    4.1843   520.0    3.424      47.854
2015    3       10    14  57    4.1834   519.7    3.425      47.809
2015    3       10    15   2    4.1826   519.4    3.427      47.763
2015    3       10    15   8    4.1817   519.1    3.429      47.718
2015    3       10    15  13    4.1809   518.9    3.431      47.672
2015    3       10    15  18    4.1801   518.6    3.433      47.626
2015    3       10    15  24    4.1792   518.3    3.435      47.580
2015    3       10    15  29    4.1784   518.0    3.436      47.533
2015    3       10    15  35    4.1776   517.8    3.438      47.487
2015    3       10    15  40    4.1768   517.5    3.440      47.440
2015    3       10    15  45    4.1759   517.2    3.442      47.394
2015    3       10    15  51    4.1752   516.9    3.444      47.347
2015    3       10    15  56    4.1744   516.7    3.446      47.301
2015    3       10    16   1    4.1737   516.4    3.448      47.254
2015    3       10    16   7    4.1728   516.1    3.450      47.208
2015    3       10    16  12    4.1721   515.9    3.451      47.161
2015    3       10    16  17    4.1714   515.6    3.453      47.115
2015    3       10    16  23    4.1707   515.3    3.455      47.069
2015    3       10    16  28    4.1699   515.0    3.457      47.023
2015    3       10    16  34    4.1692   514.8    3.459      46.977
2015    3       10    16  39    4.1686   514.5    3.461      46.931
2015    3       10    16  44    4.1679   514.2    3.463      46.886
2015    3       10    16  50    4.1672   514.0    3.465      46.840
2015    3       10    16  55    4.1665   513.7    3.467      46.795
2015    3       10    17   0    4.1659   513.4    3.469      46.750
2015    3       10    17   6    4.1653   513.1    3.472      46.706
2015    3       10    17  11    4.1646   512.9    3.474      46.661
2015    3       10    17  16    4.1640   512.6    3.476      46.617
2015    3       10    17  22    4.1634   512.3    3.478      46.573
2015    3       10    17  27    4.1628   512.1    3.480      46.529
2015    3       10    17  33    4.1622   511.8    3.482      46.485
2015    3       10    17  38    4.1616   511.5    3.485      46.442
2015    3       10    17  43    4.1611   511.3    3.487      46.399
2015    3       10    17  49    4.1604   511.0    3.489      46.356
2015    3       10    17  54    4.1600   510.7    3.492      46.313
2015    3       10    17  59    4.1594   510.5    3.494      46.270
2015    3       10    18   5    4.1589   510.2    3.496      46.228
2015    3       10    18  10    4.1583   509.9    3.499      46.185
2015    3       10    18  15    4.1578   509.7    3.501      46.143
2015    3       10    18  21    4.1572   509.4    3.503      46.101
2015    3       10    18  26    4.1566   509.1    3.506      46.058
2015    3       10    18  32    4.1561   508.9    3.508      46.016
2015    3       10    18  37    4.1555   508.6    3.511      45.974
2015    3       10    18  42    4.1550   508.3    3.513      45.932
2015    3       10    18  48    4.1544   508.1    3.515      45.890
2015    3       10    18  53    4.1539   507.8    3.518      45.847
2015    3       10    18  58    4.1533   507.5    3.520      45.805
2015    3       10    19   4    4.1527   507.3    3.523      45.763
2015    3       10    19   9    4.1522   507.0    3.525      45.720
2015    3       10    19  14    4.1517   506.7    3.528      45.678
2015    3       10    19  20    4.1511   506.5    3.530      45.635
2015    3       10    19  25    4.1506   506.2    3.532      45.593
2015    3       10    19  31    4.1500   505.9    3.535      45.550
2015    3       10    19  36    4.1494   505.7    3.537      45.507
2015    3       10    19  41    4.1489   505.4    3.540      45.464
2015    3       10    19  47    4.1484   505.1    3.542      45.421
2015    3       10    19  52    4.1479   504.8    3.545      45.379
2015    3       10    19  57    4.1473   504.6    3.547      45.335
2015    3       10    20   3    4.1468   504.3    3.550      45.292
2015    3       10    20   8    4.1463   504.0    3.552      45.249
2015    3       10    20  13    4.1458   503.8    3.555      45.206
2015    3       10    20  19    4.1453   503.5    3.557      45.163
2015    3       10    20  24    4.1448   503.2    3.560      45.120
2015    3       10    20  30    4.1443   502.9    3.562      45.078
2015    3       10    20  35    4.1438   502.7    3.565      45.035
2015    3       10    20  40    4.1434   502.4    3.567      44.992
2015    3       10    20  46    4.1429   502.1    3.570      44.950
2015    3       10    20  51    4.1425   501.9    3.573      44.907
2015    3       10    20  56    4.1421   501.6    3.575      44.865
2015    3       10    21   2    4.1417   501.3    3.578      44.823
2015    3       10    21   7    4.1413   501.1    3.581      44.781
2015    3       10    21  12    4.1410   500.8    3.583      44.740
2015    3       10    21  18    4.1406   500.5    3.586      44.698
2015    3       10    21  23    4.1403   500.2    3.589      44.657
2015    3       10    21  29    4.1400   500.0    3.592      44.616
2015    3       10    21  34    4.1397   499.7    3.594      44.575
2015    3       10    21  39    4.1394   499.4    3.597      44.535
2015    3       10    21  45    4.1392   499.2    3.600      44.495
2015    3       10    21  50    4.1389   498.9    3.603      44.455
2015    3       10    21  55    4.1387   498.6    3.606      44.415
2015    3       10    22   1    4.1384   498.4    3.609      44.375
2015    3       10    22   6    4.1383   498.1    3.612      44.336
2015    3       10    22  11    4.1381   497.8    3.614      44.297
2015    3       10    22  17    4.1380   497.6    3.617      44.257
2015    3       10    22  22    4.1378   497.3    3.620      44.218
2015    3       10    22  27    4.1377   497.0    3.623      44.179
2015    3       10    22  33    4.1376   496.8    3.626      44.141
2015    3       10    22  38    4.1374   496.5    3.629      44.102
2015    3       10    22  44    4.1373   496.2    3.632      44.063
2015    3       10    22  49    4.1372   496.0    3.636      44.024
2015    3       10    22  54    4.1372   495.7    3.639      43.986
2015    3       10    23   0    4.1370   495.5    3.642      43.947
2015    3       10    23   5    4.1370   495.2    3.645      43.908
2015    3       10    23  10    4.1369   494.9    3.648      43.870
2015    3       10    23  16    4.1369   494.7    3.651      43.831
2015    3       10    23  21    4.1368   494.4    3.654      43.792
2015    3       10    23  26    4.1368   494.1    3.657      43.754
2015    3       10    23  32    4.1367   493.9    3.660      43.715
2015    3       10    23  37    4.1367   493.6    3.663      43.676
2015    3       10    23  43    4.1366   493.3    3.666      43.637
2015    3       10    23  48    4.1366   493.1    3.669      43.598
2015    3       10    23  53    4.1366   492.8    3.672      43.559
2015    3       10    23  59    4.1365   492.6    3.675      43.520
2015    3       11     0   4    4.1365   492.3    3.678      43.481
2015    3       11     0   9    4.1365   492.0    3.681      43.443
2015    3       11     0  15    4.1365   491.8    3.684      43.404
2015    3       11     0  20    4.1365   491.5    3.687      43.365
2015    3       11     0  25    4.1365   491.2    3.690      43.326
2015    3       11     0  31    4.1364   491.0    3.694      43.287
2015    3       11     0  36    4.1365   490.7    3.697      43.248
2015    3       11     0  42    4.1365   490.4    3.700      43.209
2015    3       11     0  47    4.1365   490.2    3.703      43.170
2015    3       11     0  52    4.1366   489.9    3.706      43.132
2015    3       11     0  58    4.1366   489.7    3.709      43.093
2015    3       11     1   3    4.1367   489.4    3.712      43.055
2015    3       11     1   8    4.1368   489.1    3.716      43.017
2015    3       11     1  14    4.1368   488.9    3.719      42.979
2015    3       11     1  19    4.1369   488.6    3.722      42.941
2015    3       11     1  24    4.1371   488.3    3.725      42.903
2015    3       11     1  30    4.1371   488.1    3.728      42.865
2015    3       11     1  35    4.1373   487.8    3.732      42.827
2015    3       11     1  41    4.1374   487.6    3.735      42.790
2015    3       11     1  46    4.1376   487.3    3.738      42.752
2015    3       11     1  51    4.1377   487.0    3.742      42.715
2015    3       11     1  57    4.1379   486.8    3.745      42.678
2015    3       11     2   2    4.1380   486.5    3.748      42.641
2015    3       11     2   7    4.1382   486.3    3.752      42.604
2015    3       11     2  13    4.1384   486.0    3.755      42.567
2015    3       11     2  18    4.1386   485.8    3.759      42.531
2015    3       11     2  23    4.1388   485.5    3.762      42.494
2015    3       11     2  29    4.1390   485.2    3.766      42.458
2015    3       11     2  34    4.1392   485.0    3.769      42.422
2015    3       11     2  40    4.1395   484.7    3.773      42.385
2015    3       11     2  45    4.1397   484.5    3.776      42.349
2015    3       11     2  50    4.1399   484.2    3.780      42.313
2015    3       11     2  56    4.1402   483.9    3.783      42.277
2015    3       11     3   1    4.1403   483.7    3.787      42.241
2015    3       11     3   6    4.1406   483.4    3.790      42.205
2015    3       11     3  12    4.1410   483.2    3.794      42.169
2015    3       11     3  17    4.1412   482.9    3.797      42.133
2015    3       11     3  22    4.1415   482.6    3.801      42.097
2015    3       11     3  28    4.1418   482.4    3.804      42.061
2015    3       11     3  33    4.1421   482.1    3.808      42.025
2015    3       11     3  39    4.1424   481.9    3.812      41.989
2015    3       11     3  44    4.1427   481.6    3.815      41.954
2015    3       11     3  49    4.1431   481.4    3.819      41.918
2015    3       11     3  55    4.1434   481.1    3.822      41.882
2015    3       11     4   0    4.1437   480.8    3.826      41.846
2015    3       11     4   5    4.1441   480.6    3.830      41.810
2015    3       11     4  11    4.1444   480.3    3.833      41.775
2015    3       11     4  16    4.1448   480.1    3.837      41.739
2015    3       11     4  21    4.1452   479.8    3.841      41.703
2015    3       11     4  27    4.1456   479.5    3.844      41.668
2015    3       11     4  32    4.1460   479.3    3.848      41.632
2015    3       11     4  38    4.1464   479.0    3.852      41.597
2015    3       11     4  43    4.1468   478.8    3.856      41.561
2015    3       11     4  48    4.1473   478.5    3.859      41.526
2015    3       11     4  54    4.1478   478.2    3.863      41.491
2015    3       11     4  59    4.1482   478.0    3.867      41.456
2015    3       11     5   4    4.1487   477.7    3.871      41.420
2015    3       11     5  10    4.1492   477.5    3.875      41.386
2015    3       11     5  15    4.1497   477.2    3.879      41.351
2015    3       11     5  20    4.1503   476.9    3.882      41.316
2015    3       11     5  26    4.1509   476.7    3.886      41.282
2015    3       11     5  31    4.1514   476.4    3.890      41.248
2015    3       11     5  37    4.1520   476.2    3.894      41.214
2015    3       11     5  42    4.1526   475.9    3.898      41.180
2015    3       11     5  47    4.1532   475.7    3.902      41.146
2015    3       11     5  53    4.1539   475.4    3.906      41.112
2015    3       11     5  58    4.1545   475.2    3.911      41.079
2015    3       11     6   3    4.1552   474.9    3.915      41.046
2015    3       11     6   9    4.1559   474.6    3.919      41.013
2015    3       11     6  14    4.1566   474.4    3.923      40.980
2015    3       11     6  19    4.1573   474.1    3.927      40.947
2015    3       11     6  25    4.1580   473.9    3.932      40.915
2015    3       11     6  30    4.1588   473.6    3.936      40.882
2015    3       11     6  35    4.1595   473.4    3.940      40.850
2015    3       11     6  41    4.1603   473.1    3.944      40.818
2015    3       11     6  46    4.1611   472.9    3.949      40.786
2015    3       11     6  52    4.1619   472.6    3.953      40.754
2015    3       11     6  57    4.1627   472.4    3.958      40.722
2015    3       11     7   2    4.1635   472.1    3.962      40.691
2015    3       11     7   8    4.1643   471.9    3.966      40.659
2015    3       11     7  13    4.1651   471.6    3.971      40.627
2015    3       11     7  18    4.1659   471.4    3.975      40.596
2015    3       11     7  24    4.1668   471.1    3.980      40.565
2015    3       11     7  29    4.1677   470.9    3.984      40.533
2015    3       11     7  34    4.1685   470.6    3.989      40.502
2015    3       11     7  40    4.1694   470.4    3.993      40.471
2015    3       11     7  45    4.1703   470.1    3.998      40.440
2015    3       11     7  51    4.1711   469.9    4.002      40.408
2015    3       11     7  56    4.1721   469.6    4.007      40.377
2015    3       11     8   1    4.1730   469.4    4.012      40.346
2015    3       11     8   7    4.1739   469.1    4.016      40.315
2015    3       11     8  12    4.1748   468.9    4.021      40.284
2015    3       11     8  17    4.1757   468.6    4.025      40.252
2015    3       11     8  23    4.1767   468.4    4.030      40.221
2015    3       11     8  28    4.1776   468.1    4.034      40.190
2015    3       11     8  33    4.1786   467.9    4.039      40.159
2015    3       11     8  39    4.1796   467.6    4.044      40.128
2015    3       11     8  44    4.1805   467.4    4.048      40.096
2015    3       11     8  50    4.1815   467.1    4.053      40.065
2015    3       11     8  55    4.1825   466.9    4.057      40.034
2015    3       11     9   0    4.1835   466.6    4.062      40.003
2015    3       11     9   6    4.1845   466.4    4.067      39.971
2015    3       11     9  11    4.1855   466.1    4.071      39.940
2015    3       11     9  16    4.1867   465.9    4.076      39.909
2015    3       11     9  22    4.1877   465.6    4.081      39.878
2015    3       11     9  27    4.1888   465.4    4.086      39.847
2015    3       11     9  32    4.1899   465.1    4.090      39.816
2015    3       11     9  38    4.1909   464.9    4.095      39.785
2015    3       11     9  43    4.1921   464.6    4.100      39.754
2015    3       11     9  49    4.1933   464.4    4.104      39.723
2015    3       11     9  54    4.1944   464.1    4.109      39.692
2015    3       11     9  59    4.1956   463.9    4.114      39.662
2015    3       11    10   5    4.1968   463.7    4.119      39.631
2015    3       11    10  10    4.1980   463.4    4.124      39.600
2015    3       11    10  15    4.1993   463.2    4.129      39.570
2015    3       11    10  21    4.2005   462.9    4.133      39.540
2015    3       11    10  26    4.2018   462.7    4.138      39.510
2015    3       11    10  31    4.2031   462.4    4.143      39.479
2015    3       11    10  37    4.2044   462.2    4.148      39.449
2015    3       11    10  42    4.2057   461.9    4.153      39.419
2015    3       11    10  48    4.2071   461.7    4.158      39.390
2015    3       11    10  53    4.2084   461.5    4.163      39.360
2015    3       11    10  58    4.2098   461.2    4.168      39.331
2015    3       11    11   4    4.2112   461.0    4.173      39.301
2015    3       11    11   9    4.2126   460.7    4.178      39.272
2015    3       11    11  14    4.2141   460.5    4.184      39.242
2015    3       11    11  20    4.2155   460.3    4.189      39.213
2015    3       11    11  25    4.2170   460.0    4.194      39.184
2015    3       11    11  30    4.2184   459.8    4.199      39.156
2015    3       11    11  36    4.2200   459.5    4.204      39.127
2015    3       11    11  41    4.2215   459.3    4.209      39.098
2015    3       11    11  47    4.2230   459.1    4.215      39.069
2015    3       11    11  52    4.2246   458.8    4.220      39.041
2015    3       11    11  57    4.2262   458.6    4.225      39.012
2015    3       11    12   3    4.2278   458.3    4.230      38.984
2015    3       11    12   8    4.2294   458.1    4.236      38.956
2015    3       11    12  13    4.2310   457.9    4.241      38.927
2015    3       11    12  19    4.2326   457.6    4.246      38.899
2015    3       11    12  24    4.2343   457.4    4.252      38.871
2015    3       11    12  29    4.2359   457.2    4.257      38.843
2015    3       11    12  35    4.2375   456.9    4.262      38.815
2015    3       11    12  40    4.2393   456.7    4.268      38.787
2015    3       11    12  46    4.2409   456.5    4.273      38.759
2015    3       11    12  51    4.2426   456.2    4.279      38.731
2015    3       11    12  56    4.2444   456.0    4.284      38.704
2015    3       11    13   2    4.2461   455.8    4.289      38.676
2015    3       11    13   7    4.2479   455.5    4.295      38.648
2015    3       11    13  12    4.2497   455.3    4.300      38.621
2015    3       11    13  18    4.2514   455.1    4.306      38.593
2015    3       11    13  23    4.2531   454.8    4.311      38.566
2015    3       11    13  28    4.2551   454.6    4.317      38.538
2015    3       11    13  34    4.2568   454.4    4.322      38.511
2015    3       11    13  39    4.2587   454.1    4.328      38.484
2015    3       11    13  45    4.2606   453.9    4.334      38.457
2015    3       11    13  50    4.2625   453.7    4.339      38.429
2015    3       11    13  55    4.2644   453.5    4.345      38.402
2015    3       11    14   1    4.2663   453.2    4.350      38.375
2015    3       11    14   6    4.2682   453.0    4.356      38.349
2015    3       11    14  11    4.2700   452.8    4.362      38.322
2015    3       11    14  17    4.2720   452.5    4.367      38.295
2015    3       11    14  22    4.2740   452.3    4.373      38.268
2015    3       11    14  27    4.2759   452.1    4.379      38.242
2015    3       11    14  33    4.2780   451.9    4.385      38.215
2015    3       11    14  38    4.2800   451.6    4.390      38.189
2015    3       11    14  43    4.2820   451.4    4.396      38.163
2015    3       11    14  49    4.2841   451.2    4.402      38.137
2015    3       11    14  54    4.2862   450.9    4.408      38.111
2015    3       11    15   0    4.2881   450.7    4.414      38.085
2015    3       11    15   5    4.2903   450.5    4.420      38.059
2015    3       11    15  10    4.2924   450.3    4.426      38.034
2015    3       11    15  16    4.2946   450.0    4.432      38.008
2015    3       11    15  21    4.2967   449.8    4.438      37.983
2015    3       11    15  26    4.2989   449.6    4.444      37.958
2015    3       11    15  32    4.3011   449.4    4.450      37.933
2015    3       11    15  37    4.3031   449.2    4.456      37.908
2015    3       11    15  42    4.3055   448.9    4.462      37.883
2015    3       11    15  48    4.3076   448.7    4.468      37.859
2015    3       11    15  53    4.3098   448.5    4.475      37.835
2015    3       11    15  59    4.3121   448.3    4.481      37.811
2015    3       11    16   4    4.3145   448.0    4.487      37.787
2015    3       11    16   9    4.3168   447.8    4.494      37.763
2015    3       11    16  15    4.3191   447.6    4.500      37.740
2015    3       11    16  20    4.3214   447.4    4.507      37.716
2015    3       11    16  25    4.3238   447.2    4.513      37.693
2015    3       11    16  31    4.3261   447.0    4.520      37.670
2015    3       11    16  36    4.3285   446.7    4.526      37.647
2015    3       11    16  41    4.3309   446.5    4.533      37.625
2015    3       11    16  47    4.3333   446.3    4.540      37.602
2015    3       11    16  52    4.3357   446.1    4.546      37.580
2015    3       11    16  58    4.3382   445.9    4.553      37.558
2015    3       11    17   3    4.3407   445.7    4.560      37.537
2015    3       11    17   8    4.3431   445.4    4.567      37.515
2015    3       11    17  14    4.3456   445.2    4.574      37.494
2015    3       11    17  19    4.3481   445.0    4.581      37.472
2015    3       11    17  24    4.3507   444.8    4.588      37.452
2015    3       11    17  30    4.3532   444.6    4.595      37.431
2015    3       11    17  35    4.3558   444.4    4.602      37.410
2015    3       11    17  40    4.3582   444.2    4.609      37.390
2015    3       11    17  46    4.3609   444.0    4.616      37.370
2015    3       11    17  51    4.3636   443.7    4.624      37.349
2015    3       11    17  57    4.3661   443.5    4.631      37.330
2015    3       11    18   2    4.3688   443.3    4.638      37.310
2015    3       11    18   7    4.3714   443.1    4.646      37.290
2015    3       11    18  13    4.3742   442.9    4.653      37.271
2015    3       11    18  18    4.3768   442.7    4.660      37.252
2015    3       11    18  23    4.3796   442.5    4.668      37.233
2015    3       11    18  29    4.3823   442.3    4.675      37.214
2015    3       11    18  34    4.3851   442.1    4.683      37.195
2015    3       11    18  39    4.3879   441.9    4.691      37.177
2015    3       11    18  45    4.3906   441.7    4.698      37.158
2015    3       11    18  50    4.3935   441.5    4.706      37.140
2015    3       11    18  56    4.3963   441.3    4.714      37.122
2015    3       11    19   1    4.3991   441.1    4.721      37.104
2015    3       11    19   6    4.4020   440.9    4.729      37.086
2015    3       11    19  12    4.4049   440.7    4.737      37.068
2015    3       11    19  17    4.4077   440.5    4.745      37.051
2015    3       11    19  22    4.4108   440.3    4.753      37.033
2015    3       11    19  28    4.4137   440.1    4.761      37.016
2015    3       11    19  33    4.4167   439.9    4.769      36.999
2015    3       11    19  38    4.4197   439.7    4.776      36.982
2015    3       11    19  44    4.4227   439.5    4.784      36.965
2015    3       11    19  49    4.4257   439.3    4.793      36.948
2015    3       11    19  55    4.4287   439.1    4.801      36.931
2015    3       11    20   0    4.4319   438.9    4.809      36.915
2015    3       11    20   5    4.4350   438.7    4.817      36.898
2015    3       11    20  11    4.4382   438.5    4.825      36.882
2015    3       11    20  16    4.4413   438.3    4.833      36.866
2015    3       11    20  21    4.4444   438.1    4.842      36.850
2015    3       11    20  27    4.4478   437.9    4.850      36.834
2015    3       11    20  32    4.4510   437.7    4.858      36.818
2015    3       11    20  37    4.4543   437.5    4.866      36.803
2015    3       11    20  43    4.4576   437.4    4.875      36.788
2015    3       11    20  48    4.4609   437.2    4.883      36.773
2015    3       11    20  54    4.4643   437.0    4.892      36.758
2015    3       11    20  59    4.4677   436.8    4.900      36.743
2015    3       11    21   4    4.4711   436.6    4.909      36.728
2015    3       11    21  10    4.4744   436.4    4.917      36.714
2015    3       11    21  15    4.4780   436.2    4.926      36.699
2015    3       11    21  20    4.4815   436.0    4.935      36.685
2015    3       11    21  26    4.4850   435.9    4.943      36.671
2015    3       11    21  31    4.4884   435.7    4.952      36.657
2015    3       11    21  36    4.4921   435.5    4.961      36.644
2015    3       11    21  42    4.4957   435.3    4.969      36.630
2015    3       11    21  47    4.4993   435.1    4.978      36.617
2015    3       11    21  53    4.5027   435.0    4.987      36.604
2015    3       11    21  58    4.5065   434.8    4.996      36.591
2015    3       11    22   3    4.5102   434.6    5.005      36.578
2015    3       11    22   9    4.5137   434.4    5.013      36.565
2015    3       11    22  14    4.5176   434.3    5.022      36.553
2015    3       11    22  19    4.5213   434.1    5.031      36.540
2015    3       11    22  25    4.5250   433.9    5.040      36.528
2015    3       11    22  30    4.5287   433.7    5.049      36.515
2015    3       11    22  35    4.5325   433.6    5.058      36.503
2015    3       11    22  41    4.5362   433.4    5.067      36.491
2015    3       11    22  46    4.5399   433.2    5.076      36.479
2015    3       11    22  52    4.5438   433.1    5.085      36.467
2015    3       11    22  57    4.5476   432.9    5.094      36.455
2015    3       11    23   2    4.5514   432.7    5.103      36.444
2015    3       11    23   8    4.5552   432.6    5.111      36.432
2015    3       11    23  13    4.5591   432.4    5.120      36.420
2015    3       11    23  18    4.5629   432.3    5.129      36.409
2015    3       11    23  24    4.5668   432.1    5.138      36.398
2015    3       11    23  29    4.5706   431.9    5.147      36.386
2015    3       11    23  34    4.5745   431.8    5.157      36.375
2015    3       11    23  40    4.5784   431.6    5.166      36.364
2015    3       11    23  45    4.5823   431.5    5.175      36.353
2015    3       11    23  51    4.5862   431.3    5.184      36.342
2015    3       11    23  56    4.5901   431.1    5.193      36.331
2015    3       12     0   1    4.5939   431.0    5.202      36.321
2015    3       12     0   7    4.5980   430.8    5.211      36.310
2015    3       12     0  12    4.6018   430.7    5.220      36.300
2015    3       12     0  17    4.6058   430.5    5.230      36.290
2015    3       12     0  23    4.6097   430.4    5.239      36.280
2015    3       12     0  28    4.6139   430.2    5.248      36.270
2015    3       12     0  33    4.6177   430.1    5.258      36.260
2015    3       12     0  39    4.6219   429.9    5.267      36.250
2015    3       12     0  44    4.6259   429.8    5.277      36.241
2015    3       12     0  49    4.6298   429.6    5.286      36.232
2015    3       12     0  55    4.6339   429.5    5.296      36.223
2015    3       12     1   0    4.6381   429.3    5.305      36.214
2015    3       12     1   6    4.6422   429.2    5.315      36.206
2015    3       12     1  11    4.6461   429.0    5.325      36.197
2015    3       12     1  16    4.6504   428.9    5.334      36.189
2015    3       12     1  22    4.6545   428.7    5.344      36.181
2015    3       12     1  27    4.6586   428.6    5.354      36.173
2015    3       12     1  32    4.6627   428.5    5.364      36.166
2015    3       12     1  38    4.6669   428.3    5.374      36.158
2015    3       12     1  43    4.6711   428.2    5.384      36.151
2015    3       12     1  48    4.6752   428.0    5.394      36.145
2015    3       12     1  54    4.6793   427.9    5.404      36.138
2015    3       12     1  59    4.6835   427.8    5.414      36.132
2015    3       12     2   5    4.6879   427.6    5.424      36.126
2015    3       12     2  10    4.6921   427.5    5.434      36.120
2015    3       12     2  15    4.6963   427.4    5.445      36.114
2015    3       12     2  21    4.7006   427.2    5.455      36.109
2015    3       12     2  26    4.7049   427.1    5.465      36.104
2015    3       12     2  31    4.7092   426.9    5.475      36.099
2015    3       12     2  37    4.7134   426.8    5.486      36.094
2015    3       12     2  42    4.7178   426.7    5.496      36.090
2015    3       12     2  47    4.7221   426.6    5.507      36.085
2015    3       12     2  53    4.7264   426.4    5.517      36.081
2015    3       12     2  58    4.7308   426.3    5.527      36.078
2015    3       12     3   4    4.7352   426.2    5.538      36.074
2015    3       12     3   9    4.7396   426.0    5.548      36.071
2015    3       12     3  14    4.7440   425.9    5.559      36.068
2015    3       12     3  20    4.7485   425.8    5.569      36.065
2015    3       12     3  25    4.7529   425.7    5.580      36.062
2015    3       12     3  30    4.7574   425.5    5.590      36.059
2015    3       12     3  36    4.7619   425.4    5.601      36.056
2015    3       12     3  41    4.7664   425.3    5.612      36.054
2015    3       12     3  46    4.7709   425.2    5.622      36.052
2015    3       12     3  52    4.7754   425.1    5.633      36.050
2015    3       12     3  57    4.7801   424.9    5.644      36.048
2015    3       12     4   3    4.7847   424.8    5.654      36.046
2015    3       12     4   8    4.7893   424.7    5.665      36.045
2015    3       12     4  13    4.7939   424.6    5.676      36.043
2015    3       12     4  19    4.7986   424.5    5.686      36.042
2015    3       12     4  24    4.8033   424.3    5.697      36.041
2015    3       12     4  29    4.8080   424.2    5.708      36.040
2015    3       12     4  35    4.8128   424.1    5.719      36.039
2015    3       12     4  40    4.8175   424.0    5.729      36.039
2015    3       12     4  45    4.8222   423.9    5.740      36.038
2015    3       12     4  51    4.8270   423.8    5.751      36.038
2015    3       12     4  56    4.8320   423.7    5.762      36.038
2015    3       12     5   2    4.8369   423.6    5.773      36.038
2015    3       12     5   7    4.8417   423.5    5.784      36.038
2015    3       12     5  12    4.8466   423.4    5.794      36.038
2015    3       12     5  18    4.8516   423.2    5.805      36.038
2015    3       12     5  23    4.8565   423.1    5.816      36.038
2015    3       12     5  28    4.8615   423.0    5.827      36.039
2015    3       12     5  34    4.8663   422.9    5.838      36.039
2015    3       12     5  39    4.8715   422.8    5.849      36.040
2015    3       12     5  44    4.8765   422.7    5.860      36.041
2015    3       12     5  50    4.8815   422.6    5.871      36.042
2015    3       12     5  55    4.8865   422.5    5.881      36.043
2015    3       12     6   1    4.8915   422.4    5.892      36.044
2015    3       12     6   6    4.8967   422.3    5.903      36.045
2015    3       12     6  11    4.9018   422.2    5.914      36.046
2015    3       12     6  17    4.9069   422.1    5.925      36.047
2015    3       12     6  22    4.9120   422.1    5.936      36.048
2015    3       12     6  27    4.9171   422.0    5.947      36.050
2015    3       12     6  33    4.9222   421.9    5.957      36.051
2015    3       12     6  38    4.9274   421.8    5.968      36.052
2015    3       12     6  43    4.9325   421.7    5.979      36.053
2015    3       12     6  49    4.9377   421.6    5.990      36.055
2015    3       12     6  54    4.9428   421.5    6.001      36.056
2015    3       12     7   0    4.9480   421.4    6.012      36.057
2015    3       12     7   5    4.9532   421.3    6.022      36.059
2015    3       12     7  10    4.9584   421.2    6.033      36.060
2015    3       12     7  16    4.9636   421.2    6.044      36.062
2015    3       12     7  21    4.9688   421.1    6.055      36.063
2015    3       12     7  26    4.9740   421.0    6.066      36.065
2015    3       12     7  32    4.9792   420.9    6.077      36.066
2015    3       12     7  37    4.9844   420.8    6.087      36.068
2015    3       12     7  42    4.9897   420.7    6.098      36.070
2015    3       12     7  48    4.9949   420.7    6.109      36.072
2015    3       12     7  53    5.0001   420.6    6.120      36.073
2015    3       12     7  59    5.0053   420.5    6.131      36.075
2015    3       12     8   4    5.0107   420.4    6.142      36.077
2015    3       12     8   9    5.0159   420.3    6.152      36.079
2015    3       12     8  15    5.0212   420.3    6.163      36.081
2015    3       12     8  20    5.0264   420.2    6.174      36.084
2015    3       12     8  25    5.0317   420.1    6.185      36.086
2015    3       12     8  31    5.0369   420.0    6.196      36.088
2015    3       12     8  36    5.0423   420.0    6.207      36.090
2015    3       12     8  41    5.0476   419.9    6.218      36.093
2015    3       12     8  47    5.0529   419.8    6.229      36.096
2015    3       12     8  52    5.0582   419.7    6.240      36.098
2015    3       12     8  57    5.0635   419.7    6.251      36.101
2015    3       12     9   3    5.0687   419.6    6.262      36.104
2015    3       12     9   8    5.0742   419.5    6.273      36.107
2015    3       12     9  14    5.0795   419.5    6.284      36.110
2015    3       12     9  19    5.0849   419.4    6.295      36.114
2015    3       12     9  24    5.0903   419.3    6.306      36.117
2015    3       12     9  30    5.0956   419.3    6.317      36.121
2015    3       12     9  35    5.1009   419.2    6.328      36.125
2015    3       12     9  40    5.1064   419.1    6.338      36.130
2015    3       12     9  46    5.1118   419.1    6.349      36.135
2015    3       12     9  51    5.1172   419.0    6.360      36.140
2015    3       12     9  56    5.1226   418.9    6.371      36.146
2015    3       12    10   2    5.1279   418.9    6.382      36.151
2015    3       12    10   7    5.1333   418.8    6.393      36.157
2015    3       12    10  13    5.1387   418.7    6.404      36.164
2015    3       12    10  18    5.1442   418.7    6.414      36.170
2015    3       12    10  23    5.1497   418.6    6.425      36.177
2015    3       12    10  29    5.1551   418.6    6.436      36.184
2015    3       12    10  34    5.1604   418.5    6.446      36.191
2015    3       12    10  39    5.1659   418.5    6.457      36.198
2015    3       12    10  45    5.1714   418.4    6.467      36.205
2015    3       12    10  50    5.1768   418.3    6.477      36.212
2015    3       12    10  55    5.1822   418.3    6.488      36.219
2015    3       12    11   1    5.1876   418.2    6.498      36.226
2015    3       12    11   6    5.1931   418.2    6.508      36.233
2015    3       12    11  12    5.1986   418.1    6.518      36.241
2015    3       12    11  17    5.2040   418.1    6.529      36.248
2015    3       12    11  22    5.2094   418.0    6.539      36.255
2015    3       12    11  28    5.2150   418.0    6.549      36.262
2015    3       12    11  33    5.2204   417.9    6.559      36.269
2015    3       12    11  38    5.2259   417.9    6.569      36.276
2015    3       12    11  44    5.2314   417.8    6.579      36.283
2015    3       12    11  49    5.2368   417.8    6.588      36.290
2015    3       12    11  54    5.2423   417.7    6.598      36.297
2015    3       12    12   0    5.2477   417.7    6.608      36.304
2015    3       12    12   5    5.2532   417.6    6.618      36.311
2015    3       12    12  11    5.2588   417.6    6.627      36.318
2015    3       12    12  16    5.2643   417.5    6.637      36.325
2015    3       12    12  21    5.2698   417.5    6.646      36.332
2015    3       12    12  27    5.2753   417.4    6.656      36.339
2015    3       12    12  32    5.2808   417.4    6.665      36.345
2015    3       12    12  37    5.2863   417.4    6.675      36.352
2015    3       12    12  43    5.2918   417.3    6.684      36.359
2015    3       12    12  48    5.2973   417.3    6.693      36.365
2015    3       12    12  53    5.3028   417.2    6.703      36.372
2015    3       12    12  59    5.3083   417.2    6.712      36.379
2015    3       12    13   4    5.3139   417.1    6.721      36.385
2015    3       12    13  10    5.3194   417.1    6.730      36.392
2015    3       12    13  15    5.3250   417.1    6.739      36.399
2015    3       12    13  20    5.3305   417.0    6.748      36.405
2015    3       12    13  26    5.3361   417.0    6.757      36.412
2015    3       12    13  31    5.3417   416.9    6.766      36.418
2015    3       12    13  36    5.3472   416.9    6.775      36.425
2015    3       12    13  42    5.3528   416.8    6.784      36.431
2015    3       12    13  47    5.3585   416.8    6.793      36.438
2015    3       12    13  52    5.3640   416.8    6.802      36.445
2015    3       12    13  58    5.3697   416.7    6.811      36.452
2015    3       12    14   3    5.3753   416.7    6.820      36.458
2015    3       12    14   9    5.3810   416.7    6.829      36.465
2015    3       12    14  14    5.3867   416.6    6.838      36.472
2015    3       12    14  19    5.3924   416.6    6.847      36.479
2015    3       12    14  25    5.3981   416.5    6.856      36.486
2015    3       12    14  30    5.4038   416.5    6.865      36.493
2015    3       12    14  35    5.4096   416.5    6.874      36.501
2015    3       12    14  41    5.4154   416.4    6.883      36.508
2015    3       12    14  46    5.4211   416.4    6.892      36.516
2015    3       12    14  51    5.4269   416.4    6.901      36.524
2015    3       12    14  57    5.4328   416.3    6.910      36.532
2015    3       12    15   2    5.4386   416.3    6.919      36.540
2015    3       12    15   8    5.4444   416.3    6.928      36.548
2015    3       12    15  13    5.4503   416.2    6.937      36.556
2015    3       12    15  18    5.4562   416.2    6.947      36.565
2015    3       12    15  24    5.4621   416.2    6.956      36.574
2015    3       12    15  29    5.4680   416.2    6.965      36.583
2015    3       12    15  34    5.4740   416.1    6.975      36.592
2015    3       12    15  40    5.4800   416.1    6.984      36.602
2015    3       12    15  45    5.4860   416.1    6.994      36.611
2015    3       12    15  50    5.4920   416.0    7.003      36.621
2015    3       12    15  56    5.4980   416.0    7.013      36.632
2015    3       12    16   1    5.5041   416.0    7.023      36.642
2015    3       12    16   7    5.5101   416.0    7.033      36.652
2015    3       12    16  12    5.5162   415.9    7.043      36.663
2015    3       12    16  17    5.5224   415.9    7.053      36.674
2015    3       12    16  23    5.5285   415.9    7.063      36.685
2015    3       12    16  28    5.5346   415.9    7.073      36.696
2015    3       12    16  33    5.5408   415.8    7.083      36.708
2015    3       12    16  39    5.5471   415.8    7.094      36.720
2015    3       12    16  44    5.5534   415.8    7.104      36.733
2015    3       12    16  49    5.5596   415.8    7.115      36.745
2015    3       12    16  55    5.5659   415.8    7.126      36.758
2015    3       12    17   0    5.5722   415.8    7.137      36.772
2015    3       12    17   5    5.5784   415.7    7.148      36.786
2015    3       12    17  11    5.5847   415.7    7.158      36.802
2015    3       12    17  16    5.5910   415.7    7.169      36.818
2015    3       12    17  22    5.5972   415.7    7.180      36.835
2015    3       12    17  27    5.6035   415.7    7.191      36.852
2015    3       12    17  32    5.6097   415.7    7.202      36.870
2015    3       12    17  38    5.6160   415.7    7.212      36.889
2015    3       12    17  43    5.6222   415.7    7.223      36.908
2015    3       12    17  48    5.6283   415.7    7.233      36.928
2015    3       12    17  54    5.6345   415.7    7.243      36.948
2015    3       12    17  59    5.6406   415.7    7.253      36.969
2015    3       12    18   4    5.6468   415.6    7.263      36.989
2015    3       12    18  10    5.6529   415.6    7.273      37.010
2015    3       12    18  15    5.6589   415.6    7.282      37.031
2015    3       12    18  21    5.6650   415.6    7.292      37.052
2015    3       12    18  26    5.6711   415.6    7.301      37.072
2015    3       12    18  31    5.6771   415.6    7.310      37.093
2015    3       12    18  37    5.6831   415.6    7.319      37.113
2015    3       12    18  42    5.6891   415.6    7.327      37.133
2015    3       12    18  47    5.6951   415.6    7.336      37.153
2015    3       12    18  53    5.7011   415.6    7.344      37.172
2015    3       12    18  58    5.7071   415.6    7.353      37.191
2015    3       12    19   3    5.7130   415.6    7.361      37.210
2015    3       12    19   9    5.7190   415.6    7.369      37.229
2015    3       12    19  14    5.7249   415.6    7.377      37.247
2015    3       12    19  20    5.7309   415.6    7.385      37.265
2015    3       12    19  25    5.7368   415.6    7.392      37.282
2015    3       12    19  30    5.7427   415.6    7.400      37.299
2015    3       12    19  36    5.7487   415.6    7.407      37.316
2015    3       12    19  41    5.7546   415.6    7.415      37.333
2015    3       12    19  46    5.7605   415.6    7.422      37.350
2015    3       12    19  52    5.7665   415.6    7.429      37.366
2015    3       12    19  57    5.7724   415.6    7.437      37.382
2015    3       12    20   2    5.7783   415.6    7.444      37.398
2015    3       12    20   8    5.7843   415.6    7.451      37.414
2015    3       12    20  13    5.7902   415.7    7.458      37.429
2015    3       12    20  19    5.7962   415.7    7.465      37.445
2015    3       12    20  24    5.8021   415.7    7.472      37.460
2015    3       12    20  29    5.8081   415.7    7.479      37.475
2015    3       12    20  35    5.8141   415.7    7.486      37.490
2015    3       12    20  40    5.8201   415.7    7.493      37.505
2015    3       12    20  45    5.8261   415.7    7.499      37.520
2015    3       12    20  51    5.8321   415.7    7.506      37.535
2015    3       12    20  56    5.8382   415.7    7.513      37.549
2015    3       12    21   1    5.8442   415.7    7.520      37.564
2015    3       12    21   7    5.8503   415.7    7.526      37.579
2015    3       12    21  12    5.8564   415.7    7.533      37.593
2015    3       12    21  18    5.8625   415.7    7.540      37.608
2015    3       12    21  23    5.8686   415.7    7.547      37.623
2015    3       12    21  28    5.8748   415.7    7.553      37.638
2015    3       12    21  34    5.8810   415.7    7.560      37.653
2015    3       12    21  39    5.8872   415.7    7.567      37.668
2015    3       12    21  44    5.8934   415.7    7.574      37.683
2015    3       12    21  50    5.8997   415.7    7.581      37.699
2015    3       12    21  55    5.9060   415.7    7.587      37.714
2015    3       12    22   0    5.9123   415.7    7.594      37.730
2015    3       12    22   6    5.9186   415.8    7.601      37.746
2015    3       12    22  11    5.9250   415.8    7.608      37.762
2015    3       12    22  16    5.9314   415.8    7.615      37.778
2015    3       12    22  22    5.9379   415.8    7.622      37.795
2015    3       12    22  27    5.9443   415.8    7.629      37.812
2015    3       12    22  33    5.9508   415.8    7.636      37.829
2015    3       12    22  38    5.9573   415.8    7.643      37.846
2015    3       12    22  43    5.9639   415.8    7.650      37.864
2015    3       12    22  49    5.9705   415.9    7.658      37.883
2015    3       12    22  54    5.9772   415.9    7.665      37.901
2015    3       12    22  59    5.9839   415.9    7.673      37.920
2015    3       12    23   5    5.9906   415.9    7.680      37.940
2015    3       12    23  10    5.9974   415.9    7.688      37.960
2015    3       12    23  15    6.0042   415.9    7.696      37.980
2015    3       12    23  21    6.0110   416.0    7.704      38.001
2015    3       12    23  26    6.0179   416.0    7.712      38.023
2015    3       12    23  32    6.0248   416.0    7.721      38.045
2015    3       12    23  37    6.0318   416.0    7.729      38.068
2015    3       12    23  42    6.0388   416.0    7.738      38.092
2015    3       12    23  48    6.0459   416.1    7.746      38.117
2015    3       12    23  53    6.0530   416.1    7.755      38.142
2015    3       12    23  58    6.0601   416.1    7.764      38.169
2015    3       13     0   4    6.0672   416.2    7.773      38.197
2015    3       13     0   9    6.0744   416.2    7.783      38.225
2015    3       13     0  14    6.0816   416.2    7.792      38.254
2015    3       13     0  20    6.0889   416.3    7.802      38.284
2015    3       13     0  25    6.0961   416.3    7.812      38.316
2015    3       13     0  31    6.1033   416.3    7.822      38.349
2015    3       13     0  36    6.1105   416.4    7.831      38.383
2015    3       13     0  41    6.1177   416.4    7.841      38.418
2015    3       13     0  47    6.1250   416.5    7.851      38.455
2015    3       13     0  52    6.1321   416.5    7.861      38.493
2015    3       13     0  57    6.1392   416.6    7.870      38.532
2015    3       13     1   3    6.1464   416.6    7.880      38.572
2015    3       13     1   8    6.1535   416.7    7.889      38.612
2015    3       13     1  13    6.1605   416.7    7.899      38.652
2015    3       13     1  19    6.1675   416.8    7.908      38.693
2015    3       13     1  24    6.1745   416.9    7.916      38.735
2015    3       13     1  30    6.1815   416.9    7.925      38.776
2015    3       13     1  35    6.1884   417.0    7.934      38.817
2015    3       13     1  40    6.1952   417.0    7.942      38.859
2015    3       13     1  46    6.2021   417.1    7.950      38.900
2015    3       13     1  51    6.2089   417.2    7.957      38.940
2015    3       13     1  56    6.2157   417.2    7.965      38.980
2015    3       13     2   2    6.2225   417.3    7.972      39.020
2015    3       13     2   7    6.2293   417.3    7.980      39.059
2015    3       13     2  12    6.2360   417.4    7.987      39.097
2015    3       13     2  18    6.2427   417.4    7.993      39.134
2015    3       13     2  23    6.2494   417.5    8.000      39.171
2015    3       13     2  28    6.2561   417.6    8.007      39.208
2015    3       13     2  34    6.2628   417.6    8.013      39.243
2015    3       13     2  39    6.2694   417.7    8.020      39.279
2015    3       13     2  45    6.2761   417.7    8.026      39.313
2015    3       13     2  50    6.2828   417.8    8.032      39.348
2015    3       13     2  55    6.2894   417.8    8.038      39.382
2015    3       13     3   1    6.2961   417.9    8.044      39.415
2015    3       13     3   6    6.3027   418.0    8.050      39.448
2015    3       13     3  11    6.3094   418.0    8.056      39.481
2015    3       13     3  17    6.3160   418.1    8.062      39.514
2015    3       13     3  22    6.3227   418.1    8.068      39.546
2015    3       13     3  27    6.3293   418.2    8.074      39.578
2015    3       13     3  33    6.3360   418.2    8.079      39.609
2015    3       13     3  38    6.3426   418.3    8.085      39.641
2015    3       13     3  44    6.3494   418.3    8.091      39.672
2015    3       13     3  49    6.3560   418.4    8.097      39.703
2015    3       13     3  54    6.3627   418.5    8.103      39.734
2015    3       13     4   0    6.3694   418.5    8.109      39.766
2015    3       13     4   5    6.3761   418.6    8.115      39.798
2015    3       13     4  10    6.3828   418.6    8.120      39.830
2015    3       13     4  16    6.3896   418.7    8.126      39.863
2015    3       13     4  21    6.3963   418.7    8.132      39.895
2015    3       13     4  26    6.4031   418.8    8.138      39.928
2015    3       13     4  32    6.4098   418.9    8.144      39.962
2015    3       13     4  37    6.4166   418.9    8.150      39.996
2015    3       13     4  43    6.4234   419.0    8.156      40.031
2015    3       13     4  48    6.4302   419.1    8.162      40.066
2015    3       13     4  53    6.4371   419.1    8.167      40.102
2015    3       13     4  59    6.4439   419.2    8.173      40.139
2015    3       13     5   4    6.4508   419.3    8.179      40.176
2015    3       13     5   9    6.4577   419.3    8.184      40.215
2015    3       13     5  15    6.4646   419.4    8.190      40.254
2015    3       13     5  20    6.4715   419.5    8.196      40.294
2015    3       13     5  25    6.4784   419.6    8.201      40.335
2015    3       13     5  31    6.4854   419.6    8.206      40.376
2015    3       13     5  36    6.4924   419.7    8.212      40.418
2015    3       13     5  41    6.4994   419.8    8.217      40.461
2015    3       13     5  47    6.5063   419.9    8.222      40.504
2015    3       13     5  52    6.5134   420.0    8.227      40.548
2015    3       13     5  58    6.5203   420.0    8.232      40.593
2015    3       13     6   3    6.5273   420.1    8.237      40.637
2015    3       13     6   8    6.5343   420.2    8.242      40.682
2015    3       13     6  14    6.5413   420.3    8.247      40.728
2015    3       13     6  19    6.5484   420.4    8.252      40.774
2015    3       13     6  24    6.5554   420.5    8.256      40.820
2015    3       13     6  30    6.5624   420.6    8.261      40.867
2015    3       13     6  35    6.5695   420.7    8.266      40.914
2015    3       13     6  40    6.5766   420.8    8.271      40.961
2015    3       13     6  46    6.5837   420.8    8.275      41.008
2015    3       13     6  51    6.5907   420.9    8.280      41.056
2015    3       13     6  57    6.5978   421.0    8.285      41.104
2015    3       13     7   2    6.6049   421.1    8.289      41.153
2015    3       13     7   7    6.6120   421.2    8.294      41.202
2015    3       13     7  13    6.6191   421.3    8.299      41.251
2015    3       13     7  18    6.6263   421.4    8.304      41.301
2015    3       13     7  23    6.6335   421.5    8.309      41.351
2015    3       13     7  29    6.6407   421.6    8.313      41.402
2015    3       13     7  34    6.6479   421.7    8.318      41.452
2015    3       13     7  39    6.6553   421.8    8.323      41.504
2015    3       13     7  45    6.6624   422.0    8.329      41.555
2015    3       13     7  50    6.6697   422.1    8.334      41.608
2015    3       13     7  56    6.6771   422.2    8.339      41.661
2015    3       13     8   1    6.6844   422.3    8.344      41.715
2015    3       13     8   6    6.6918   422.4    8.349      41.770
2015    3       13     8  12    6.6992   422.5    8.354      41.825
2015    3       13     8  17    6.7066   422.6    8.360      41.881
2015    3       13     8  22    6.7142   422.7    8.365      41.937
2015    3       13     8  28    6.7215   422.9    8.370      41.994
2015    3       13     8  33    6.7290   423.0    8.375      42.051
2015    3       13     8  38    6.7365   423.1    8.381      42.109
2015    3       13     8  44    6.7440   423.2    8.386      42.167
2015    3       13     8  49    6.7515   423.4    8.391      42.225
2015    3       13     8  55    6.7591   423.5    8.396      42.283
2015    3       13     9   0    6.7667   423.6    8.402      42.342
2015    3       13     9   5    6.7743   423.8    8.407      42.401
2015    3       13     9  11    6.7818   423.9    8.413      42.460
2015    3       13     9  16    6.7895   424.0    8.418      42.519
2015    3       13     9  21    6.7970   424.1    8.424      42.577
2015    3       13     9  27    6.8046   424.3    8.430      42.635
2015    3       13     9  32    6.8121   424.4    8.436      42.694
2015    3       13     9  37    6.8197   424.6    8.442      42.752
2015    3       13     9  43    6.8272   424.7    8.448      42.812
2015    3       13     9  48    6.8346   424.8    8.454      42.871
2015    3       13     9  53    6.8421   425.0    8.461      42.931
2015    3       13     9  59    6.8495   425.1    8.467      42.993
2015    3       13    10   4    6.8569   425.3    8.473      43.057
2015    3       13    10  10    6.8643   425.4    8.479      43.121
2015    3       13    10  15    6.8716   425.6    8.486      43.188
2015    3       13    10  20    6.8789   425.7    8.492      43.255
2015    3       13    10  26    6.8861   425.9    8.498      43.323
2015    3       13    10  31    6.8932   426.0    8.504      43.393
2015    3       13    10  36    6.9004   426.2    8.509      43.463
2015    3       13    10  42    6.9075   426.3    8.515      43.535
2015    3       13    10  47    6.9145   426.5    8.520      43.607
2015    3       13    10  52    6.9215   426.7    8.525      43.679
2015    3       13    10  58    6.9285   426.8    8.530      43.753
2015    3       13    11   3    6.9354   427.0    8.534      43.827
2015    3       13    11   9    6.9423   427.1    8.539      43.902
2015    3       13    11  14    6.9492   427.3    8.543      43.976
2015    3       13    11  19    6.9561   427.4    8.547      44.051
2015    3       13    11  25    6.9629   427.6    8.550      44.126
2015    3       13    11  30    6.9696   427.7    8.554      44.201
2015    3       13    11  35    6.9765   427.9    8.557      44.276
2015    3       13    11  41    6.9833   428.0    8.560      44.351
2015    3       13    11  46    6.9901   428.2    8.563      44.426
2015    3       13    11  51    6.9967   428.3    8.566      44.501
2015    3       13    11  57    7.0036   428.5    8.569      44.577
2015    3       13    12   2    7.0103   428.6    8.571      44.653
2015    3       13    12   8    7.0171   428.8    8.573      44.728
2015    3       13    12  13    7.0238   428.9    8.575      44.804
2015    3       13    12  18    7.0305   429.1    8.577      44.881
2015    3       13    12  24    7.0373   429.2    8.578      44.957
2015    3       13    12  29    7.0439   429.4    8.580      45.034
2015    3       13    12  34    7.0507   429.5    8.581      45.110
2015    3       13    12  40    7.0574   429.7    8.582      45.187
2015    3       13    12  45    7.0641   429.9    8.582      45.264
2015    3       13    12  50    7.0708   430.0    8.583      45.340
2015    3       13    12  56    7.0774   430.2    8.583      45.417
2015    3       13    13   1    7.0841   430.3    8.583      45.493
2015    3       13    13   7    7.0907   430.5    8.583      45.569
2015    3       13    13  12    7.0973   430.7    8.582      45.645
2015    3       13    13  17    7.1039   430.8    8.582      45.721
2015    3       13    13  23    7.1105   431.0    8.581      45.796
2015    3       13    13  28    7.1171   431.2    8.581      45.871
2015    3       13    13  33    7.1236   431.3    8.580      45.946
2015    3       13    13  39    7.1302   431.5    8.579      46.020
2015    3       13    13  44    7.1367   431.7    8.578      46.093
2015    3       13    13  49    7.1433   431.8    8.576      46.166
2015    3       13    13  55    7.1498   432.0    8.575      46.238
2015    3       13    14   0    7.1563   432.1    8.574      46.310
2015    3       13    14   6    7.1628   432.3    8.573      46.381
2015    3       13    14  11    7.1693   432.5    8.571      46.452
2015    3       13    14  16    7.1758   432.6    8.570      46.523
2015    3       13    14  22    7.1824   432.8    8.568      46.593
2015    3       13    14  27    7.1889   433.0    8.567      46.662
2015    3       13    14  32    7.1954   433.1    8.565      46.732
2015    3       13    14  38    7.2019   433.3    8.563      46.801
2015    3       13    14  43    7.2085   433.5    8.562      46.869
2015    3       13    14  48    7.2150   433.6    8.560      46.938
2015    3       13    14  54    7.2216   433.8    8.559      47.006
2015    3       13    14  59    7.2282   434.0    8.557      47.074
2015    3       13    15   4    7.2348   434.2    8.556      47.141
2015    3       13    15  10    7.2413   434.3    8.554      47.209
2015    3       13    15  15    7.2480   434.5    8.553      47.276
2015    3       13    15  21    7.2546   434.7    8.552      47.344
2015    3       13    15  26    7.2614   434.8    8.551      47.411
2015    3       13    15  31    7.2679   435.0    8.550      47.478
2015    3       13    15  37    7.2746   435.2    8.549      47.546
2015    3       13    15  42    7.2813   435.4    8.548      47.613
2015    3       13    15  47    7.2882   435.5    8.548      47.681
2015    3       13    15  53    7.2948   435.7    8.548      47.749
2015    3       13    15  58    7.3016   435.9    8.548      47.817
2015    3       13    16   3    7.3083   436.1    8.548      47.885
2015    3       13    16   9    7.3152   436.2    8.548      47.954
2015    3       13    16  14    7.3220   436.4    8.549      48.023
2015    3       13    16  20    7.3288   436.6    8.551      48.092
2015    3       13    16  25    7.3357   436.8    8.552      48.162
2015    3       13    16  30    7.3426   437.0    8.555      48.233
2015    3       13    16  36    7.3494   437.1    8.557      48.303
2015    3       13    16  41    7.3563   437.3    8.561      48.375
2015    3       13    16  46    7.3632   437.5    8.564      48.448
2015    3       13    16  52    7.3701   437.7    8.569      48.522
2015    3       13    16  57    7.3770   437.9    8.573      48.597
2015    3       13    17   2    7.3839   438.1    8.579      48.675
2015    3       13    17   8    7.3907   438.3    8.584      48.755
2015    3       13    17  13    7.3976   438.5    8.591      48.839
2015    3       13    17  19    7.4044   438.7    8.597      48.926
2015    3       13    17  24    7.4113   438.9    8.604      49.017
2015    3       13    17  29    7.4181   439.1    8.611      49.112
2015    3       13    17  35    7.4250   439.3    8.619      49.210
2015    3       13    17  40    7.4318   439.5    8.626      49.310
2015    3       13    17  45    7.4387   439.7    8.635      49.414
2015    3       13    17  51    7.4455   439.9    8.643      49.522
2015    3       13    17  56    7.4523   440.2    8.651      49.634
2015    3       13    18   1    7.4590   440.4    8.659      49.751
2015    3       13    18   7    7.4657   440.6    8.667      49.872
2015    3       13    18  12    7.4727   440.9    8.674      49.997
2015    3       13    18  18    7.4790   441.1    8.682      50.125
2015    3       13    18  23    7.4856   441.4    8.689      50.255
2015    3       13    18  28    7.4925   441.6    8.696      50.388
2015    3       13    18  34    7.4990   441.9    8.702      50.521
2015    3       13    18  39    7.5052   442.1    8.708      50.655
2015    3       13    18  44    7.5116   442.4    8.714      50.789
2015    3       13    18  50    7.5180   442.7    8.719      50.923
2015    3       13    18  55    7.5245   442.9    8.723      51.058
2015    3       13    19   0    7.5305   443.2    8.727      51.193
2015    3       13    19   6    7.5367   443.5    8.730      51.327
2015    3       13    19  11    7.5428   443.8    8.733      51.462
2015    3       13    19  17    7.5489   444.0    8.735      51.595
2015    3       13    19  22    7.5551   444.3    8.736      51.726
2015    3       13    19  27    7.5610   444.6    8.737      51.855
2015    3       13    19  33    7.5670   444.8    8.738      51.983
2015    3       13    19  38    7.5729   445.1    8.738      52.109
2015    3       13    19  43    7.5788   445.4    8.737      52.233
2015    3       13    19  49    7.5847   445.7    8.736      52.356
2015    3       13    19  54    7.5905   446.0    8.734      52.478
2015    3       13    19  59    7.5964   446.2    8.732      52.597
2015    3       13    20   5    7.6022   446.5    8.730      52.716
2015    3       13    20  10    7.6081   446.8    8.727      52.833
2015    3       13    20  16    7.6139   447.1    8.724      52.949
2015    3       13    20  21    7.6197   447.4    8.721      53.064
2015    3       13    20  26    7.6255   447.7    8.717      53.178
2015    3       13    20  32    7.6314   447.9    8.713      53.291
2015    3       13    20  37    7.6373   448.2    8.709      53.403
2015    3       13    20  42    7.6432   448.5    8.704      53.514
2015    3       13    20  48    7.6491   448.8    8.699      53.625
2015    3       13    20  53    7.6550   449.1    8.694      53.734
2015    3       13    20  58    7.6609   449.4    8.689      53.844
2015    3       13    21   4    7.6669   449.7    8.683      53.952
2015    3       13    21   9    7.6728   450.0    8.678      54.060
2015    3       13    21  15    7.6788   450.3    8.672      54.167
2015    3       13    21  20    7.6848   450.7    8.666      54.274
2015    3       13    21  25    7.6908   451.0    8.659      54.380
2015    3       13    21  31    7.6967   451.3    8.653      54.486
2015    3       13    21  36    7.7027   451.6    8.646      54.591
2015    3       13    21  41    7.7086   451.9    8.639      54.695
2015    3       13    21  47    7.7146   452.2    8.632      54.799
2015    3       13    21  52    7.7204   452.6    8.625      54.902
2015    3       13    21  57    7.7262   452.9    8.618      55.004
2015    3       13    22   3    7.7318   453.2    8.610      55.106
2015    3       13    22   8    7.7375   453.6    8.602      55.207
2015    3       13    22  14    7.7431   453.9    8.595      55.307
2015    3       13    22  19    7.7486   454.2    8.586      55.406
2015    3       13    22  24    7.7540   454.6    8.578      55.505
2015    3       13    22  30    7.7593   454.9    8.570      55.603
2015    3       13    22  35    7.7646   455.2    8.561      55.700
2015    3       13    22  40    7.7698   455.6    8.553      55.796
2015    3       13    22  46    7.7748   455.9    8.544      55.891
2015    3       13    22  51    7.7798   456.2    8.536      55.986
2015    3       13    22  56    7.7848   456.6    8.527      56.080
2015    3       13    23   2    7.7896   456.9    8.519      56.174
2015    3       13    23   7    7.7943   457.2    8.510      56.267
2015    3       13    23  13    7.7991   457.6    8.501      56.361
2015    3       13    23  18    7.8037   457.9    8.493      56.453
2015    3       13    23  23    7.8083   458.2    8.485      56.546
2015    3       13    23  29    7.8128   458.6    8.476      56.639
2015    3       13    23  34    7.8172   458.9    8.468      56.732
2015    3       13    23  39    7.8217   459.2    8.460      56.825
2015    3       13    23  45    7.8260   459.5    8.452      56.918
2015    3       13    23  50    7.8304   459.9    8.445      57.012
2015    3       13    23  55    7.8347   460.2    8.437      57.106
2015    3       14     0   1    7.8391   460.5    8.430      57.201
2015    3       14     0   6    7.8432   460.9    8.423      57.297
2015    3       14     0  12    7.8475   461.2    8.417      57.393
2015    3       14     0  17    7.8517   461.5    8.410      57.491
2015    3       14     0  22    7.8559   461.8    8.405      57.589
2015    3       14     0  28    7.8602   462.2    8.399      57.689
2015    3       14     0  33    7.8646   462.5    8.394      57.791
2015    3       14     0  38    7.8688   462.8    8.389      57.895
2015    3       14     0  44    7.8731   463.2    8.385      58.002
2015    3       14     0  49    7.8774   463.5    8.381      58.111
2015    3       14     0  54    7.8817   463.8    8.377      58.221
2015    3       14     1   0    7.8859   464.1    8.374      58.334
2015    3       14     1   5    7.8903   464.5    8.371      58.449
2015    3       14     1  11    7.8947   464.8    8.369      58.569
2015    3       14     1  16    7.8991   465.2    8.366      58.693
2015    3       14     1  21    7.9035   465.5    8.364      58.822
2015    3       14     1  27    7.9079   465.9    8.362      58.954
2015    3       14     1  32    7.9123   466.2    8.360      59.091
2015    3       14     1  37    7.9167   466.6    8.358      59.231
2015    3       14     1  43    7.9211   466.9    8.356      59.374
2015    3       14     1  48    7.9254   467.3    8.354      59.520
2015    3       14     1  53    7.9297   467.7    8.351      59.668
2015    3       14     1  59    7.9339   468.1    8.349      59.817
2015    3       14     2   4    7.9380   468.4    8.346      59.967
2015    3       14     2   9    7.9421   468.8    8.342      60.117
2015    3       14     2  15    7.9461   469.2    8.338      60.267
2015    3       14     2  20    7.9500   469.6    8.334      60.419
2015    3       14     2  26    7.9538   470.0    8.329      60.570
2015    3       14     2  31    7.9574   470.4    8.324      60.721
2015    3       14     2  36    7.9610   470.8    8.318      60.869
2015    3       14     2  42    7.9645   471.2    8.311      61.016
2015    3       14     2  47    7.9678   471.6    8.305      61.160
2015    3       14     2  52    7.9711   472.1    8.297      61.302
2015    3       14     2  58    7.9747   472.5    8.290      61.443
2015    3       14     3   3    7.9775   472.9    8.281      61.581
2015    3       14     3   8    7.9805   473.3    8.273      61.718
2015    3       14     3  14    7.9835   473.7    8.264      61.852
2015    3       14     3  19    7.9864   474.2    8.255      61.985
2015    3       14     3  25    7.9893   474.6    8.245      62.116
2015    3       14     3  30    7.9921   475.0    8.236      62.245
2015    3       14     3  35    7.9950   475.5    8.226      62.373
2015    3       14     3  41    7.9977   475.9    8.215      62.499
2015    3       14     3  46    8.0004   476.3    8.205      62.623
2015    3       14     3  51    8.0031   476.8    8.194      62.745
2015    3       14     3  57    8.0058   477.2    8.183      62.866
2015    3       14     4   2    8.0084   477.7    8.172      62.986
2015    3       14     4   7    8.0110   478.2    8.160      63.103
2015    3       14     4  13    8.0136   478.6    8.149      63.219
2015    3       14     4  18    8.0161   479.1    8.137      63.334
2015    3       14     4  24    8.0185   479.6    8.124      63.447
2015    3       14     4  29    8.0208   480.0    8.112      63.560
2015    3       14     4  34    8.0237   480.5    8.099      63.670
2015    3       14     4  40    8.0253   481.0    8.086      63.780
2015    3       14     4  45    8.0273   481.5    8.073      63.887
2015    3       14     4  50    8.0293   482.0    8.059      63.994
2015    3       14     4  56    8.0310   482.5    8.045      64.100
2015    3       14     5   1    8.0326   483.0    8.030      64.204
2015    3       14     5   6    8.0340   483.6    8.015      64.307
2015    3       14     5  12    8.0358   484.1    7.999      64.409
2015    3       14     5  17    8.0366   484.6    7.983      64.509
2015    3       14     5  22    8.0366   485.1    7.966      64.609
2015    3       14     5  28    8.0369   485.7    7.949      64.710
2015    3       14     5  33    8.0369   486.2    7.931      64.810
2015    3       14     5  39    8.0366   486.8    7.913      64.907
2015    3       14     5  44    8.0359   487.3    7.894      65.003
2015    3       14     5  49    8.0349   487.8    7.875      65.097
2015    3       14     5  55    8.0336   488.3    7.856      65.190
2015    3       14     6   0    8.0327   488.9    7.837      65.282
2015    3       14     6   5    8.0303   489.4    7.818      65.374
2015    3       14     6  11    8.0283   489.9    7.798      65.465
2015    3       14     6  16    8.0263   490.4    7.779      65.555
2015    3       14     6  21    8.0240   490.9    7.760      65.644
2015    3       14     6  27    8.0218   491.4    7.741      65.735
2015    3       14     6  32    8.0194   491.9    7.723      65.825
2015    3       14     6  38    8.0171   492.4    7.704      65.916
2015    3       14     6  43    8.0147   492.9    7.686      66.005
2015    3       14     6  48    8.0124   493.4    7.668      66.094
2015    3       14     6  54    8.0101   493.8    7.651      66.185
2015    3       14     6  59    8.0079   494.3    7.633      66.277
2015    3       14     7   4    8.0058   494.8    7.616      66.371
2015    3       14     7  10    8.0038   495.3    7.600      66.467
2015    3       14     7  15    8.0018   495.8    7.583      66.566
2015    3       14     7  20    7.9999   496.3    7.566      66.668
2015    3       14     7  26    7.9979   496.8    7.550      66.775
2015    3       14     7  31    7.9961   497.3    7.533      66.884
2015    3       14     7  37    7.9942   497.8    7.517      66.997
2015    3       14     7  42    7.9931   498.4    7.500      67.111
2015    3       14     7  47    7.9905   498.9    7.484      67.228
2015    3       14     7  53    7.9887   499.4    7.467      67.347
2015    3       14     7  58    7.9876   499.9    7.451      67.467
2015    3       14     8   3    7.9850   500.4    7.434      67.588
2015    3       14     8   9    7.9831   501.0    7.418      67.709
2015    3       14     8  14    7.9812   501.5    7.401      67.829
2015    3       14     8  19    7.9791   502.0    7.384      67.950
2015    3       14     8  25    7.9771   502.6    7.366      68.070
2015    3       14     8  30    7.9748   503.1    7.349      68.191
2015    3       14     8  35    7.9725   503.7    7.331      68.309
2015    3       14     8  41    7.9700   504.2    7.312      68.427
2015    3       14     8  46    7.9674   504.8    7.294      68.545
2015    3       14     8  52    7.9646   505.3    7.275      68.662
2015    3       14     8  57    7.9616   505.9    7.255      68.777
2015    3       14     9   2    7.9584   506.4    7.235      68.891
2015    3       14     9   8    7.9549   507.0    7.215      69.002
2015    3       14     9  13    7.9511   507.6    7.194      69.115
2015    3       14     9  18    7.9479   508.1    7.172      69.227
2015    3       14     9  24    7.9426   508.7    7.149      69.333
2015    3       14     9  29    7.9379   509.2    7.126      69.433
2015    3       14     9  34    7.9328   509.7    7.103      69.528
2015    3       14     9  40    7.9274   510.3    7.079      69.618
2015    3       14     9  45    7.9218   510.8    7.056      69.703
2015    3       14     9  51    7.9160   511.3    7.032      69.782
2015    3       14     9  56    7.9099   511.8    7.008      69.857
2015    3       14    10   1    7.9039   512.3    6.984      69.929
2015    3       14    10   7    7.8976   512.8    6.961      69.997
2015    3       14    10  12    7.8923   513.3    6.937      70.064
2015    3       14    10  17    7.8852   513.8    6.914      70.128
2015    3       14    10  23    7.8798   514.2    6.892      70.189
2015    3       14    10  28    7.8727   514.7    6.870      70.246
2015    3       14    10  33    7.8666   515.2    6.849      70.304
2015    3       14    10  39    7.8605   515.6    6.828      70.363
2015    3       14    10  44    7.8546   516.1    6.808      70.423
2015    3       14    10  50    7.8487   516.6    6.788      70.483
2015    3       14    10  55    7.8439   517.1    6.769      70.544
2015    3       14    11   0    7.8381   517.6    6.750      70.605
2015    3       14    11   6    7.8315   518.0    6.731      70.666
2015    3       14    11  11    7.8257   518.5    6.713      70.726
2015    3       14    11  16    7.8200   519.0    6.695      70.786
2015    3       14    11  22    7.8142   519.5    6.677      70.845
2015    3       14    11  27    7.8085   520.0    6.660      70.903
2015    3       14    11  32    7.8036   520.4    6.642      70.961
2015    3       14    11  38    7.7969   520.9    6.625      71.018
2015    3       14    11  43    7.7909   521.4    6.608      71.075
2015    3       14    11  48    7.7851   521.9    6.590      71.131
2015    3       14    11  54    7.7791   522.4    6.573      71.187
2015    3       14    11  59    7.7731   522.9    6.556      71.242
2015    3       14    12   5    7.7669   523.4    6.539      71.297
2015    3       14    12  10    7.7608   523.9    6.522      71.353
2015    3       14    12  15    7.7545   524.4    6.505      71.408
2015    3       14    12  21    7.7492   525.0    6.487      71.462
2015    3       14    12  26    7.7427   525.5    6.469      71.515
2015    3       14    12  31    7.7350   526.0    6.451      71.569
2015    3       14    12  37    7.7292   526.6    6.433      71.623
2015    3       14    12  42    7.7221   527.2    6.414      71.678
2015    3       14    12  47    7.7138   527.7    6.395      71.732
2015    3       14    12  53    7.7063   528.3    6.376      71.784
2015    3       14    12  58    7.6984   528.8    6.356      71.835
2015    3       14    13   4    7.6903   529.4    6.336      71.883
2015    3       14    13   9    7.6819   529.9    6.316      71.929
2015    3       14    13  14    7.6733   530.5    6.295      71.974
2015    3       14    13  20    7.6654   531.0    6.275      72.017
2015    3       14    13  25    7.6554   531.5    6.254      72.057
2015    3       14    13  30    7.6463   532.1    6.233      72.094
2015    3       14    13  36    7.6370   532.6    6.213      72.128
2015    3       14    13  41    7.6284   533.1    6.193      72.159
2015    3       14    13  46    7.6190   533.6    6.172      72.188
2015    3       14    13  52    7.6086   534.1    6.152      72.215
2015    3       14    13  57    7.5991   534.5    6.133      72.237
2015    3       14    14   3    7.5905   535.0    6.113      72.256
2015    3       14    14   8    7.5802   535.5    6.094      72.272
2015    3       14    14  13    7.5709   535.9    6.076      72.287
2015    3       14    14  19    7.5617   536.4    6.057      72.302
2015    3       14    14  24    7.5526   536.8    6.040      72.317
2015    3       14    14  29    7.5437   537.2    6.022      72.334
2015    3       14    14  35    7.5349   537.7    6.005      72.352
2015    3       14    14  40    7.5262   538.1    5.988      72.375
2015    3       14    14  45    7.5176   538.5    5.971      72.401
2015    3       14    14  51    7.5091   539.0    5.955      72.430
2015    3       14    14  56    7.5015   539.4    5.939      72.461
2015    3       14    15   2    7.4924   539.8    5.923      72.493
2015    3       14    15   7    7.4841   540.2    5.908      72.528
2015    3       14    15  12    7.4769   540.6    5.892      72.565
2015    3       14    15  18    7.4679   541.0    5.877      72.601
2015    3       14    15  23    7.4607   541.5    5.862      72.638
2015    3       14    15  28    7.4517   541.9    5.846      72.674
2015    3       14    15  34    7.4444   542.3    5.831      72.710
2015    3       14    15  39    7.4354   542.8    5.816      72.746
2015    3       14    15  44    7.4280   543.2    5.800      72.779
2015    3       14    15  50    7.4188   543.7    5.784      72.809
2015    3       14    15  55    7.4112   544.2    5.768      72.837
2015    3       14    16   0    7.4017   544.6    5.752      72.861
2015    3       14    16   6    7.3929   545.1    5.736      72.882
2015    3       14    16  11    7.3838   545.6    5.719      72.900
2015    3       14    16  17    7.3746   546.0    5.702      72.915
2015    3       14    16  22    7.3651   546.5    5.684      72.925
2015    3       14    16  27    7.3554   547.0    5.666      72.936
2015    3       14    16  33    7.3455   547.4    5.647      72.945
2015    3       14    16  38    7.3353   547.9    5.628      72.950
2015    3       14    16  43    7.3248   548.3    5.608      72.947
2015    3       14    16  49    7.3142   548.7    5.588      72.938
2015    3       14    16  54    7.3040   549.1    5.568      72.924
2015    3       14    16  59    7.2923   549.6    5.548      72.906
2015    3       14    17   5    7.2813   550.0    5.528      72.882
2015    3       14    17  10    7.2702   550.3    5.508      72.855
2015    3       14    17  16    7.2590   550.7    5.489      72.826
2015    3       14    17  21    7.2480   551.1    5.470      72.797
2015    3       14    17  26    7.2369   551.5    5.451      72.766
2015    3       14    17  32    7.2259   551.9    5.432      72.735
2015    3       14    17  37    7.2150   552.3    5.414      72.702
2015    3       14    17  42    7.2041   552.7    5.397      72.667
2015    3       14    17  48    7.1939   553.0    5.380      72.633
2015    3       14    17  53    7.1828   553.4    5.364      72.602
2015    3       14    17  58    7.1722   553.7    5.349      72.575
2015    3       14    18   4    7.1618   554.1    5.334      72.551
2015    3       14    18   9    7.1519   554.5    5.319      72.528
2015    3       14    18  14    7.1411   554.8    5.304      72.508
2015    3       14    18  20    7.1308   555.1    5.290      72.488
2015    3       14    18  25    7.1206   555.5    5.276      72.471
2015    3       14    18  31    7.1104   555.8    5.263      72.454
2015    3       14    18  36    7.1002   556.2    5.249      72.439
2015    3       14    18  41    7.0903   556.5    5.236      72.425
2015    3       14    18  47    7.0802   556.8    5.223      72.412
2015    3       14    18  52    7.0697   557.2    5.210      72.400
2015    3       14    18  57    7.0596   557.5    5.197      72.388
2015    3       14    19   3    7.0495   557.8    5.184      72.377
2015    3       14    19   8    7.0394   558.1    5.172      72.365
2015    3       14    19  13    7.0294   558.5    5.159      72.354
2015    3       14    19  19    7.0194   558.8    5.147      72.341
2015    3       14    19  24    7.0094   559.1    5.135      72.328
2015    3       14    19  30    6.9995   559.4    5.123      72.314
2015    3       14    19  35    6.9899   559.7    5.111      72.299
2015    3       14    19  40    6.9799   560.0    5.099      72.282
2015    3       14    19  46    6.9702   560.3    5.087      72.266
2015    3       14    19  51    6.9605   560.6    5.075      72.250
2015    3       14    19  56    6.9509   560.9    5.064      72.233
2015    3       14    20   2    6.9413   561.2    5.053      72.217
2015    3       14    20   7    6.9318   561.5    5.041      72.200
2015    3       14    20  12    6.9225   561.8    5.030      72.182
2015    3       14    20  18    6.9130   562.0    5.019      72.164
2015    3       14    20  23    6.9036   562.3    5.009      72.144
2015    3       14    20  29    6.8943   562.6    4.998      72.124
2015    3       14    20  34    6.8850   562.9    4.987      72.104
2015    3       14    20  39    6.8758   563.2    4.976      72.083
2015    3       14    20  45    6.8665   563.5    4.965      72.062
2015    3       14    20  50    6.8573   563.8    4.955      72.041
2015    3       14    20  55    6.8480   564.1    4.944      72.019
2015    3       14    21   1    6.8386   564.5    4.933      71.996
2015    3       14    21   6    6.8292   564.8    4.922      71.973
2015    3       14    21  11    6.8199   565.1    4.911      71.947
2015    3       14    21  17    6.8103   565.4    4.899      71.919
2015    3       14    21  22    6.8007   565.7    4.888      71.887
2015    3       14    21  28    6.7912   566.0    4.876      71.850
2015    3       14    21  33    6.7816   566.3    4.864      71.809
2015    3       14    21  38    6.7720   566.6    4.853      71.765
2015    3       14    21  44    6.7624   566.9    4.841      71.717
2015    3       14    21  49    6.7526   567.1    4.829      71.666
2015    3       14    21  54    6.7433   567.4    4.818      71.613
2015    3       14    22   0    6.7338   567.6    4.806      71.557
2015    3       14    22   5    6.7244   567.8    4.795      71.499
2015    3       14    22  10    6.7151   568.0    4.785      71.441
2015    3       14    22  16    6.7057   568.2    4.774      71.383
2015    3       14    22  21    6.6968   568.4    4.764      71.326
2015    3       14    22  26    6.6878   568.6    4.754      71.270
2015    3       14    22  32    6.6790   568.7    4.745      71.215
2015    3       14    22  37    6.6701   568.9    4.735      71.163
2015    3       14    22  43    6.6616   569.0    4.727      71.112
2015    3       14    22  48    6.6529   569.2    4.718      71.062
2015    3       14    22  53    6.6447   569.3    4.710      71.014
2015    3       14    22  59    6.6363   569.5    4.701      70.968
2015    3       14    23   4    6.6280   569.6    4.694      70.924
2015    3       14    23   9    6.6198   569.8    4.686      70.882
2015    3       14    23  15    6.6114   569.9    4.678      70.842
2015    3       14    23  20    6.6034   570.1    4.671      70.802
2015    3       14    23  25    6.5953   570.3    4.663      70.762
2015    3       14    23  31    6.5872   570.4    4.656      70.723
2015    3       14    23  36    6.5790   570.6    4.649      70.684
2015    3       14    23  42    6.5709   570.8    4.641      70.645
2015    3       14    23  47    6.5627   571.0    4.634      70.606
2015    3       14    23  52    6.5546   571.1    4.627      70.566
2015    3       14    23  58    6.5464   571.3    4.620      70.525
2015    3       15     0   3    6.5379   571.5    4.612      70.484
