year    month   day   hour  minute  B_enl V_enl   n_enl       T_enl
[year] [month] [day] [hour][minute] [nT]  [km/s]  [cm-3]      [kK]
2015    3        2     0   2    4.1754   553.7    3.031      42.247
2015    3        2     0   8    4.1744   553.3    3.033      42.195
2015    3        2     0  13    4.1734   552.9    3.036      42.144
2015    3        2     0  19    4.1725   552.6    3.039      42.093
2015    3        2     0  24    4.1716   552.2    3.041      42.042
2015    3        2     0  30    4.1707   551.9    3.044      41.993
2015    3        2     0  35    4.1699   551.5    3.047      41.944
2015    3        2     0  41    4.1690   551.1    3.050      41.895
2015    3        2     0  46    4.1682   550.8    3.053      41.848
2015    3        2     0  51    4.1674   550.4    3.056      41.800
2015    3        2     0  57    4.1667   550.0    3.060      41.754
2015    3        2     1   2    4.1659   549.7    3.063      41.708
2015    3        2     1   8    4.1651   549.3    3.066      41.662
2015    3        2     1  13    4.1645   549.0    3.069      41.617
2015    3        2     1  19    4.1637   548.6    3.073      41.572
2015    3        2     1  24    4.1631   548.2    3.076      41.528
2015    3        2     1  30    4.1623   547.9    3.080      41.485
2015    3        2     1  35    4.1617   547.5    3.083      41.441
2015    3        2     1  40    4.1610   547.1    3.087      41.399
2015    3        2     1  46    4.1604   546.8    3.090      41.356
2015    3        2     1  51    4.1598   546.4    3.094      41.314
2015    3        2     1  57    4.1592   546.0    3.097      41.273
2015    3        2     2   2    4.1586   545.7    3.101      41.231
2015    3        2     2   8    4.1580   545.3    3.104      41.190
2015    3        2     2  13    4.1575   544.9    3.108      41.149
2015    3        2     2  19    4.1570   544.6    3.111      41.108
2015    3        2     2  24    4.1565   544.2    3.115      41.067
2015    3        2     2  29    4.1560   543.8    3.118      41.026
2015    3        2     2  35    4.1556   543.5    3.122      40.985
2015    3        2     2  40    4.1551   543.1    3.126      40.944
2015    3        2     2  46    4.1547   542.7    3.129      40.903
2015    3        2     2  51    4.1544   542.3    3.133      40.861
2015    3        2     2  57    4.1541   542.0    3.136      40.819
2015    3        2     3   2    4.1536   541.6    3.140      40.777
2015    3        2     3   8    4.1535   541.2    3.144      40.735
2015    3        2     3  13    4.1532   540.9    3.147      40.693
2015    3        2     3  18    4.1528   540.5    3.151      40.650
2015    3        2     3  24    4.1527   540.1    3.155      40.607
2015    3        2     3  29    4.1523   539.8    3.158      40.564
2015    3        2     3  35    4.1523   539.4    3.162      40.521
2015    3        2     3  40    4.1520   539.0    3.166      40.477
2015    3        2     3  46    4.1518   538.7    3.169      40.433
2015    3        2     3  51    4.1516   538.3    3.173      40.388
2015    3        2     3  57    4.1515   537.9    3.177      40.343
2015    3        2     4   2    4.1514   537.6    3.180      40.298
2015    3        2     4   8    4.1514   537.2    3.184      40.252
2015    3        2     4  13    4.1512   536.8    3.188      40.205
2015    3        2     4  18    4.1511   536.5    3.191      40.158
2015    3        2     4  24    4.1511   536.1    3.195      40.111
2015    3        2     4  29    4.1510   535.7    3.198      40.063
2015    3        2     4  35    4.1512   535.4    3.202      40.015
2015    3        2     4  40    4.1512   535.0    3.206      39.966
2015    3        2     4  46    4.1512   534.6    3.209      39.917
2015    3        2     4  51    4.1510   534.3    3.213      39.867
2015    3        2     4  57    4.1511   533.9    3.217      39.817
2015    3        2     5   2    4.1512   533.5    3.220      39.767
2015    3        2     5   7    4.1514   533.1    3.224      39.716
2015    3        2     5  13    4.1513   532.8    3.227      39.666
2015    3        2     5  18    4.1514   532.4    3.231      39.615
2015    3        2     5  24    4.1516   532.0    3.235      39.563
2015    3        2     5  29    4.1517   531.7    3.238      39.512
2015    3        2     5  35    4.1519   531.3    3.242      39.461
2015    3        2     5  40    4.1521   530.9    3.246      39.409
2015    3        2     5  46    4.1523   530.6    3.249      39.357
2015    3        2     5  51    4.1526   530.2    3.253      39.306
2015    3        2     5  56    4.1528   529.8    3.257      39.254
2015    3        2     6   2    4.1533   529.5    3.261      39.202
2015    3        2     6   7    4.1535   529.1    3.265      39.150
2015    3        2     6  13    4.1538   528.7    3.268      39.099
2015    3        2     6  18    4.1542   528.4    3.272      39.047
2015    3        2     6  24    4.1547   528.0    3.276      38.995
2015    3        2     6  29    4.1551   527.6    3.280      38.944
2015    3        2     6  35    4.1556   527.3    3.284      38.893
2015    3        2     6  40    4.1561   526.9    3.288      38.842
2015    3        2     6  45    4.1566   526.5    3.292      38.791
2015    3        2     6  51    4.1570   526.2    3.297      38.740
2015    3        2     6  56    4.1575   525.8    3.301      38.690
2015    3        2     7   2    4.1583   525.4    3.305      38.641
2015    3        2     7   7    4.1587   525.1    3.310      38.591
2015    3        2     7  13    4.1594   524.7    3.314      38.542
2015    3        2     7  18    4.1601   524.3    3.319      38.493
2015    3        2     7  24    4.1608   524.0    3.323      38.445
2015    3        2     7  29    4.1617   523.6    3.328      38.397
2015    3        2     7  34    4.1623   523.2    3.333      38.350
2015    3        2     7  40    4.1631   522.9    3.338      38.303
2015    3        2     7  45    4.1642   522.5    3.342      38.257
2015    3        2     7  51    4.1649   522.1    3.347      38.211
2015    3        2     7  56    4.1658   521.8    3.352      38.166
2015    3        2     8   2    4.1669   521.4    3.358      38.121
2015    3        2     8   7    4.1677   521.1    3.363      38.077
2015    3        2     8  13    4.1687   520.7    3.368      38.033
2015    3        2     8  18    4.1697   520.3    3.374      37.990
2015    3        2     8  24    4.1708   520.0    3.379      37.947
2015    3        2     8  29    4.1720   519.6    3.385      37.905
2015    3        2     8  34    4.1730   519.3    3.390      37.863
2015    3        2     8  40    4.1741   518.9    3.396      37.822
2015    3        2     8  45    4.1753   518.6    3.402      37.782
2015    3        2     8  51    4.1767   518.2    3.408      37.742
2015    3        2     8  56    4.1779   517.9    3.414      37.702
2015    3        2     9   2    4.1790   517.5    3.420      37.663
2015    3        2     9   7    4.1805   517.2    3.426      37.625
2015    3        2     9  13    4.1817   516.8    3.432      37.587
2015    3        2     9  18    4.1832   516.5    3.438      37.550
2015    3        2     9  23    4.1844   516.1    3.445      37.513
2015    3        2     9  29    4.1860   515.8    3.451      37.477
2015    3        2     9  34    4.1873   515.4    3.458      37.441
2015    3        2     9  40    4.1889   515.1    3.464      37.405
2015    3        2     9  45    4.1905   514.8    3.471      37.370
2015    3        2     9  51    4.1918   514.4    3.478      37.336
2015    3        2     9  56    4.1934   514.1    3.485      37.302
2015    3        2    10   2    4.1950   513.7    3.492      37.269
2015    3        2    10   7    4.1968   513.4    3.499      37.236
2015    3        2    10  12    4.1982   513.1    3.506      37.203
2015    3        2    10  18    4.2000   512.7    3.513      37.171
2015    3        2    10  23    4.2017   512.4    3.521      37.139
2015    3        2    10  29    4.2036   512.1    3.528      37.108
2015    3        2    10  34    4.2052   511.7    3.535      37.077
2015    3        2    10  40    4.2070   511.4    3.543      37.046
2015    3        2    10  45    4.2089   511.1    3.550      37.016
2015    3        2    10  51    4.2107   510.8    3.558      36.986
2015    3        2    10  56    4.2129   510.4    3.566      36.956
2015    3        2    11   1    4.2146   510.1    3.574      36.926
2015    3        2    11   7    4.2165   509.8    3.581      36.896
2015    3        2    11  12    4.2185   509.5    3.589      36.866
2015    3        2    11  18    4.2207   509.2    3.597      36.836
2015    3        2    11  23    4.2225   508.9    3.605      36.806
2015    3        2    11  29    4.2245   508.6    3.612      36.776
2015    3        2    11  34    4.2268   508.2    3.620      36.745
2015    3        2    11  40    4.2288   507.9    3.628      36.715
2015    3        2    11  45    4.2309   507.6    3.636      36.684
2015    3        2    11  50    4.2330   507.3    3.644      36.654
2015    3        2    11  56    4.2352   507.0    3.651      36.623
2015    3        2    12   1    4.2371   506.7    3.659      36.592
2015    3        2    12   7    4.2395   506.4    3.667      36.561
2015    3        2    12  12    4.2414   506.1    3.675      36.530
2015    3        2    12  18    4.2436   505.8    3.682      36.499
2015    3        2    12  23    4.2459   505.5    3.690      36.468
2015    3        2    12  29    4.2481   505.2    3.697      36.437
2015    3        2    12  34    4.2507   504.9    3.705      36.406
2015    3        2    12  40    4.2530   504.6    3.712      36.375
2015    3        2    12  45    4.2553   504.3    3.720      36.344
2015    3        2    12  50    4.2577   504.0    3.727      36.313
2015    3        2    12  56    4.2598   503.7    3.735      36.282
2015    3        2    13   1    4.2622   503.4    3.742      36.251
2015    3        2    13   7    4.2646   503.1    3.750      36.220
2015    3        2    13  12    4.2671   502.8    3.757      36.189
2015    3        2    13  18    4.2698   502.5    3.764      36.158
2015    3        2    13  23    4.2721   502.2    3.772      36.127
2015    3        2    13  29    4.2747   501.9    3.779      36.096
2015    3        2    13  34    4.2772   501.7    3.786      36.065
2015    3        2    13  39    4.2798   501.4    3.794      36.034
2015    3        2    13  45    4.2825   501.1    3.801      36.003
2015    3        2    13  50    4.2851   500.8    3.808      35.973
2015    3        2    13  56    4.2878   500.5    3.816      35.942
2015    3        2    14   1    4.2905   500.3    3.823      35.911
2015    3        2    14   7    4.2932   500.0    3.831      35.881
2015    3        2    14  12    4.2960   499.7    3.838      35.851
2015    3        2    14  18    4.2988   499.4    3.845      35.821
2015    3        2    14  23    4.3018   499.2    3.853      35.791
2015    3        2    14  28    4.3044   498.9    3.860      35.761
2015    3        2    14  34    4.3072   498.6    3.868      35.732
2015    3        2    14  39    4.3104   498.3    3.876      35.703
2015    3        2    14  45    4.3130   498.1    3.883      35.674
2015    3        2    14  50    4.3162   497.8    3.891      35.645
2015    3        2    14  56    4.3191   497.5    3.899      35.617
2015    3        2    15   1    4.3218   497.3    3.906      35.589
2015    3        2    15   7    4.3250   497.0    3.914      35.562
2015    3        2    15  12    4.3280   496.8    3.922      35.535
2015    3        2    15  17    4.3309   496.5    3.930      35.508
2015    3        2    15  23    4.3340   496.3    3.938      35.481
2015    3        2    15  28    4.3368   496.0    3.946      35.455
2015    3        2    15  34    4.3400   495.7    3.954      35.429
2015    3        2    15  39    4.3428   495.5    3.962      35.404
2015    3        2    15  45    4.3461   495.2    3.970      35.379
2015    3        2    15  50    4.3490   495.0    3.978      35.354
2015    3        2    15  56    4.3521   494.7    3.987      35.330
2015    3        2    16   1    4.3552   494.5    3.995      35.306
2015    3        2    16   6    4.3583   494.3    4.003      35.282
2015    3        2    16  12    4.3615   494.0    4.012      35.259
2015    3        2    16  17    4.3648   493.8    4.020      35.236
2015    3        2    16  23    4.3678   493.5    4.029      35.214
2015    3        2    16  28    4.3712   493.3    4.037      35.192
2015    3        2    16  34    4.3744   493.1    4.046      35.171
2015    3        2    16  39    4.3774   492.8    4.055      35.150
2015    3        2    16  45    4.3808   492.6    4.064      35.129
2015    3        2    16  50    4.3841   492.4    4.072      35.109
2015    3        2    16  56    4.3873   492.1    4.081      35.089
2015    3        2    17   1    4.3906   491.9    4.090      35.070
2015    3        2    17   6    4.3939   491.7    4.099      35.051
2015    3        2    17  12    4.3971   491.4    4.109      35.032
2015    3        2    17  17    4.4004   491.2    4.118      35.014
2015    3        2    17  23    4.4039   491.0    4.127      34.997
2015    3        2    17  28    4.4071   490.8    4.136      34.980
2015    3        2    17  34    4.4106   490.5    4.146      34.963
2015    3        2    17  39    4.4140   490.3    4.155      34.947
2015    3        2    17  45    4.4176   490.1    4.165      34.931
2015    3        2    17  50    4.4211   489.9    4.174      34.916
2015    3        2    17  55    4.4246   489.7    4.184      34.901
2015    3        2    18   1    4.4281   489.5    4.194      34.887
2015    3        2    18   6    4.4315   489.3    4.204      34.873
2015    3        2    18  12    4.4351   489.1    4.213      34.859
2015    3        2    18  17    4.4389   488.9    4.223      34.846
2015    3        2    18  23    4.4423   488.7    4.233      34.833
2015    3        2    18  28    4.4461   488.5    4.243      34.820
2015    3        2    18  34    4.4496   488.3    4.253      34.807
2015    3        2    18  39    4.4533   488.1    4.263      34.795
2015    3        2    18  44    4.4570   487.9    4.273      34.783
2015    3        2    18  50    4.4607   487.7    4.283      34.771
2015    3        2    18  55    4.4646   487.5    4.292      34.760
2015    3        2    19   1    4.4681   487.3    4.302      34.748
2015    3        2    19   6    4.4720   487.1    4.312      34.737
2015    3        2    19  12    4.4757   486.9    4.322      34.726
2015    3        2    19  17    4.4796   486.7    4.332      34.715
2015    3        2    19  23    4.4832   486.6    4.342      34.704
2015    3        2    19  28    4.4870   486.4    4.351      34.693
2015    3        2    19  33    4.4910   486.2    4.361      34.683
2015    3        2    19  39    4.4947   486.0    4.371      34.672
2015    3        2    19  44    4.4987   485.8    4.381      34.662
2015    3        2    19  50    4.5025   485.6    4.390      34.651
2015    3        2    19  55    4.5064   485.5    4.400      34.641
2015    3        2    20   1    4.5102   485.3    4.409      34.631
2015    3        2    20   6    4.5142   485.1    4.419      34.621
2015    3        2    20  12    4.5181   485.0    4.428      34.611
2015    3        2    20  17    4.5220   484.8    4.438      34.601
2015    3        2    20  23    4.5258   484.6    4.447      34.591
2015    3        2    20  28    4.5298   484.4    4.457      34.581
2015    3        2    20  33    4.5338   484.3    4.466      34.571
2015    3        2    20  39    4.5377   484.1    4.476      34.561
2015    3        2    20  44    4.5417   484.0    4.485      34.551
2015    3        2    20  50    4.5457   483.8    4.495      34.541
2015    3        2    20  55    4.5496   483.6    4.504      34.532
2015    3        2    21   1    4.5537   483.5    4.513      34.522
2015    3        2    21   6    4.5578   483.3    4.523      34.513
2015    3        2    21  12    4.5617   483.2    4.533      34.504
2015    3        2    21  17    4.5659   483.0    4.542      34.495
2015    3        2    21  22    4.5699   482.8    4.552      34.487
2015    3        2    21  28    4.5740   482.7    4.561      34.479
2015    3        2    21  33    4.5779   482.5    4.571      34.471
2015    3        2    21  39    4.5820   482.4    4.580      34.464
2015    3        2    21  44    4.5860   482.3    4.590      34.458
2015    3        2    21  50    4.5900   482.1    4.599      34.452
2015    3        2    21  55    4.5942   482.0    4.609      34.447
2015    3        2    22   1    4.5983   481.8    4.618      34.442
2015    3        2    22   6    4.6023   481.7    4.628      34.437
2015    3        2    22  11    4.6063   481.6    4.637      34.433
2015    3        2    22  17    4.6103   481.4    4.646      34.430
2015    3        2    22  22    4.6144   481.3    4.656      34.427
2015    3        2    22  28    4.6184   481.2    4.665      34.424
2015    3        2    22  33    4.6224   481.1    4.674      34.421
2015    3        2    22  39    4.6265   480.9    4.683      34.419
2015    3        2    22  44    4.6305   480.8    4.693      34.417
2015    3        2    22  50    4.6346   480.7    4.702      34.415
2015    3        2    22  55    4.6386   480.6    4.711      34.413
2015    3        2    23   0    4.6426   480.4    4.720      34.411
2015    3        2    23   6    4.6466   480.3    4.729      34.410
2015    3        2    23  11    4.6507   480.2    4.738      34.408
2015    3        2    23  17    4.6547   480.1    4.747      34.407
2015    3        2    23  22    4.6587   480.0    4.756      34.406
2015    3        2    23  28    4.6627   479.9    4.765      34.404
2015    3        2    23  33    4.6668   479.8    4.773      34.403
2015    3        2    23  39    4.6708   479.6    4.782      34.402
2015    3        2    23  44    4.6749   479.5    4.791      34.401
2015    3        2    23  49    4.6789   479.4    4.800      34.400
2015    3        2    23  55    4.6830   479.3    4.808      34.399
2015    3        3     0   0    4.6871   479.2    4.817      34.399
2015    3        3     0   6    4.6912   479.1    4.826      34.398
2015    3        3     0  11    4.6952   479.0    4.834      34.397
2015    3        3     0  17    4.6993   478.9    4.843      34.396
2015    3        3     0  22    4.7034   478.8    4.851      34.395
2015    3        3     0  28    4.7075   478.7    4.860      34.395
2015    3        3     0  33    4.7117   478.6    4.868      34.394
2015    3        3     0  39    4.7158   478.5    4.877      34.393
2015    3        3     0  44    4.7199   478.4    4.885      34.393
2015    3        3     0  49    4.7241   478.3    4.894      34.392
2015    3        3     0  55    4.7283   478.2    4.902      34.391
2015    3        3     1   0    4.7325   478.1    4.910      34.391
2015    3        3     1   6    4.7367   478.0    4.919      34.390
2015    3        3     1  11    4.7409   477.9    4.927      34.390
2015    3        3     1  17    4.7451   477.8    4.935      34.389
2015    3        3     1  22    4.7493   477.7    4.944      34.389
2015    3        3     1  28    4.7536   477.6    4.952      34.388
2015    3        3     1  33    4.7579   477.5    4.960      34.388
2015    3        3     1  38    4.7622   477.4    4.968      34.388
2015    3        3     1  44    4.7665   477.3    4.977      34.388
2015    3        3     1  49    4.7709   477.2    4.985      34.388
2015    3        3     1  55    4.7752   477.1    4.993      34.388
2015    3        3     2   0    4.7796   477.0    5.002      34.388
2015    3        3     2   6    4.7840   476.9    5.010      34.388
2015    3        3     2  11    4.7884   476.9    5.018      34.389
2015    3        3     2  17    4.7928   476.8    5.027      34.389
2015    3        3     2  22    4.7972   476.7    5.035      34.390
2015    3        3     2  27    4.8017   476.6    5.043      34.391
2015    3        3     2  33    4.8061   476.5    5.052      34.392
2015    3        3     2  38    4.8106   476.4    5.060      34.393
2015    3        3     2  44    4.8150   476.4    5.069      34.395
2015    3        3     2  49    4.8195   476.3    5.077      34.397
2015    3        3     2  55    4.8240   476.2    5.085      34.399
2015    3        3     3   0    4.8284   476.1    5.094      34.401
2015    3        3     3   6    4.8329   476.1    5.102      34.404
2015    3        3     3  11    4.8374   476.0    5.111      34.407
2015    3        3     3  16    4.8419   475.9    5.119      34.410
2015    3        3     3  22    4.8464   475.9    5.128      34.413
2015    3        3     3  27    4.8509   475.8    5.136      34.417
2015    3        3     3  33    4.8553   475.7    5.145      34.421
2015    3        3     3  38    4.8598   475.7    5.153      34.425
2015    3        3     3  44    4.8643   475.6    5.161      34.430
2015    3        3     3  49    4.8687   475.5    5.170      34.435
2015    3        3     3  55    4.8732   475.5    5.178      34.440
2015    3        3     4   0    4.8776   475.4    5.186      34.446
2015    3        3     4   5    4.8820   475.3    5.195      34.452
2015    3        3     4  11    4.8865   475.3    5.203      34.458
2015    3        3     4  16    4.8909   475.2    5.211      34.464
2015    3        3     4  22    4.8953   475.2    5.219      34.471
2015    3        3     4  27    4.8997   475.1    5.227      34.477
2015    3        3     4  33    4.9040   475.1    5.235      34.484
2015    3        3     4  38    4.9084   475.0    5.243      34.492
2015    3        3     4  44    4.9127   475.0    5.251      34.499
2015    3        3     4  49    4.9170   474.9    5.259      34.507
2015    3        3     4  55    4.9213   474.9    5.266      34.514
2015    3        3     5   0    4.9256   474.8    5.274      34.522
2015    3        3     5   5    4.9299   474.8    5.281      34.530
2015    3        3     5  11    4.9341   474.7    5.289      34.538
2015    3        3     5  16    4.9384   474.7    5.296      34.547
2015    3        3     5  22    4.9426   474.6    5.303      34.555
2015    3        3     5  27    4.9468   474.6    5.310      34.563
2015    3        3     5  33    4.9510   474.5    5.317      34.572
2015    3        3     5  38    4.9552   474.5    5.324      34.580
2015    3        3     5  44    4.9593   474.5    5.331      34.588
2015    3        3     5  49    4.9635   474.4    5.338      34.596
2015    3        3     5  54    4.9676   474.4    5.344      34.605
2015    3        3     6   0    4.9718   474.3    5.351      34.612
2015    3        3     6   5    4.9759   474.3    5.357      34.620
2015    3        3     6  11    4.9800   474.3    5.363      34.628
2015    3        3     6  16    4.9841   474.2    5.370      34.635
2015    3        3     6  22    4.9882   474.2    5.376      34.642
2015    3        3     6  27    4.9923   474.1    5.382      34.650
2015    3        3     6  33    4.9964   474.1    5.388      34.657
2015    3        3     6  38    5.0005   474.1    5.394      34.663
2015    3        3     6  43    5.0046   474.0    5.399      34.670
2015    3        3     6  49    5.0087   474.0    5.405      34.677
2015    3        3     6  54    5.0128   474.0    5.411      34.683
2015    3        3     7   0    5.0168   473.9    5.417      34.689
2015    3        3     7   5    5.0209   473.9    5.422      34.696
2015    3        3     7  11    5.0250   473.8    5.428      34.702
2015    3        3     7  16    5.0291   473.8    5.433      34.708
2015    3        3     7  22    5.0332   473.8    5.439      34.714
2015    3        3     7  27    5.0373   473.7    5.444      34.720
2015    3        3     7  32    5.0414   473.7    5.450      34.726
2015    3        3     7  38    5.0455   473.7    5.455      34.732
2015    3        3     7  43    5.0496   473.7    5.461      34.738
2015    3        3     7  49    5.0537   473.6    5.466      34.744
2015    3        3     7  54    5.0578   473.6    5.471      34.750
2015    3        3     8   0    5.0619   473.6    5.476      34.756
2015    3        3     8   5    5.0660   473.5    5.482      34.762
2015    3        3     8  11    5.0701   473.5    5.487      34.768
2015    3        3     8  16    5.0743   473.5    5.492      34.775
2015    3        3     8  21    5.0785   473.4    5.498      34.781
2015    3        3     8  27    5.0827   473.4    5.503      34.788
2015    3        3     8  32    5.0869   473.4    5.508      34.794
2015    3        3     8  38    5.0911   473.4    5.514      34.801
2015    3        3     8  43    5.0953   473.3    5.519      34.809
2015    3        3     8  49    5.0994   473.3    5.524      34.816
2015    3        3     8  54    5.1037   473.3    5.530      34.824
2015    3        3     9   0    5.1079   473.3    5.535      34.831
2015    3        3     9   5    5.1122   473.2    5.541      34.840
2015    3        3     9  11    5.1164   473.2    5.546      34.848
2015    3        3     9  16    5.1207   473.2    5.552      34.857
2015    3        3     9  21    5.1250   473.2    5.558      34.866
2015    3        3     9  27    5.1292   473.2    5.563      34.875
2015    3        3     9  32    5.1335   473.2    5.569      34.885
2015    3        3     9  38    5.1377   473.1    5.575      34.895
2015    3        3     9  43    5.1420   473.1    5.580      34.905
2015    3        3     9  49    5.1464   473.1    5.586      34.916
2015    3        3     9  54    5.1507   473.1    5.592      34.927
2015    3        3    10   0    5.1550   473.1    5.598      34.938
2015    3        3    10   5    5.1593   473.1    5.604      34.950
2015    3        3    10  10    5.1635   473.1    5.610      34.962
2015    3        3    10  16    5.1678   473.0    5.616      34.975
2015    3        3    10  21    5.1722   473.0    5.622      34.988
2015    3        3    10  27    5.1764   473.0    5.628      35.001
2015    3        3    10  32    5.1807   473.0    5.634      35.015
2015    3        3    10  38    5.1850   473.0    5.640      35.029
2015    3        3    10  43    5.1893   473.0    5.646      35.044
2015    3        3    10  49    5.1935   473.0    5.652      35.059
2015    3        3    10  54    5.1978   473.0    5.658      35.074
2015    3        3    10  59    5.2020   473.0    5.664      35.090
2015    3        3    11   5    5.2061   473.0    5.669      35.106
2015    3        3    11  10    5.2103   473.0    5.675      35.122
2015    3        3    11  16    5.2144   473.0    5.680      35.138
2015    3        3    11  21    5.2187   473.0    5.686      35.154
2015    3        3    11  27    5.2228   473.0    5.691      35.170
2015    3        3    11  32    5.2269   473.0    5.696      35.187
2015    3        3    11  38    5.2310   473.0    5.701      35.202
2015    3        3    11  43    5.2350   473.0    5.705      35.218
2015    3        3    11  48    5.2391   473.0    5.710      35.233
2015    3        3    11  54    5.2431   473.0    5.715      35.249
2015    3        3    11  59    5.2471   473.0    5.719      35.264
2015    3        3    12   5    5.2511   473.0    5.723      35.278
2015    3        3    12  10    5.2551   473.1    5.728      35.293
2015    3        3    12  16    5.2590   473.1    5.732      35.306
2015    3        3    12  21    5.2630   473.1    5.736      35.320
2015    3        3    12  27    5.2668   473.1    5.740      35.334
2015    3        3    12  32    5.2708   473.1    5.743      35.347
2015    3        3    12  38    5.2748   473.1    5.747      35.360
2015    3        3    12  43    5.2786   473.1    5.751      35.372
2015    3        3    12  48    5.2825   473.1    5.754      35.385
2015    3        3    12  54    5.2864   473.1    5.758      35.397
2015    3        3    12  59    5.2902   473.1    5.761      35.409
2015    3        3    13   5    5.2942   473.1    5.765      35.421
2015    3        3    13  10    5.2980   473.1    5.768      35.432
2015    3        3    13  16    5.3018   473.1    5.771      35.444
2015    3        3    13  21    5.3057   473.1    5.774      35.455
2015    3        3    13  27    5.3095   473.1    5.777      35.466
2015    3        3    13  32    5.3134   473.2    5.781      35.477
2015    3        3    13  37    5.3172   473.2    5.784      35.489
2015    3        3    13  43    5.3210   473.2    5.787      35.499
2015    3        3    13  48    5.3248   473.2    5.790      35.510
2015    3        3    13  54    5.3287   473.2    5.793      35.521
2015    3        3    13  59    5.3325   473.2    5.796      35.532
2015    3        3    14   5    5.3363   473.2    5.799      35.543
2015    3        3    14  10    5.3402   473.2    5.802      35.553
2015    3        3    14  16    5.3440   473.2    5.805      35.564
2015    3        3    14  21    5.3478   473.2    5.807      35.575
2015    3        3    14  26    5.3516   473.3    5.810      35.586
2015    3        3    14  32    5.3555   473.3    5.813      35.597
2015    3        3    14  37    5.3593   473.3    5.816      35.608
2015    3        3    14  43    5.3632   473.3    5.819      35.619
2015    3        3    14  48    5.3670   473.3    5.822      35.631
2015    3        3    14  54    5.3709   473.3    5.825      35.642
2015    3        3    14  59    5.3748   473.3    5.828      35.654
2015    3        3    15   5    5.3787   473.3    5.831      35.666
2015    3        3    15  10    5.3825   473.4    5.834      35.678
2015    3        3    15  15    5.3865   473.4    5.837      35.691
2015    3        3    15  21    5.3904   473.4    5.840      35.704
2015    3        3    15  26    5.3943   473.4    5.843      35.717
2015    3        3    15  32    5.3983   473.4    5.846      35.731
2015    3        3    15  37    5.4022   473.4    5.850      35.745
2015    3        3    15  43    5.4062   473.5    5.853      35.760
2015    3        3    15  48    5.4101   473.5    5.856      35.775
2015    3        3    15  54    5.4141   473.5    5.859      35.790
2015    3        3    15  59    5.4181   473.5    5.863      35.806
2015    3        3    16   4    5.4221   473.6    5.866      35.822
2015    3        3    16  10    5.4261   473.6    5.869      35.838
2015    3        3    16  15    5.4302   473.6    5.873      35.855
2015    3        3    16  21    5.4341   473.6    5.876      35.872
2015    3        3    16  26    5.4382   473.7    5.880      35.889
2015    3        3    16  32    5.4422   473.7    5.883      35.907
2015    3        3    16  37    5.4461   473.7    5.887      35.925
2015    3        3    16  43    5.4501   473.8    5.890      35.943
2015    3        3    16  48    5.4542   473.8    5.894      35.962
2015    3        3    16  54    5.4581   473.8    5.897      35.980
2015    3        3    16  59    5.4621   473.9    5.901      35.999
2015    3        3    17   4    5.4662   473.9    5.905      36.019
2015    3        3    17  10    5.4701   473.9    5.908      36.038
2015    3        3    17  15    5.4741   473.9    5.912      36.059
2015    3        3    17  21    5.4781   474.0    5.915      36.079
2015    3        3    17  26    5.4820   474.0    5.919      36.099
2015    3        3    17  32    5.4860   474.1    5.923      36.120
2015    3        3    17  37    5.4899   474.1    5.926      36.142
2015    3        3    17  43    5.4938   474.1    5.929      36.164
2015    3        3    17  48    5.4977   474.2    5.933      36.186
2015    3        3    17  53    5.5015   474.2    5.936      36.209
2015    3        3    17  59    5.5054   474.2    5.939      36.232
2015    3        3    18   4    5.5093   474.3    5.942      36.255
2015    3        3    18  10    5.5132   474.3    5.945      36.278
2015    3        3    18  15    5.5170   474.4    5.948      36.301
2015    3        3    18  21    5.5209   474.4    5.951      36.324
2015    3        3    18  26    5.5247   474.4    5.954      36.347
2015    3        3    18  32    5.5284   474.5    5.956      36.370
2015    3        3    18  37    5.5323   474.5    5.959      36.393
2015    3        3    18  42    5.5360   474.6    5.961      36.416
2015    3        3    18  48    5.5397   474.6    5.963      36.438
2015    3        3    18  53    5.5435   474.7    5.965      36.460
2015    3        3    18  59    5.5472   474.7    5.967      36.481
2015    3        3    19   4    5.5509   474.7    5.969      36.503
2015    3        3    19  10    5.5546   474.8    5.971      36.523
2015    3        3    19  15    5.5583   474.8    5.973      36.544
2015    3        3    19  21    5.5620   474.9    5.975      36.564
2015    3        3    19  26    5.5656   474.9    5.976      36.584
2015    3        3    19  31    5.5693   474.9    5.978      36.604
2015    3        3    19  37    5.5730   475.0    5.980      36.623
2015    3        3    19  42    5.5766   475.0    5.981      36.643
2015    3        3    19  48    5.5803   475.1    5.982      36.662
2015    3        3    19  53    5.5839   475.1    5.984      36.681
2015    3        3    19  59    5.5875   475.2    5.985      36.699
2015    3        3    20   4    5.5912   475.2    5.986      36.718
2015    3        3    20  10    5.5948   475.2    5.988      36.736
2015    3        3    20  15    5.5983   475.3    5.989      36.755
2015    3        3    20  20    5.6020   475.3    5.990      36.773
2015    3        3    20  26    5.6055   475.4    5.991      36.791
2015    3        3    20  31    5.6091   475.4    5.992      36.809
2015    3        3    20  37    5.6128   475.5    5.993      36.827
2015    3        3    20  42    5.6164   475.5    5.995      36.845
2015    3        3    20  48    5.6200   475.5    5.996      36.863
2015    3        3    20  53    5.6236   475.6    5.997      36.881
2015    3        3    20  59    5.6272   475.6    5.998      36.899
2015    3        3    21   4    5.6308   475.7    5.999      36.917
2015    3        3    21   9    5.6344   475.7    6.000      36.935
2015    3        3    21  15    5.6381   475.8    6.002      36.953
2015    3        3    21  20    5.6417   475.8    6.003      36.972
2015    3        3    21  26    5.6454   475.9    6.004      36.990
2015    3        3    21  31    5.6490   475.9    6.005      37.009
2015    3        3    21  37    5.6527   476.0    6.007      37.028
2015    3        3    21  42    5.6563   476.0    6.008      37.047
2015    3        3    21  48    5.6600   476.1    6.010      37.066
2015    3        3    21  53    5.6637   476.1    6.011      37.086
2015    3        3    21  59    5.6674   476.2    6.013      37.106
2015    3        3    22   4    5.6712   476.2    6.014      37.126
2015    3        3    22   9    5.6749   476.3    6.016      37.147
2015    3        3    22  15    5.6787   476.3    6.018      37.168
2015    3        3    22  20    5.6825   476.4    6.020      37.190
2015    3        3    22  26    5.6863   476.4    6.022      37.212
2015    3        3    22  31    5.6901   476.5    6.024      37.235
2015    3        3    22  37    5.6939   476.6    6.026      37.258
2015    3        3    22  42    5.6978   476.6    6.028      37.282
2015    3        3    22  48    5.7017   476.7    6.030      37.307
2015    3        3    22  53    5.7055   476.7    6.033      37.332
2015    3        3    22  58    5.7095   476.8    6.035      37.358
2015    3        3    23   4    5.7134   476.9    6.037      37.385
2015    3        3    23   9    5.7173   476.9    6.040      37.411
2015    3        3    23  15    5.7212   477.0    6.042      37.439
2015    3        3    23  20    5.7252   477.1    6.044      37.467
2015    3        3    23  26    5.7291   477.1    6.047      37.495
2015    3        3    23  31    5.7330   477.2    6.049      37.524
2015    3        3    23  37    5.7369   477.3    6.052      37.554
2015    3        3    23  42    5.7409   477.3    6.054      37.585
2015    3        3    23  47    5.7448   477.4    6.056      37.616
2015    3        3    23  53    5.7487   477.5    6.058      37.648
2015    3        3    23  58    5.7526   477.5    6.061      37.680
2015    3        4     0   4    5.7565   477.6    6.063      37.712
2015    3        4     0   9    5.7604   477.7    6.065      37.745
2015    3        4     0  15    5.7642   477.8    6.067      37.778
2015    3        4     0  20    5.7680   477.8    6.069      37.811
2015    3        4     0  26    5.7719   477.9    6.070      37.845
2015    3        4     0  31    5.7757   478.0    6.072      37.879
2015    3        4     0  36    5.7795   478.0    6.074      37.913
2015    3        4     0  42    5.7832   478.1    6.075      37.947
2015    3        4     0  47    5.7870   478.2    6.077      37.980
2015    3        4     0  53    5.7907   478.3    6.078      38.014
2015    3        4     0  58    5.7944   478.3    6.079      38.048
2015    3        4     1   4    5.7981   478.4    6.080      38.081
2015    3        4     1   9    5.8018   478.5    6.081      38.115
2015    3        4     1  15    5.8055   478.6    6.082      38.148
2015    3        4     1  20    5.8092   478.6    6.083      38.181
2015    3        4     1  26    5.8129   478.7    6.083      38.214
2015    3        4     1  31    5.8165   478.8    6.084      38.246
2015    3        4     1  36    5.8202   478.9    6.084      38.278
2015    3        4     1  42    5.8238   478.9    6.085      38.310
2015    3        4     1  47    5.8274   479.0    6.085      38.342
2015    3        4     1  53    5.8310   479.1    6.085      38.373
2015    3        4     1  58    5.8346   479.2    6.085      38.404
2015    3        4     2   4    5.8382   479.3    6.085      38.435
2015    3        4     2   9    5.8418   479.3    6.085      38.466
2015    3        4     2  15    5.8454   479.4    6.085      38.496
2015    3        4     2  20    5.8489   479.5    6.085      38.526
2015    3        4     2  25    5.8525   479.6    6.085      38.556
2015    3        4     2  31    5.8561   479.6    6.085      38.586
2015    3        4     2  36    5.8596   479.7    6.085      38.615
2015    3        4     2  42    5.8631   479.8    6.084      38.644
2015    3        4     2  47    5.8666   479.9    6.084      38.673
2015    3        4     2  53    5.8702   479.9    6.084      38.701
2015    3        4     2  58    5.8737   480.0    6.084      38.730
2015    3        4     3   4    5.8772   480.1    6.083      38.758
2015    3        4     3   9    5.8807   480.2    6.083      38.786
2015    3        4     3  14    5.8842   480.2    6.082      38.814
2015    3        4     3  20    5.8877   480.3    6.082      38.842
2015    3        4     3  25    5.8912   480.4    6.081      38.870
2015    3        4     3  31    5.8947   480.5    6.081      38.898
2015    3        4     3  36    5.8982   480.5    6.081      38.925
2015    3        4     3  42    5.9016   480.6    6.080      38.953
2015    3        4     3  47    5.9051   480.7    6.080      38.981
2015    3        4     3  53    5.9085   480.8    6.079      39.008
2015    3        4     3  58    5.9120   480.9    6.079      39.036
2015    3        4     4   3    5.9155   480.9    6.078      39.064
2015    3        4     4   9    5.9190   481.0    6.078      39.092
2015    3        4     4  14    5.9225   481.1    6.078      39.120
2015    3        4     4  20    5.9259   481.2    6.077      39.148
2015    3        4     4  25    5.9293   481.3    6.077      39.176
2015    3        4     4  31    5.9329   481.3    6.077      39.205
2015    3        4     4  36    5.9364   481.4    6.076      39.234
2015    3        4     4  42    5.9399   481.5    6.076      39.263
2015    3        4     4  47    5.9433   481.6    6.076      39.292
2015    3        4     4  52    5.9468   481.7    6.076      39.322
2015    3        4     4  58    5.9504   481.8    6.076      39.352
2015    3        4     5   3    5.9539   481.8    6.077      39.383
2015    3        4     5   9    5.9574   481.9    6.077      39.413
2015    3        4     5  14    5.9610   482.0    6.077      39.445
2015    3        4     5  20    5.9645   482.1    6.078      39.476
2015    3        4     5  25    5.9681   482.2    6.078      39.508
2015    3        4     5  31    5.9717   482.3    6.079      39.541
2015    3        4     5  36    5.9754   482.4    6.080      39.575
2015    3        4     5  42    5.9790   482.4    6.081      39.609
2015    3        4     5  47    5.9828   482.5    6.082      39.644
2015    3        4     5  52    5.9865   482.6    6.083      39.679
2015    3        4     5  58    5.9902   482.7    6.085      39.716
2015    3        4     6   3    5.9939   482.8    6.086      39.753
2015    3        4     6   9    5.9977   482.9    6.088      39.791
2015    3        4     6  14    6.0014   483.0    6.089      39.829
2015    3        4     6  20    6.0053   483.1    6.091      39.869
2015    3        4     6  25    6.0091   483.2    6.093      39.910
2015    3        4     6  31    6.0128   483.3    6.095      39.953
2015    3        4     6  36    6.0166   483.4    6.097      39.996
2015    3        4     6  41    6.0205   483.5    6.099      40.041
2015    3        4     6  47    6.0242   483.6    6.101      40.087
2015    3        4     6  52    6.0281   483.7    6.103      40.135
2015    3        4     6  58    6.0319   483.8    6.104      40.184
2015    3        4     7   3    6.0356   483.9    6.106      40.233
2015    3        4     7   9    6.0393   484.0    6.108      40.284
2015    3        4     7  14    6.0430   484.2    6.109      40.336
2015    3        4     7  20    6.0466   484.3    6.111      40.388
2015    3        4     7  25    6.0504   484.4    6.112      40.441
2015    3        4     7  30    6.0540   484.5    6.113      40.494
2015    3        4     7  36    6.0576   484.6    6.114      40.547
2015    3        4     7  41    6.0612   484.7    6.115      40.600
2015    3        4     7  47    6.0648   484.8    6.115      40.654
2015    3        4     7  52    6.0683   485.0    6.116      40.707
2015    3        4     7  58    6.0719   485.1    6.116      40.760
2015    3        4     8   3    6.0754   485.2    6.117      40.812
2015    3        4     8   9    6.0789   485.3    6.117      40.864
2015    3        4     8  14    6.0825   485.4    6.117      40.916
2015    3        4     8  19    6.0860   485.5    6.117      40.967
2015    3        4     8  25    6.0894   485.7    6.117      41.018
2015    3        4     8  30    6.0929   485.8    6.117      41.069
2015    3        4     8  36    6.0964   485.9    6.116      41.118
2015    3        4     8  41    6.0998   486.0    6.116      41.168
2015    3        4     8  47    6.1032   486.1    6.115      41.217
2015    3        4     8  52    6.1067   486.3    6.115      41.266
2015    3        4     8  58    6.1101   486.4    6.114      41.314
2015    3        4     9   3    6.1136   486.5    6.114      41.362
2015    3        4     9   8    6.1169   486.6    6.113      41.410
2015    3        4     9  14    6.1203   486.7    6.112      41.457
2015    3        4     9  19    6.1237   486.9    6.111      41.505
2015    3        4     9  25    6.1270   487.0    6.110      41.552
2015    3        4     9  30    6.1304   487.1    6.109      41.599
2015    3        4     9  36    6.1337   487.2    6.108      41.647
2015    3        4     9  41    6.1369   487.4    6.107      41.694
2015    3        4     9  47    6.1402   487.5    6.106      41.740
2015    3        4     9  52    6.1434   487.6    6.104      41.787
2015    3        4     9  58    6.1467   487.8    6.103      41.833
2015    3        4    10   3    6.1499   487.9    6.101      41.880
2015    3        4    10   8    6.1531   488.0    6.100      41.925
2015    3        4    10  14    6.1562   488.1    6.098      41.971
2015    3        4    10  19    6.1594   488.3    6.096      42.017
2015    3        4    10  25    6.1625   488.4    6.094      42.062
2015    3        4    10  30    6.1657   488.5    6.093      42.106
2015    3        4    10  36    6.1688   488.7    6.091      42.151
2015    3        4    10  41    6.1719   488.8    6.089      42.195
2015    3        4    10  47    6.1749   488.9    6.087      42.239
2015    3        4    10  52    6.1780   489.1    6.085      42.282
2015    3        4    10  57    6.1810   489.2    6.082      42.325
2015    3        4    11   3    6.1841   489.3    6.080      42.368
2015    3        4    11   8    6.1871   489.5    6.078      42.411
2015    3        4    11  14    6.1902   489.6    6.076      42.454
2015    3        4    11  19    6.1931   489.7    6.074      42.496
2015    3        4    11  25    6.1961   489.9    6.071      42.539
2015    3        4    11  30    6.1991   490.0    6.069      42.581
2015    3        4    11  36    6.2021   490.1    6.067      42.623
2015    3        4    11  41    6.2051   490.3    6.064      42.665
2015    3        4    11  46    6.2082   490.4    6.062      42.707
2015    3        4    11  52    6.2111   490.5    6.060      42.749
2015    3        4    11  57    6.2142   490.7    6.058      42.791
2015    3        4    12   3    6.2171   490.8    6.055      42.833
2015    3        4    12   8    6.2201   490.9    6.053      42.875
2015    3        4    12  14    6.2232   491.1    6.051      42.917
2015    3        4    12  19    6.2262   491.2    6.049      42.959
2015    3        4    12  25    6.2293   491.3    6.047      43.001
2015    3        4    12  30    6.2323   491.5    6.045      43.044
2015    3        4    12  35    6.2353   491.6    6.043      43.087
2015    3        4    12  41    6.2384   491.7    6.041      43.130
2015    3        4    12  46    6.2413   491.9    6.039      43.173
2015    3        4    12  52    6.2444   492.0    6.037      43.216
2015    3        4    12  57    6.2475   492.1    6.036      43.260
2015    3        4    13   3    6.2505   492.3    6.034      43.305
2015    3        4    13   8    6.2536   492.4    6.033      43.349
2015    3        4    13  14    6.2567   492.6    6.031      43.394
2015    3        4    13  19    6.2599   492.7    6.030      43.440
2015    3        4    13  24    6.2630   492.8    6.029      43.486
2015    3        4    13  30    6.2661   493.0    6.028      43.532
2015    3        4    13  35    6.2692   493.1    6.027      43.579
2015    3        4    13  41    6.2723   493.3    6.026      43.627
2015    3        4    13  46    6.2754   493.4    6.026      43.677
2015    3        4    13  52    6.2785   493.6    6.025      43.727
2015    3        4    13  57    6.2816   493.7    6.024      43.779
2015    3        4    14   3    6.2847   493.9    6.024      43.831
2015    3        4    14   8    6.2876   494.0    6.023      43.885
2015    3        4    14  14    6.2906   494.2    6.023      43.939
2015    3        4    14  19    6.2936   494.3    6.023      43.994
2015    3        4    14  24    6.2966   494.5    6.022      44.050
2015    3        4    14  30    6.2996   494.6    6.022      44.107
2015    3        4    14  35    6.3025   494.8    6.021      44.164
2015    3        4    14  41    6.3056   494.9    6.021      44.223
2015    3        4    14  46    6.3085   495.1    6.020      44.282
2015    3        4    14  52    6.3112   495.3    6.019      44.342
2015    3        4    14  57    6.3141   495.4    6.019      44.402
2015    3        4    15   3    6.3169   495.6    6.018      44.462
2015    3        4    15   8    6.3197   495.8    6.017      44.522
2015    3        4    15  13    6.3225   495.9    6.016      44.583
2015    3        4    15  19    6.3255   496.1    6.015      44.643
2015    3        4    15  24    6.3282   496.3    6.014      44.703
2015    3        4    15  30    6.3309   496.4    6.013      44.764
2015    3        4    15  35    6.3338   496.6    6.012      44.824
2015    3        4    15  41    6.3365   496.8    6.011      44.883
2015    3        4    15  46    6.3392   496.9    6.010      44.943
2015    3        4    15  52    6.3420   497.1    6.009      45.003
2015    3        4    15  57    6.3447   497.3    6.008      45.062
2015    3        4    16   2    6.3474   497.5    6.007      45.122
2015    3        4    16   8    6.3501   497.6    6.005      45.182
2015    3        4    16  13    6.3528   497.8    6.004      45.242
2015    3        4    16  19    6.3553   498.0    6.002      45.302
2015    3        4    16  24    6.3581   498.2    6.001      45.362
2015    3        4    16  30    6.3607   498.3    5.999      45.422
2015    3        4    16  35    6.3633   498.5    5.998      45.482
2015    3        4    16  41    6.3659   498.7    5.996      45.543
2015    3        4    16  46    6.3684   498.9    5.994      45.603
2015    3        4    16  51    6.3710   499.1    5.992      45.664
2015    3        4    16  57    6.3735   499.2    5.990      45.725
2015    3        4    17   2    6.3759   499.4    5.988      45.785
2015    3        4    17   8    6.3783   499.6    5.985      45.845
2015    3        4    17  13    6.3808   499.8    5.983      45.904
2015    3        4    17  19    6.3832   500.0    5.980      45.964
2015    3        4    17  24    6.3856   500.2    5.978      46.023
2015    3        4    17  30    6.3880   500.4    5.975      46.081
2015    3        4    17  35    6.3903   500.5    5.972      46.139
2015    3        4    17  40    6.3925   500.7    5.969      46.196
2015    3        4    17  46    6.3949   500.9    5.966      46.253
2015    3        4    17  51    6.3972   501.1    5.963      46.310
2015    3        4    17  57    6.3994   501.3    5.959      46.366
2015    3        4    18   2    6.4017   501.5    5.956      46.422
2015    3        4    18   8    6.4038   501.7    5.953      46.477
2015    3        4    18  13    6.4062   501.9    5.949      46.532
2015    3        4    18  19    6.4083   502.1    5.946      46.587
2015    3        4    18  24    6.4105   502.2    5.942      46.641
2015    3        4    18  30    6.4128   502.4    5.939      46.694
2015    3        4    18  35    6.4150   502.6    5.935      46.748
2015    3        4    18  40    6.4170   502.8    5.931      46.801
2015    3        4    18  46    6.4193   503.0    5.928      46.854
2015    3        4    18  51    6.4214   503.2    5.924      46.906
2015    3        4    18  57    6.4235   503.4    5.920      46.959
2015    3        4    19   2    6.4257   503.6    5.916      47.011
2015    3        4    19   8    6.4278   503.8    5.912      47.062
2015    3        4    19  13    6.4300   504.0    5.908      47.114
2015    3        4    19  19    6.4322   504.2    5.905      47.165
2015    3        4    19  24    6.4343   504.4    5.901      47.217
2015    3        4    19  29    6.4364   504.5    5.897      47.268
2015    3        4    19  35    6.4384   504.7    5.893      47.319
2015    3        4    19  40    6.4404   504.9    5.889      47.370
2015    3        4    19  46    6.4426   505.1    5.885      47.421
2015    3        4    19  51    6.4446   505.3    5.881      47.471
2015    3        4    19  57    6.4466   505.5    5.877      47.522
2015    3        4    20   2    6.4488   505.7    5.873      47.573
2015    3        4    20   8    6.4508   505.9    5.870      47.624
2015    3        4    20  13    6.4528   506.1    5.866      47.675
2015    3        4    20  18    6.4548   506.3    5.862      47.726
2015    3        4    20  24    6.4568   506.5    5.858      47.777
2015    3        4    20  29    6.4588   506.7    5.855      47.829
2015    3        4    20  35    6.4607   506.9    5.851      47.880
2015    3        4    20  40    6.4627   507.1    5.847      47.931
2015    3        4    20  46    6.4645   507.3    5.844      47.983
2015    3        4    20  51    6.4664   507.5    5.840      48.034
2015    3        4    20  57    6.4684   507.7    5.837      48.086
2015    3        4    21   2    6.4703   507.9    5.833      48.138
2015    3        4    21   7    6.4722   508.1    5.830      48.190
2015    3        4    21  13    6.4741   508.3    5.826      48.242
2015    3        4    21  18    6.4759   508.5    5.823      48.294
2015    3        4    21  24    6.4776   508.7    5.820      48.346
2015    3        4    21  29    6.4794   508.9    5.817      48.398
2015    3        4    21  35    6.4812   509.1    5.814      48.450
2015    3        4    21  40    6.4830   509.3    5.811      48.503
2015    3        4    21  46    6.4848   509.5    5.808      48.556
2015    3        4    21  51    6.4866   509.7    5.805      48.609
2015    3        4    21  56    6.4882   509.9    5.802      48.663
2015    3        4    22   2    6.4901   510.1    5.799      48.717
2015    3        4    22   7    6.4918   510.4    5.796      48.771
2015    3        4    22  13    6.4935   510.6    5.793      48.825
2015    3        4    22  18    6.4952   510.8    5.790      48.879
2015    3        4    22  24    6.4968   511.0    5.787      48.933
2015    3        4    22  29    6.4985   511.2    5.785      48.987
2015    3        4    22  35    6.5001   511.4    5.782      49.041
2015    3        4    22  40    6.5018   511.6    5.779      49.096
2015    3        4    22  46    6.5034   511.8    5.776      49.150
2015    3        4    22  51    6.5051   512.0    5.773      49.203
2015    3        4    22  56    6.5067   512.3    5.770      49.257
2015    3        4    23   2    6.5083   512.5    5.768      49.310
2015    3        4    23   7    6.5099   512.7    5.765      49.363
2015    3        4    23  13    6.5116   512.9    5.762      49.417
2015    3        4    23  18    6.5132   513.1    5.759      49.471
2015    3        4    23  24    6.5148   513.3    5.756      49.526
2015    3        4    23  29    6.5162   513.5    5.753      49.581
2015    3        4    23  35    6.5179   513.8    5.751      49.636
2015    3        4    23  40    6.5194   514.0    5.748      49.692
2015    3        4    23  45    6.5209   514.2    5.745      49.748
2015    3        4    23  51    6.5225   514.4    5.741      49.803
2015    3        4    23  56    6.5241   514.6    5.738      49.859
2015    3        5     0   2    6.5256   514.9    5.735      49.915
2015    3        5     0   7    6.5271   515.1    5.732      49.971
2015    3        5     0  13    6.5285   515.3    5.728      50.028
2015    3        5     0  18    6.5300   515.5    5.725      50.084
2015    3        5     0  24    6.5314   515.8    5.721      50.139
2015    3        5     0  29    6.5328   516.0    5.717      50.194
2015    3        5     0  34    6.5342   516.2    5.713      50.249
2015    3        5     0  40    6.5355   516.4    5.710      50.303
2015    3        5     0  45    6.5369   516.6    5.706      50.358
2015    3        5     0  51    6.5382   516.9    5.702      50.411
2015    3        5     0  56    6.5395   517.1    5.698      50.465
2015    3        5     1   2    6.5408   517.3    5.693      50.519
2015    3        5     1   7    6.5422   517.5    5.689      50.572
2015    3        5     1  13    6.5434   517.8    5.685      50.625
2015    3        5     1  18    6.5447   518.0    5.681      50.677
2015    3        5     1  23    6.5460   518.2    5.677      50.730
2015    3        5     1  29    6.5473   518.4    5.673      50.783
2015    3        5     1  34    6.5484   518.6    5.668      50.835
2015    3        5     1  40    6.5498   518.9    5.664      50.888
2015    3        5     1  45    6.5510   519.1    5.660      50.940
2015    3        5     1  51    6.5523   519.3    5.656      50.993
2015    3        5     1  56    6.5534   519.5    5.652      51.046
2015    3        5     2   2    6.5548   519.8    5.647      51.098
2015    3        5     2   7    6.5559   520.0    5.643      51.151
2015    3        5     2  12    6.5572   520.2    5.639      51.204
2015    3        5     2  18    6.5583   520.4    5.635      51.258
2015    3        5     2  23    6.5595   520.7    5.631      51.312
2015    3        5     2  29    6.5607   520.9    5.627      51.365
2015    3        5     2  34    6.5617   521.1    5.623      51.419
2015    3        5     2  40    6.5629   521.3    5.618      51.474
2015    3        5     2  45    6.5640   521.6    5.614      51.528
2015    3        5     2  51    6.5650   521.8    5.610      51.582
2015    3        5     2  56    6.5660   522.0    5.606      51.636
2015    3        5     3   2    6.5670   522.3    5.601      51.689
2015    3        5     3   7    6.5680   522.5    5.597      51.743
2015    3        5     3  12    6.5690   522.7    5.593      51.796
2015    3        5     3  18    6.5699   523.0    5.588      51.849
2015    3        5     3  23    6.5708   523.2    5.584      51.902
2015    3        5     3  29    6.5716   523.4    5.579      51.954
2015    3        5     3  34    6.5725   523.7    5.575      52.006
2015    3        5     3  40    6.5733   523.9    5.571      52.058
2015    3        5     3  45    6.5742   524.1    5.566      52.109
2015    3        5     3  51    6.5750   524.4    5.561      52.160
2015    3        5     3  56    6.5757   524.6    5.557      52.211
2015    3        5     4   1    6.5764   524.8    5.552      52.261
2015    3        5     4   7    6.5772   525.1    5.548      52.311
2015    3        5     4  12    6.5778   525.3    5.543      52.361
2015    3        5     4  18    6.5785   525.5    5.539      52.410
2015    3        5     4  23    6.5792   525.8    5.534      52.460
2015    3        5     4  29    6.5799   526.0    5.530      52.509
2015    3        5     4  34    6.5807   526.2    5.525      52.558
2015    3        5     4  40    6.5813   526.5    5.521      52.607
2015    3        5     4  45    6.5820   526.7    5.516      52.655
2015    3        5     4  50    6.5825   526.9    5.512      52.704
2015    3        5     4  56    6.5831   527.2    5.508      52.752
2015    3        5     5   1    6.5838   527.4    5.503      52.800
2015    3        5     5   7    6.5843   527.6    5.499      52.849
2015    3        5     5  12    6.5849   527.9    5.495      52.897
2015    3        5     5  18    6.5856   528.1    5.490      52.944
2015    3        5     5  23    6.5861   528.3    5.486      52.992
2015    3        5     5  29    6.5867   528.5    5.482      53.039
2015    3        5     5  34    6.5873   528.8    5.478      53.087
2015    3        5     5  39    6.5879   529.0    5.474      53.134
2015    3        5     5  45    6.5884   529.2    5.469      53.181
2015    3        5     5  50    6.5889   529.5    5.465      53.228
2015    3        5     5  56    6.5895   529.7    5.461      53.276
2015    3        5     6   1    6.5900   529.9    5.457      53.323
2015    3        5     6   7    6.5904   530.2    5.453      53.370
2015    3        5     6  12    6.5911   530.4    5.449      53.417
2015    3        5     6  18    6.5916   530.6    5.445      53.464
2015    3        5     6  23    6.5920   530.9    5.441      53.511
2015    3        5     6  29    6.5926   531.1    5.438      53.558
2015    3        5     6  34    6.5931   531.3    5.434      53.605
2015    3        5     6  39    6.5936   531.6    5.430      53.653
2015    3        5     6  45    6.5940   531.8    5.426      53.701
2015    3        5     6  50    6.5946   532.0    5.422      53.749
2015    3        5     6  56    6.5950   532.3    5.418      53.797
2015    3        5     7   1    6.5955   532.5    5.414      53.845
2015    3        5     7   7    6.5961   532.7    5.411      53.894
2015    3        5     7  12    6.5965   533.0    5.407      53.943
2015    3        5     7  18    6.5970   533.2    5.403      53.992
2015    3        5     7  23    6.5975   533.4    5.399      54.042
2015    3        5     7  28    6.5980   533.7    5.395      54.093
2015    3        5     7  34    6.5983   533.9    5.391      54.143
2015    3        5     7  39    6.5987   534.2    5.387      54.194
2015    3        5     7  45    6.5991   534.4    5.383      54.244
2015    3        5     7  50    6.5995   534.6    5.379      54.294
2015    3        5     7  56    6.6000   534.9    5.375      54.344
2015    3        5     8   1    6.6002   535.1    5.371      54.394
2015    3        5     8   7    6.6006   535.3    5.366      54.444
2015    3        5     8  12    6.6008   535.6    5.362      54.493
2015    3        5     8  17    6.6012   535.8    5.357      54.542
2015    3        5     8  23    6.6014   536.1    5.353      54.591
2015    3        5     8  28    6.6016   536.3    5.348      54.639
2015    3        5     8  34    6.6018   536.5    5.344      54.686
2015    3        5     8  39    6.6019   536.8    5.339      54.733
2015    3        5     8  45    6.6021   537.0    5.334      54.781
2015    3        5     8  50    6.6023   537.2    5.330      54.827
2015    3        5     8  56    6.6025   537.5    5.325      54.873
2015    3        5     9   1    6.6027   537.7    5.320      54.920
2015    3        5     9   6    6.6028   537.9    5.316      54.966
2015    3        5     9  12    6.6029   538.2    5.311      55.012
2015    3        5     9  17    6.6029   538.4    5.307      55.057
2015    3        5     9  23    6.6030   538.6    5.302      55.103
2015    3        5     9  28    6.6031   538.9    5.298      55.149
2015    3        5     9  34    6.6032   539.1    5.293      55.194
2015    3        5     9  39    6.6032   539.3    5.289      55.240
2015    3        5     9  45    6.6034   539.6    5.284      55.286
2015    3        5     9  50    6.6034   539.8    5.280      55.333
2015    3        5     9  55    6.6033   540.0    5.275      55.379
2015    3        5    10   1    6.6034   540.3    5.271      55.425
2015    3        5    10   6    6.6033   540.5    5.266      55.471
2015    3        5    10  12    6.6033   540.7    5.262      55.516
2015    3        5    10  17    6.6032   541.0    5.258      55.562
2015    3        5    10  23    6.6030   541.2    5.253      55.607
2015    3        5    10  28    6.6030   541.4    5.249      55.652
2015    3        5    10  34    6.6028   541.7    5.244      55.697
2015    3        5    10  39    6.6028   541.9    5.240      55.742
2015    3        5    10  45    6.6026   542.1    5.235      55.786
2015    3        5    10  50    6.6025   542.4    5.231      55.831
2015    3        5    10  55    6.6023   542.6    5.226      55.875
2015    3        5    11   1    6.6021   542.8    5.222      55.918
2015    3        5    11   6    6.6019   543.1    5.217      55.962
2015    3        5    11  12    6.6018   543.3    5.213      56.006
2015    3        5    11  17    6.6016   543.5    5.209      56.049
2015    3        5    11  23    6.6014   543.8    5.205      56.093
2015    3        5    11  28    6.6010   544.0    5.200      56.137
2015    3        5    11  34    6.6010   544.2    5.196      56.181
2015    3        5    11  39    6.6006   544.5    5.192      56.226
2015    3        5    11  44    6.6004   544.7    5.188      56.270
2015    3        5    11  50    6.6002   544.9    5.184      56.315
2015    3        5    11  55    6.6000   545.2    5.180      56.360
2015    3        5    12   1    6.5998   545.4    5.176      56.406
2015    3        5    12   6    6.5996   545.6    5.172      56.452
2015    3        5    12  12    6.5994   545.9    5.168      56.498
2015    3        5    12  17    6.5992   546.1    5.164      56.545
2015    3        5    12  23    6.5988   546.4    5.160      56.593
2015    3        5    12  28    6.5986   546.6    5.156      56.640
2015    3        5    12  33    6.5984   546.8    5.152      56.688
2015    3        5    12  39    6.5979   547.1    5.148      56.735
2015    3        5    12  44    6.5977   547.3    5.144      56.782
2015    3        5    12  50    6.5974   547.5    5.140      56.828
2015    3        5    12  55    6.5969   547.8    5.136      56.875
2015    3        5    13   1    6.5966   548.0    5.132      56.922
2015    3        5    13   6    6.5960   548.3    5.127      56.968
2015    3        5    13  12    6.5956   548.5    5.123      57.013
2015    3        5    13  17    6.5953   548.7    5.119      57.058
2015    3        5    13  22    6.5947   549.0    5.115      57.103
2015    3        5    13  28    6.5943   549.2    5.110      57.147
2015    3        5    13  33    6.5937   549.4    5.106      57.190
2015    3        5    13  39    6.5931   549.7    5.101      57.234
2015    3        5    13  44    6.5927   549.9    5.097      57.276
2015    3        5    13  50    6.5921   550.1    5.093      57.319
2015    3        5    13  55    6.5917   550.4    5.088      57.361
2015    3        5    14   1    6.5911   550.6    5.084      57.403
2015    3        5    14   6    6.5906   550.8    5.080      57.444
2015    3        5    14  11    6.5899   551.0    5.076      57.485
2015    3        5    14  17    6.5894   551.3    5.071      57.526
2015    3        5    14  22    6.5889   551.5    5.067      57.568
2015    3        5    14  28    6.5884   551.7    5.063      57.609
2015    3        5    14  33    6.5878   551.9    5.059      57.651
2015    3        5    14  39    6.5872   552.2    5.054      57.692
2015    3        5    14  44    6.5866   552.4    5.050      57.734
2015    3        5    14  50    6.5860   552.6    5.046      57.775
2015    3        5    14  55    6.5854   552.8    5.042      57.816
2015    3        5    15   1    6.5848   553.1    5.037      57.857
2015    3        5    15   6    6.5841   553.3    5.033      57.898
2015    3        5    15  11    6.5834   553.5    5.029      57.938
2015    3        5    15  17    6.5828   553.8    5.024      57.979
2015    3        5    15  22    6.5821   554.0    5.020      58.019
2015    3        5    15  28    6.5814   554.2    5.015      58.059
2015    3        5    15  33    6.5807   554.4    5.011      58.098
2015    3        5    15  39    6.5800   554.7    5.007      58.136
2015    3        5    15  44    6.5793   554.9    5.002      58.175
2015    3        5    15  50    6.5785   555.1    4.998      58.213
2015    3        5    15  55    6.5778   555.3    4.994      58.251
2015    3        5    16   0    6.5771   555.5    4.990      58.289
2015    3        5    16   6    6.5762   555.8    4.985      58.327
2015    3        5    16  11    6.5756   556.0    4.981      58.365
2015    3        5    16  17    6.5748   556.2    4.977      58.403
2015    3        5    16  22    6.5741   556.4    4.973      58.442
2015    3        5    16  28    6.5734   556.7    4.969      58.481
2015    3        5    16  33    6.5726   556.9    4.965      58.521
2015    3        5    16  39    6.5719   557.1    4.961      58.561
2015    3        5    16  44    6.5711   557.3    4.958      58.601
2015    3        5    16  49    6.5704   557.6    4.954      58.641
2015    3        5    16  55    6.5696   557.8    4.950      58.682
2015    3        5    17   0    6.5688   558.0    4.947      58.724
2015    3        5    17   6    6.5680   558.2    4.943      58.766
2015    3        5    17  11    6.5671   558.5    4.939      58.808
2015    3        5    17  17    6.5664   558.7    4.935      58.851
2015    3        5    17  22    6.5655   558.9    4.932      58.894
2015    3        5    17  28    6.5647   559.2    4.928      58.936
2015    3        5    17  33    6.5638   559.4    4.924      58.979
2015    3        5    17  38    6.5629   559.6    4.920      59.021
2015    3        5    17  44    6.5620   559.9    4.916      59.063
2015    3        5    17  49    6.5611   560.1    4.912      59.104
2015    3        5    17  55    6.5601   560.3    4.908      59.146
2015    3        5    18   0    6.5592   560.6    4.904      59.187
2015    3        5    18   6    6.5582   560.8    4.900      59.227
2015    3        5    18  11    6.5572   561.0    4.896      59.266
2015    3        5    18  17    6.5563   561.2    4.892      59.305
2015    3        5    18  22    6.5553   561.5    4.887      59.343
2015    3        5    18  27    6.5542   561.7    4.883      59.382
2015    3        5    18  33    6.5532   561.9    4.879      59.420
2015    3        5    18  38    6.5522   562.2    4.875      59.458
2015    3        5    18  44    6.5512   562.4    4.871      59.496
2015    3        5    18  49    6.5502   562.6    4.867      59.533
2015    3        5    18  55    6.5491   562.8    4.863      59.571
2015    3        5    19   0    6.5481   563.1    4.858      59.608
2015    3        5    19   6    6.5470   563.3    4.854      59.645
2015    3        5    19  11    6.5461   563.5    4.850      59.682
2015    3        5    19  17    6.5450   563.7    4.846      59.719
2015    3        5    19  22    6.5439   564.0    4.842      59.757
2015    3        5    19  27    6.5430   564.2    4.838      59.794
2015    3        5    19  33    6.5419   564.4    4.834      59.832
2015    3        5    19  38    6.5409   564.6    4.829      59.869
2015    3        5    19  44    6.5398   564.9    4.825      59.906
2015    3        5    19  49    6.5387   565.1    4.821      59.943
2015    3        5    19  55    6.5377   565.3    4.816      59.979
2015    3        5    20   0    6.5365   565.6    4.812      60.015
2015    3        5    20   6    6.5353   565.8    4.808      60.050
2015    3        5    20  11    6.5342   566.0    4.803      60.085
2015    3        5    20  16    6.5331   566.2    4.798      60.119
2015    3        5    20  22    6.5320   566.4    4.794      60.153
2015    3        5    20  27    6.5307   566.7    4.789      60.185
2015    3        5    20  33    6.5296   566.9    4.785      60.218
2015    3        5    20  38    6.5283   567.1    4.780      60.249
2015    3        5    20  44    6.5271   567.3    4.775      60.280
2015    3        5    20  49    6.5259   567.5    4.771      60.311
2015    3        5    20  55    6.5248   567.7    4.766      60.342
2015    3        5    21   0    6.5235   568.0    4.762      60.372
2015    3        5    21   5    6.5223   568.2    4.757      60.402
2015    3        5    21  11    6.5211   568.4    4.753      60.432
2015    3        5    21  16    6.5200   568.6    4.749      60.462
2015    3        5    21  22    6.5188   568.8    4.745      60.493
2015    3        5    21  27    6.5176   569.0    4.740      60.524
2015    3        5    21  33    6.5164   569.2    4.736      60.556
2015    3        5    21  38    6.5152   569.4    4.732      60.588
2015    3        5    21  44    6.5141   569.6    4.729      60.620
2015    3        5    21  49    6.5129   569.8    4.725      60.653
2015    3        5    21  54    6.5117   570.0    4.721      60.687
2015    3        5    22   0    6.5105   570.3    4.718      60.721
2015    3        5    22   5    6.5093   570.5    4.714      60.755
2015    3        5    22  11    6.5081   570.7    4.711      60.789
2015    3        5    22  16    6.5069   570.9    4.707      60.824
2015    3        5    22  22    6.5058   571.1    4.704      60.860
2015    3        5    22  27    6.5046   571.3    4.701      60.897
2015    3        5    22  33    6.5034   571.5    4.698      60.934
2015    3        5    22  38    6.5023   571.7    4.694      60.971
2015    3        5    22  43    6.5011   571.9    4.691      61.008
2015    3        5    22  49    6.4999   572.1    4.688      61.045
2015    3        5    22  54    6.4987   572.4    4.685      61.082
2015    3        5    23   0    6.4975   572.6    4.681      61.119
2015    3        5    23   5    6.4963   572.8    4.678      61.155
2015    3        5    23  11    6.4950   573.0    4.675      61.191
2015    3        5    23  16    6.4937   573.2    4.671      61.227
2015    3        5    23  22    6.4924   573.4    4.668      61.262
2015    3        5    23  27    6.4912   573.6    4.665      61.297
2015    3        5    23  33    6.4898   573.9    4.661      61.331
2015    3        5    23  38    6.4886   574.1    4.658      61.366
2015    3        5    23  43    6.4872   574.3    4.654      61.400
2015    3        5    23  49    6.4858   574.5    4.651      61.434
2015    3        5    23  54    6.4845   574.7    4.647      61.468
2015    3        6     0   0    6.4831   574.9    4.644      61.501
2015    3        6     0   5    6.4818   575.1    4.640      61.535
2015    3        6     0  11    6.4804   575.4    4.637      61.568
2015    3        6     0  16    6.4790   575.6    4.633      61.602
2015    3        6     0  22    6.4775   575.8    4.629      61.637
2015    3        6     0  27    6.4762   576.0    4.626      61.672
2015    3        6     0  32    6.4747   576.2    4.622      61.706
2015    3        6     0  38    6.4732   576.4    4.618      61.741
2015    3        6     0  43    6.4717   576.7    4.614      61.775
2015    3        6     0  49    6.4703   576.9    4.610      61.808
2015    3        6     0  54    6.4687   577.1    4.606      61.841
2015    3        6     1   0    6.4672   577.3    4.602      61.874
2015    3        6     1   5    6.4656   577.5    4.598      61.906
2015    3        6     1  11    6.4640   577.7    4.593      61.937
2015    3        6     1  16    6.4625   577.9    4.589      61.967
2015    3        6     1  21    6.4608   578.1    4.584      61.996
2015    3        6     1  27    6.4593   578.4    4.580      62.024
2015    3        6     1  32    6.4577   578.6    4.575      62.051
2015    3        6     1  38    6.4560   578.8    4.571      62.078
2015    3        6     1  43    6.4543   579.0    4.566      62.103
2015    3        6     1  49    6.4527   579.2    4.561      62.128
2015    3        6     1  54    6.4511   579.4    4.557      62.153
2015    3        6     2   0    6.4495   579.6    4.552      62.176
2015    3        6     2   5    6.4479   579.8    4.547      62.200
2015    3        6     2  10    6.4463   580.0    4.543      62.223
2015    3        6     2  16    6.4447   580.2    4.538      62.246
2015    3        6     2  21    6.4431   580.4    4.534      62.269
2015    3        6     2  27    6.4415   580.6    4.529      62.291
2015    3        6     2  32    6.4400   580.8    4.525      62.314
2015    3        6     2  38    6.4385   581.0    4.521      62.337
2015    3        6     2  43    6.4370   581.2    4.517      62.361
2015    3        6     2  49    6.4355   581.4    4.513      62.385
2015    3        6     2  54    6.4340   581.6    4.509      62.410
2015    3        6     3   0    6.4326   581.8    4.505      62.436
2015    3        6     3   5    6.4312   582.0    4.501      62.462
2015    3        6     3  10    6.4298   582.2    4.497      62.489
2015    3        6     3  16    6.4285   582.4    4.494      62.517
2015    3        6     3  21    6.4272   582.5    4.490      62.545
2015    3        6     3  27    6.4259   582.7    4.487      62.575
2015    3        6     3  32    6.4246   582.9    4.484      62.604
2015    3        6     3  38    6.4235   583.1    4.480      62.635
2015    3        6     3  43    6.4223   583.3    4.477      62.667
2015    3        6     3  49    6.4212   583.5    4.474      62.700
2015    3        6     3  54    6.4201   583.7    4.472      62.734
2015    3        6     3  59    6.4191   583.9    4.469      62.769
2015    3        6     4   5    6.4182   584.1    4.466      62.805
2015    3        6     4  10    6.4173   584.3    4.463      62.841
2015    3        6     4  16    6.4164   584.5    4.460      62.877
2015    3        6     4  21    6.4156   584.8    4.458      62.913
2015    3        6     4  27    6.4148   585.0    4.455      62.948
2015    3        6     4  32    6.4141   585.2    4.452      62.984
2015    3        6     4  38    6.4134   585.4    4.450      63.020
2015    3        6     4  43    6.4127   585.6    4.447      63.056
2015    3        6     4  48    6.4120   585.8    4.444      63.091
2015    3        6     4  54    6.4115   586.0    4.442      63.126
2015    3        6     4  59    6.4109   586.2    4.439      63.161
2015    3        6     5   5    6.4103   586.4    4.436      63.196
2015    3        6     5  10    6.4098   586.6    4.433      63.230
2015    3        6     5  16    6.4093   586.8    4.431      63.265
2015    3        6     5  21    6.4089   587.0    4.428      63.299
2015    3        6     5  27    6.4084   587.2    4.426      63.334
2015    3        6     5  32    6.4081   587.4    4.423      63.368
2015    3        6     5  37    6.4078   587.6    4.421      63.404
2015    3        6     5  43    6.4075   587.8    4.418      63.440
2015    3        6     5  48    6.4073   588.0    4.415      63.477
2015    3        6     5  54    6.4070   588.2    4.413      63.513
2015    3        6     5  59    6.4069   588.5    4.410      63.550
2015    3        6     6   5    6.4066   588.7    4.408      63.587
2015    3        6     6  10    6.4065   588.9    4.405      63.623
2015    3        6     6  16    6.4064   589.1    4.402      63.658
2015    3        6     6  21    6.4063   589.3    4.399      63.693
2015    3        6     6  26    6.4062   589.5    4.397      63.727
2015    3        6     6  32    6.4063   589.7    4.393      63.761
2015    3        6     6  37    6.4061   589.9    4.390      63.794
2015    3        6     6  43    6.4061   590.1    4.387      63.825
2015    3        6     6  48    6.4060   590.3    4.384      63.855
2015    3        6     6  54    6.4058   590.6    4.380      63.884
2015    3        6     6  59    6.4058   590.8    4.377      63.912
2015    3        6     7   5    6.4058   591.0    4.374      63.940
2015    3        6     7  10    6.4056   591.2    4.370      63.966
2015    3        6     7  16    6.4056   591.4    4.367      63.992
2015    3        6     7  21    6.4055   591.6    4.363      64.018
2015    3        6     7  26    6.4055   591.8    4.360      64.043
2015    3        6     7  32    6.4054   592.0    4.356      64.069
2015    3        6     7  37    6.4053   592.2    4.353      64.094
2015    3        6     7  43    6.4053   592.3    4.350      64.120
2015    3        6     7  48    6.4054   592.5    4.347      64.145
2015    3        6     7  54    6.4054   592.7    4.344      64.172
2015    3        6     7  59    6.4054   592.9    4.341      64.200
2015    3        6     8   5    6.4056   593.1    4.338      64.229
2015    3        6     8  10    6.4056   593.3    4.335      64.259
2015    3        6     8  15    6.4056   593.5    4.333      64.290
2015    3        6     8  21    6.4058   593.7    4.330      64.322
2015    3        6     8  26    6.4059   593.9    4.328      64.355
2015    3        6     8  32    6.4058   594.1    4.325      64.390
2015    3        6     8  37    6.4059   594.3    4.323      64.426
2015    3        6     8  43    6.4058   594.5    4.321      64.464
2015    3        6     8  48    6.4057   594.7    4.318      64.502
2015    3        6     8  54    6.4055   594.9    4.316      64.541
2015    3        6     8  59    6.4053   595.1    4.313      64.579
2015    3        6     9   4    6.4051   595.3    4.311      64.617
2015    3        6     9  10    6.4048   595.5    4.308      64.654
2015    3        6     9  15    6.4044   595.7    4.305      64.691
2015    3        6     9  21    6.4040   595.9    4.302      64.727
2015    3        6     9  26    6.4036   596.1    4.299      64.762
2015    3        6     9  32    6.4031   596.2    4.296      64.796
2015    3        6     9  37    6.4026   596.4    4.293      64.829
2015    3        6     9  43    6.4020   596.6    4.290      64.860
2015    3        6     9  48    6.4014   596.8    4.287      64.891
2015    3        6     9  53    6.4008   597.0    4.284      64.922
2015    3        6     9  59    6.4001   597.2    4.281      64.952
2015    3        6    10   4    6.3994   597.4    4.278      64.983
2015    3        6    10  10    6.3987   597.6    4.275      65.013
2015    3        6    10  15    6.3980   597.7    4.272      65.044
2015    3        6    10  21    6.3972   597.9    4.269      65.075
2015    3        6    10  26    6.3965   598.1    4.266      65.106
2015    3        6    10  32    6.3957   598.3    4.263      65.137
2015    3        6    10  37    6.3950   598.5    4.261      65.168
2015    3        6    10  42    6.3942   598.6    4.258      65.200
2015    3        6    10  48    6.3934   598.8    4.255      65.233
2015    3        6    10  53    6.3926   599.0    4.253      65.267
2015    3        6    10  59    6.3918   599.2    4.250      65.301
2015    3        6    11   4    6.3909   599.4    4.247      65.336
2015    3        6    11  10    6.3900   599.5    4.245      65.371
2015    3        6    11  15    6.3891   599.7    4.242      65.405
2015    3        6    11  21    6.3881   599.9    4.239      65.439
2015    3        6    11  26    6.3871   600.1    4.236      65.472
2015    3        6    11  32    6.3860   600.3    4.233      65.504
2015    3        6    11  37    6.3849   600.5    4.230      65.535
2015    3        6    11  42    6.3838   600.7    4.227      65.566
2015    3        6    11  48    6.3825   600.9    4.223      65.594
2015    3        6    11  53    6.3812   601.1    4.220      65.621
2015    3        6    11  59    6.3798   601.3    4.216      65.646
2015    3        6    12   4    6.3784   601.4    4.212      65.669
2015    3        6    12  10    6.3770   601.6    4.208      65.690
2015    3        6    12  15    6.3755   601.8    4.204      65.710
2015    3        6    12  21    6.3740   602.0    4.199      65.728
2015    3        6    12  26    6.3724   602.2    4.195      65.745
2015    3        6    12  31    6.3708   602.4    4.191      65.761
2015    3        6    12  37    6.3691   602.6    4.186      65.776
2015    3        6    12  42    6.3675   602.7    4.182      65.790
2015    3        6    12  48    6.3658   602.9    4.177      65.803
2015    3        6    12  53    6.3641   603.1    4.172      65.816
2015    3        6    12  59    6.3624   603.3    4.168      65.827
2015    3        6    13   4    6.3606   603.4    4.163      65.838
2015    3        6    13  10    6.3587   603.6    4.158      65.849
2015    3        6    13  15    6.3570   603.8    4.154      65.859
2015    3        6    13  20    6.3551   604.0    4.149      65.869
2015    3        6    13  26    6.3532   604.1    4.144      65.878
2015    3        6    13  31    6.3514   604.3    4.140      65.887
2015    3        6    13  37    6.3494   604.5    4.135      65.896
2015    3        6    13  42    6.3475   604.6    4.131      65.904
2015    3        6    13  48    6.3455   604.8    4.126      65.913
2015    3        6    13  53    6.3435   604.9    4.122      65.921
2015    3        6    13  59    6.3415   605.1    4.117      65.929
2015    3        6    14   4    6.3394   605.3    4.113      65.937
2015    3        6    14   9    6.3374   605.4    4.108      65.945
2015    3        6    14  15    6.3354   605.6    4.104      65.953
2015    3        6    14  20    6.3333   605.7    4.099      65.961
2015    3        6    14  26    6.3312   605.9    4.095      65.969
2015    3        6    14  31    6.3290   606.1    4.091      65.978
2015    3        6    14  37    6.3268   606.2    4.087      65.987
2015    3        6    14  42    6.3247   606.4    4.082      65.996
2015    3        6    14  48    6.3225   606.5    4.078      66.005
2015    3        6    14  53    6.3204   606.7    4.074      66.015
2015    3        6    14  58    6.3182   606.8    4.070      66.025
2015    3        6    15   4    6.3160   607.0    4.066      66.035
2015    3        6    15   9    6.3137   607.1    4.062      66.046
2015    3        6    15  15    6.3116   607.3    4.058      66.057
2015    3        6    15  20    6.3093   607.4    4.054      66.069
2015    3        6    15  26    6.3071   607.5    4.051      66.081
2015    3        6    15  31    6.3049   607.7    4.047      66.094
2015    3        6    15  37    6.3027   607.8    4.043      66.107
2015    3        6    15  42    6.3004   608.0    4.040      66.121
2015    3        6    15  48    6.2982   608.1    4.036      66.136
2015    3        6    15  53    6.2961   608.2    4.032      66.153
2015    3        6    15  58    6.2938   608.4    4.029      66.170
2015    3        6    16   4    6.2917   608.5    4.026      66.188
2015    3        6    16   9    6.2895   608.6    4.022      66.207
2015    3        6    16  15    6.2874   608.8    4.019      66.227
2015    3        6    16  20    6.2852   608.9    4.016      66.247
2015    3        6    16  26    6.2831   609.1    4.013      66.268
2015    3        6    16  31    6.2809   609.2    4.010      66.289
2015    3        6    16  37    6.2788   609.3    4.007      66.311
2015    3        6    16  42    6.2767   609.5    4.004      66.333
2015    3        6    16  47    6.2746   609.6    4.001      66.355
2015    3        6    16  53    6.2725   609.7    3.998      66.377
2015    3        6    16  58    6.2705   609.9    3.995      66.398
2015    3        6    17   4    6.2684   610.0    3.992      66.420
2015    3        6    17   9    6.2663   610.1    3.989      66.442
2015    3        6    17  15    6.2642   610.3    3.986      66.463
2015    3        6    17  20    6.2621   610.4    3.983      66.485
2015    3        6    17  26    6.2600   610.6    3.980      66.506
2015    3        6    17  31    6.2580   610.7    3.977      66.528
2015    3        6    17  36    6.2559   610.8    3.974      66.548
2015    3        6    17  42    6.2537   611.0    3.972      66.569
2015    3        6    17  47    6.2516   611.1    3.969      66.588
2015    3        6    17  53    6.2495   611.3    3.966      66.607
2015    3        6    17  58    6.2473   611.4    3.963      66.626
2015    3        6    18   4    6.2452   611.5    3.960      66.644
2015    3        6    18   9    6.2430   611.7    3.957      66.662
2015    3        6    18  15    6.2408   611.8    3.954      66.678
2015    3        6    18  20    6.2385   612.0    3.952      66.695
2015    3        6    18  25    6.2363   612.1    3.949      66.710
2015    3        6    18  31    6.2340   612.2    3.946      66.725
2015    3        6    18  36    6.2317   612.4    3.943      66.740
2015    3        6    18  42    6.2294   612.5    3.940      66.754
2015    3        6    18  47    6.2271   612.7    3.938      66.769
2015    3        6    18  53    6.2247   612.8    3.935      66.784
2015    3        6    18  58    6.2223   612.9    3.932      66.798
2015    3        6    19   4    6.2199   613.1    3.929      66.813
2015    3        6    19   9    6.2175   613.2    3.927      66.828
2015    3        6    19  14    6.2150   613.4    3.924      66.843
2015    3        6    19  20    6.2126   613.5    3.921      66.858
2015    3        6    19  25    6.2102   613.6    3.919      66.873
2015    3        6    19  31    6.2077   613.8    3.916      66.888
2015    3        6    19  36    6.2052   613.9    3.913      66.903
2015    3        6    19  42    6.2027   614.0    3.911      66.918
2015    3        6    19  47    6.2002   614.2    3.908      66.933
2015    3        6    19  53    6.1977   614.3    3.906      66.948
2015    3        6    19  58    6.1952   614.4    3.903      66.963
2015    3        6    20   4    6.1927   614.6    3.901      66.978
2015    3        6    20   9    6.1902   614.7    3.898      66.994
2015    3        6    20  14    6.1877   614.8    3.896      67.011
2015    3        6    20  20    6.1852   615.0    3.893      67.028
2015    3        6    20  25    6.1827   615.1    3.891      67.046
2015    3        6    20  31    6.1802   615.2    3.889      67.065
2015    3        6    20  36    6.1776   615.4    3.886      67.085
2015    3        6    20  42    6.1751   615.5    3.884      67.104
2015    3        6    20  47    6.1726   615.6    3.881      67.124
2015    3        6    20  53    6.1701   615.7    3.879      67.144
2015    3        6    20  58    6.1676   615.9    3.876      67.164
2015    3        6    21   3    6.1650   616.0    3.874      67.185
2015    3        6    21   9    6.1625   616.1    3.871      67.206
2015    3        6    21  14    6.1600   616.3    3.869      67.227
2015    3        6    21  20    6.1575   616.4    3.866      67.247
2015    3        6    21  25    6.1550   616.5    3.863      67.267
2015    3        6    21  31    6.1524   616.6    3.860      67.286
2015    3        6    21  36    6.1499   616.8    3.857      67.305
2015    3        6    21  42    6.1474   616.9    3.854      67.322
2015    3        6    21  47    6.1449   617.0    3.851      67.339
2015    3        6    21  52    6.1424   617.1    3.848      67.355
2015    3        6    21  58    6.1399   617.2    3.845      67.370
2015    3        6    22   3    6.1374   617.4    3.842      67.384
2015    3        6    22   9    6.1349   617.5    3.839      67.397
2015    3        6    22  14    6.1325   617.6    3.836      67.409
2015    3        6    22  20    6.1300   617.7    3.833      67.420
2015    3        6    22  25    6.1275   617.8    3.830      67.430
2015    3        6    22  31    6.1250   617.9    3.826      67.439
2015    3        6    22  36    6.1226   618.0    3.823      67.448
2015    3        6    22  41    6.1201   618.2    3.820      67.455
2015    3        6    22  47    6.1176   618.3    3.817      67.462
2015    3        6    22  52    6.1152   618.4    3.814      67.469
2015    3        6    22  58    6.1128   618.5    3.811      67.475
2015    3        6    23   3    6.1103   618.6    3.808      67.482
2015    3        6    23   9    6.1079   618.7    3.806      67.488
2015    3        6    23  14    6.1055   618.8    3.803      67.495
2015    3        6    23  20    6.1032   618.9    3.800      67.502
2015    3        6    23  25    6.1008   619.0    3.798      67.509
2015    3        6    23  30    6.0984   619.1    3.795      67.517
2015    3        6    23  36    6.0960   619.3    3.793      67.526
2015    3        6    23  41    6.0937   619.4    3.790      67.537
2015    3        6    23  47    6.0913   619.5    3.788      67.549
2015    3        6    23  52    6.0890   619.6    3.786      67.563
2015    3        6    23  58    6.0866   619.7    3.784      67.577
2015    3        7     0   3    6.0842   619.8    3.782      67.593
2015    3        7     0   9    6.0818   619.9    3.780      67.609
2015    3        7     0  14    6.0794   620.0    3.777      67.625
2015    3        7     0  20    6.0770   620.2    3.775      67.641
2015    3        7     0  25    6.0746   620.3    3.773      67.657
2015    3        7     0  30    6.0722   620.4    3.771      67.673
2015    3        7     0  36    6.0698   620.5    3.768      67.689
2015    3        7     0  41    6.0674   620.6    3.766      67.703
2015    3        7     0  47    6.0650   620.7    3.764      67.717
2015    3        7     0  52    6.0626   620.8    3.762      67.731
2015    3        7     0  58    6.0602   621.0    3.759      67.744
2015    3        7     1   3    6.0577   621.1    3.757      67.756
2015    3        7     1   9    6.0553   621.2    3.755      67.769
2015    3        7     1  14    6.0530   621.3    3.753      67.781
2015    3        7     1  19    6.0506   621.4    3.751      67.796
2015    3        7     1  25    6.0481   621.5    3.749      67.811
2015    3        7     1  30    6.0457   621.6    3.747      67.827
2015    3        7     1  36    6.0433   621.8    3.745      67.845
2015    3        7     1  41    6.0408   621.9    3.743      67.863
2015    3        7     1  47    6.0383   622.0    3.741      67.883
2015    3        7     1  52    6.0358   622.1    3.739      67.902
2015    3        7     1  58    6.0333   622.3    3.737      67.921
2015    3        7     2   3    6.0308   622.4    3.735      67.941
2015    3        7     2   8    6.0282   622.5    3.732      67.960
2015    3        7     2  14    6.0256   622.6    3.730      67.978
2015    3        7     2  19    6.0229   622.8    3.727      67.995
2015    3        7     2  25    6.0203   622.9    3.725      68.011
2015    3        7     2  30    6.0177   623.0    3.722      68.025
2015    3        7     2  36    6.0150   623.1    3.719      68.038
2015    3        7     2  41    6.0124   623.2    3.716      68.049
2015    3        7     2  47    6.0097   623.4    3.713      68.058
2015    3        7     2  52    6.0071   623.5    3.710      68.067
2015    3        7     2  57    6.0044   623.6    3.707      68.074
2015    3        7     3   3    6.0018   623.7    3.703      68.080
2015    3        7     3   8    5.9991   623.8    3.700      68.084
2015    3        7     3  14    5.9965   623.9    3.697      68.088
2015    3        7     3  19    5.9939   624.0    3.693      68.090
2015    3        7     3  25    5.9913   624.1    3.690      68.092
2015    3        7     3  30    5.9887   624.3    3.686      68.092
2015    3        7     3  36    5.9861   624.4    3.683      68.092
2015    3        7     3  41    5.9835   624.5    3.679      68.090
2015    3        7     3  47    5.9809   624.6    3.676      68.088
2015    3        7     3  52    5.9784   624.7    3.672      68.084
2015    3        7     3  57    5.9759   624.8    3.669      68.080
2015    3        7     4   3    5.9734   624.9    3.665      68.075
2015    3        7     4   8    5.9709   625.0    3.661      68.069
2015    3        7     4  14    5.9684   625.1    3.658      68.063
2015    3        7     4  19    5.9660   625.2    3.654      68.056
2015    3        7     4  25    5.9635   625.2    3.651      68.048
2015    3        7     4  30    5.9611   625.3    3.647      68.040
2015    3        7     4  36    5.9587   625.4    3.644      68.031
2015    3        7     4  41    5.9564   625.5    3.640      68.023
2015    3        7     4  46    5.9540   625.6    3.637      68.014
2015    3        7     4  52    5.9517   625.7    3.633      68.005
2015    3        7     4  57    5.9494   625.8    3.630      67.996
2015    3        7     5   3    5.9471   625.9    3.627      67.988
2015    3        7     5   8    5.9449   625.9    3.623      67.979
2015    3        7     5  14    5.9426   626.0    3.620      67.971
2015    3        7     5  19    5.9404   626.1    3.617      67.963
2015    3        7     5  25    5.9382   626.2    3.614      67.956
2015    3        7     5  30    5.9360   626.3    3.611      67.949
2015    3        7     5  35    5.9338   626.4    3.609      67.942
2015    3        7     5  41    5.9315   626.4    3.606      67.936
2015    3        7     5  46    5.9294   626.5    3.603      67.930
2015    3        7     5  52    5.9271   626.6    3.601      67.927
2015    3        7     5  57    5.9249   626.7    3.598      67.923
2015    3        7     6   3    5.9227   626.8    3.596      67.921
2015    3        7     6   8    5.9205   626.9    3.593      67.919
2015    3        7     6  14    5.9182   626.9    3.591      67.918
2015    3        7     6  19    5.9160   627.0    3.588      67.916
2015    3        7     6  24    5.9137   627.1    3.586      67.915
2015    3        7     6  30    5.9114   627.2    3.584      67.914
2015    3        7     6  35    5.9091   627.2    3.581      67.912
2015    3        7     6  41    5.9068   627.3    3.579      67.912
2015    3        7     6  46    5.9045   627.4    3.576      67.910
2015    3        7     6  52    5.9022   627.5    3.574      67.909
2015    3        7     6  57    5.8999   627.5    3.571      67.907
2015    3        7     7   3    5.8976   627.6    3.569      67.906
2015    3        7     7   8    5.8953   627.7    3.566      67.904
2015    3        7     7  13    5.8930   627.8    3.564      67.903
2015    3        7     7  19    5.8907   627.8    3.562      67.902
2015    3        7     7  24    5.8885   627.9    3.560      67.901
2015    3        7     7  30    5.8862   628.0    3.557      67.901
2015    3        7     7  35    5.8839   628.0    3.555      67.901
2015    3        7     7  41    5.8817   628.1    3.553      67.902
2015    3        7     7  46    5.8795   628.2    3.551      67.903
2015    3        7     7  52    5.8772   628.2    3.549      67.905
2015    3        7     7  57    5.8750   628.3    3.547      67.909
2015    3        7     8   3    5.8728   628.4    3.545      67.914
2015    3        7     8   8    5.8706   628.4    3.543      67.920
2015    3        7     8  13    5.8684   628.5    3.541      67.927
2015    3        7     8  19    5.8662   628.6    3.539      67.935
2015    3        7     8  24    5.8639   628.7    3.537      67.943
2015    3        7     8  30    5.8617   628.7    3.535      67.952
2015    3        7     8  35    5.8595   628.8    3.533      67.960
2015    3        7     8  41    5.8573   628.9    3.531      67.967
2015    3        7     8  46    5.8551   628.9    3.529      67.975
2015    3        7     8  52    5.8529   629.0    3.527      67.981
2015    3        7     8  57    5.8507   629.1    3.524      67.987
2015    3        7     9   2    5.8485   629.2    3.522      67.991
2015    3        7     9   8    5.8463   629.2    3.519      67.994
2015    3        7     9  13    5.8441   629.3    3.516      67.996
2015    3        7     9  19    5.8419   629.4    3.514      67.996
2015    3        7     9  24    5.8397   629.4    3.511      67.995
2015    3        7     9  30    5.8375   629.5    3.508      67.993
2015    3        7     9  35    5.8353   629.5    3.506      67.990
2015    3        7     9  41    5.8332   629.6    3.503      67.986
2015    3        7     9  46    5.8310   629.7    3.500      67.981
2015    3        7     9  51    5.8289   629.7    3.497      67.975
2015    3        7     9  57    5.8267   629.8    3.494      67.968
2015    3        7    10   2    5.8246   629.9    3.491      67.961
2015    3        7    10   8    5.8225   629.9    3.488      67.952
2015    3        7    10  13    5.8203   630.0    3.485      67.943
2015    3        7    10  19    5.8182   630.0    3.482      67.933
2015    3        7    10  24    5.8161   630.1    3.480      67.923
2015    3        7    10  30    5.8140   630.1    3.477      67.912
2015    3        7    10  35    5.8119   630.2    3.474      67.901
2015    3        7    10  40    5.8098   630.3    3.471      67.889
2015    3        7    10  46    5.8078   630.3    3.468      67.877
2015    3        7    10  51    5.8057   630.4    3.465      67.864
2015    3        7    10  57    5.8036   630.4    3.462      67.851
2015    3        7    11   2    5.8015   630.5    3.459      67.838
2015    3        7    11   8    5.7994   630.5    3.456      67.825
2015    3        7    11  13    5.7974   630.6    3.454      67.812
2015    3        7    11  19    5.7953   630.6    3.451      67.798
2015    3        7    11  24    5.7932   630.7    3.448      67.785
2015    3        7    11  29    5.7912   630.7    3.446      67.772
2015    3        7    11  35    5.7891   630.8    3.443      67.758
2015    3        7    11  40    5.7870   630.8    3.440      67.745
2015    3        7    11  46    5.7849   630.8    3.438      67.732
2015    3        7    11  51    5.7829   630.9    3.436      67.719
2015    3        7    11  57    5.7808   630.9    3.433      67.707
2015    3        7    12   2    5.7787   631.0    3.431      67.694
2015    3        7    12   8    5.7767   631.0    3.429      67.683
2015    3        7    12  13    5.7746   631.1    3.427      67.671
2015    3        7    12  19    5.7725   631.1    3.425      67.661
2015    3        7    12  24    5.7705   631.1    3.423      67.651
2015    3        7    12  29    5.7684   631.2    3.421      67.641
2015    3        7    12  35    5.7663   631.2    3.419      67.633
2015    3        7    12  40    5.7642   631.3    3.418      67.625
2015    3        7    12  46    5.7622   631.3    3.416      67.618
2015    3        7    12  51    5.7601   631.4    3.415      67.612
2015    3        7    12  57    5.7580   631.4    3.413      67.607
2015    3        7    13   2    5.7560   631.4    3.412      67.602
2015    3        7    13   8    5.7539   631.5    3.411      67.599
2015    3        7    13  13    5.7518   631.5    3.410      67.597
2015    3        7    13  18    5.7497   631.6    3.409      67.596
2015    3        7    13  24    5.7476   631.6    3.408      67.597
2015    3        7    13  29    5.7455   631.7    3.407      67.599
2015    3        7    13  35    5.7433   631.7    3.405      67.602
2015    3        7    13  40    5.7412   631.7    3.404      67.606
2015    3        7    13  46    5.7391   631.8    3.403      67.610
2015    3        7    13  51    5.7369   631.8    3.402      67.615
2015    3        7    13  57    5.7348   631.9    3.401      67.620
2015    3        7    14   2    5.7326   631.9    3.400      67.626
2015    3        7    14   7    5.7304   631.9    3.399      67.631
2015    3        7    14  13    5.7283   632.0    3.397      67.637
2015    3        7    14  18    5.7261   632.0    3.396      67.642
2015    3        7    14  24    5.7240   632.1    3.394      67.646
2015    3        7    14  29    5.7218   632.1    3.393      67.649
2015    3        7    14  35    5.7196   632.1    3.391      67.652
2015    3        7    14  40    5.7175   632.2    3.390      67.654
2015    3        7    14  46    5.7153   632.2    3.388      67.655
2015    3        7    14  51    5.7131   632.2    3.387      67.655
2015    3        7    14  56    5.7110   632.3    3.385      67.654
2015    3        7    15   2    5.7088   632.3    3.383      67.653
2015    3        7    15   7    5.7067   632.3    3.381      67.650
2015    3        7    15  13    5.7046   632.3    3.379      67.647
2015    3        7    15  18    5.7024   632.4    3.378      67.642
2015    3        7    15  24    5.7003   632.4    3.376      67.637
2015    3        7    15  29    5.6982   632.4    3.374      67.631
2015    3        7    15  35    5.6960   632.5    3.372      67.624
2015    3        7    15  40    5.6939   632.5    3.370      67.617
2015    3        7    15  46    5.6918   632.5    3.368      67.609
2015    3        7    15  51    5.6898   632.5    3.366      67.600
2015    3        7    15  56    5.6877   632.5    3.364      67.591
2015    3        7    16   2    5.6856   632.6    3.362      67.581
2015    3        7    16   7    5.6835   632.6    3.359      67.570
2015    3        7    16  13    5.6814   632.6    3.357      67.559
2015    3        7    16  18    5.6794   632.6    3.355      67.547
2015    3        7    16  24    5.6773   632.7    3.353      67.535
2015    3        7    16  29    5.6752   632.7    3.351      67.522
2015    3        7    16  35    5.6732   632.7    3.349      67.510
2015    3        7    16  40    5.6711   632.7    3.347      67.496
2015    3        7    16  45    5.6691   632.7    3.345      67.483
2015    3        7    16  51    5.6671   632.8    3.343      67.469
2015    3        7    16  56    5.6650   632.8    3.341      67.455
2015    3        7    17   2    5.6630   632.8    3.338      67.441
2015    3        7    17   7    5.6610   632.8    3.336      67.426
2015    3        7    17  13    5.6590   632.8    3.334      67.411
2015    3        7    17  18    5.6570   632.8    3.332      67.397
2015    3        7    17  24    5.6550   632.9    3.330      67.382
2015    3        7    17  29    5.6530   632.9    3.328      67.367
2015    3        7    17  34    5.6510   632.9    3.326      67.352
2015    3        7    17  40    5.6490   632.9    3.324      67.337
2015    3        7    17  45    5.6471   632.9    3.323      67.323
2015    3        7    17  51    5.6451   632.9    3.321      67.308
2015    3        7    17  56    5.6431   632.9    3.319      67.294
2015    3        7    18   2    5.6411   633.0    3.317      67.280
2015    3        7    18   7    5.6391   633.0    3.315      67.267
2015    3        7    18  13    5.6372   633.0    3.314      67.254
2015    3        7    18  18    5.6352   633.0    3.312      67.241
2015    3        7    18  23    5.6332   633.0    3.311      67.228
2015    3        7    18  29    5.6312   633.0    3.309      67.217
2015    3        7    18  34    5.6293   633.0    3.308      67.206
2015    3        7    18  40    5.6273   633.0    3.306      67.195
2015    3        7    18  45    5.6254   633.1    3.305      67.185
2015    3        7    18  51    5.6234   633.1    3.303      67.176
2015    3        7    18  56    5.6214   633.1    3.302      67.167
2015    3        7    19   2    5.6194   633.1    3.301      67.159
2015    3        7    19   7    5.6175   633.1    3.300      67.151
2015    3        7    19  12    5.6155   633.1    3.299      67.144
2015    3        7    19  18    5.6135   633.1    3.297      67.138
2015    3        7    19  23    5.6116   633.1    3.296      67.133
2015    3        7    19  29    5.6095   633.2    3.295      67.128
2015    3        7    19  34    5.6076   633.2    3.294      67.123
2015    3        7    19  40    5.6056   633.2    3.294      67.119
2015    3        7    19  45    5.6036   633.2    3.293      67.116
2015    3        7    19  51    5.6016   633.2    3.292      67.113
2015    3        7    19  56    5.5996   633.2    3.291      67.110
2015    3        7    20   2    5.5976   633.2    3.290      67.108
2015    3        7    20   7    5.5956   633.2    3.289      67.106
2015    3        7    20  12    5.5936   633.2    3.289      67.104
2015    3        7    20  18    5.5916   633.2    3.288      67.103
2015    3        7    20  23    5.5896   633.3    3.287      67.102
2015    3        7    20  29    5.5875   633.3    3.286      67.101
2015    3        7    20  34    5.5855   633.3    3.285      67.100
2015    3        7    20  40    5.5835   633.3    3.285      67.099
2015    3        7    20  45    5.5815   633.3    3.284      67.097
2015    3        7    20  51    5.5795   633.3    3.283      67.096
2015    3        7    20  56    5.5774   633.3    3.282      67.094
2015    3        7    21   1    5.5754   633.3    3.281      67.092
2015    3        7    21   7    5.5734   633.3    3.281      67.090
2015    3        7    21  12    5.5713   633.3    3.280      67.088
2015    3        7    21  18    5.5694   633.3    3.279      67.085
2015    3        7    21  23    5.5674   633.3    3.278      67.082
2015    3        7    21  29    5.5653   633.3    3.277      67.079
2015    3        7    21  34    5.5633   633.3    3.276      67.075
2015    3        7    21  40    5.5613   633.3    3.275      67.070
2015    3        7    21  45    5.5593   633.3    3.274      67.065
2015    3        7    21  50    5.5573   633.3    3.273      67.059
2015    3        7    21  56    5.5552   633.3    3.272      67.053
2015    3        7    22   1    5.5532   633.3    3.270      67.046
2015    3        7    22   7    5.5512   633.3    3.269      67.039
2015    3        7    22  12    5.5491   633.3    3.268      67.030
2015    3        7    22  18    5.5472   633.3    3.267      67.021
2015    3        7    22  23    5.5451   633.3    3.265      67.012
2015    3        7    22  29    5.5431   633.3    3.264      67.001
2015    3        7    22  34    5.5411   633.3    3.263      66.990
2015    3        7    22  39    5.5390   633.3    3.261      66.979
2015    3        7    22  45    5.5370   633.3    3.260      66.967
2015    3        7    22  50    5.5349   633.3    3.258      66.954
2015    3        7    22  56    5.5329   633.3    3.257      66.941
2015    3        7    23   1    5.5309   633.3    3.255      66.927
2015    3        7    23   7    5.5288   633.3    3.254      66.912
2015    3        7    23  12    5.5268   633.3    3.252      66.897
2015    3        7    23  18    5.5248   633.2    3.251      66.882
2015    3        7    23  23    5.5227   633.2    3.249      66.866
2015    3        7    23  28    5.5207   633.2    3.248      66.850
2015    3        7    23  34    5.5187   633.2    3.246      66.834
2015    3        7    23  39    5.5166   633.2    3.245      66.817
2015    3        7    23  45    5.5146   633.2    3.243      66.800
2015    3        7    23  50    5.5126   633.2    3.242      66.783
2015    3        7    23  56    5.5105   633.1    3.240      66.766
2015    3        8     0   1    5.5085   633.1    3.239      66.749
2015    3        8     0   7    5.5065   633.1    3.237      66.732
2015    3        8     0  12    5.5045   633.1    3.236      66.715
2015    3        8     0  18    5.5024   633.1    3.234      66.698
2015    3        8     0  23    5.5004   633.1    3.233      66.681
2015    3        8     0  28    5.4984   633.0    3.231      66.665
2015    3        8     0  34    5.4964   633.0    3.230      66.649
2015    3        8     0  39    5.4945   633.0    3.229      66.633
2015    3        8     0  45    5.4925   633.0    3.227      66.618
2015    3        8     0  50    5.4905   633.0    3.226      66.604
2015    3        8     0  56    5.4886   632.9    3.225      66.590
2015    3        8     1   1    5.4866   632.9    3.224      66.576
2015    3        8     1   7    5.4847   632.9    3.223      66.563
2015    3        8     1  12    5.4827   632.9    3.222      66.551
2015    3        8     1  17    5.4808   632.9    3.221      66.539
2015    3        8     1  23    5.4789   632.8    3.220      66.528
2015    3        8     1  28    5.4770   632.8    3.219      66.517
2015    3        8     1  34    5.4751   632.8    3.218      66.508
2015    3        8     1  39    5.4732   632.8    3.218      66.499
2015    3        8     1  45    5.4713   632.8    3.217      66.490
2015    3        8     1  50    5.4694   632.8    3.216      66.482
2015    3        8     1  56    5.4675   632.7    3.216      66.474
2015    3        8     2   1    5.4656   632.7    3.215      66.468
2015    3        8     2   6    5.4637   632.7    3.215      66.462
2015    3        8     2  12    5.4618   632.7    3.214      66.456
2015    3        8     2  17    5.4599   632.7    3.214      66.452
2015    3        8     2  23    5.4580   632.7    3.214      66.448
2015    3        8     2  28    5.4561   632.6    3.213      66.444
2015    3        8     2  34    5.4541   632.6    3.213      66.441
2015    3        8     2  39    5.4522   632.6    3.212      66.437
2015    3        8     2  45    5.4503   632.6    3.212      66.434
2015    3        8     2  50    5.4484   632.6    3.212      66.432
2015    3        8     2  55    5.4464   632.5    3.211      66.429
2015    3        8     3   1    5.4445   632.5    3.211      66.427
2015    3        8     3   6    5.4426   632.5    3.210      66.424
2015    3        8     3  12    5.4406   632.5    3.210      66.422
2015    3        8     3  17    5.4387   632.5    3.210      66.419
2015    3        8     3  23    5.4368   632.5    3.209      66.417
2015    3        8     3  28    5.4348   632.4    3.209      66.415
2015    3        8     3  34    5.4329   632.4    3.208      66.412
2015    3        8     3  39    5.4310   632.4    3.208      66.410
2015    3        8     3  45    5.4290   632.4    3.207      66.407
2015    3        8     3  50    5.4272   632.4    3.207      66.404
2015    3        8     3  55    5.4252   632.3    3.206      66.401
2015    3        8     4   1    5.4233   632.3    3.206      66.397
2015    3        8     4   6    5.4213   632.3    3.205      66.393
2015    3        8     4  12    5.4194   632.3    3.205      66.389
2015    3        8     4  17    5.4175   632.3    3.204      66.384
2015    3        8     4  23    5.4155   632.2    3.203      66.378
2015    3        8     4  28    5.4136   632.2    3.203      66.372
2015    3        8     4  34    5.4116   632.2    3.202      66.366
2015    3        8     4  39    5.4097   632.2    3.201      66.359
2015    3        8     4  44    5.4077   632.2    3.200      66.351
2015    3        8     4  50    5.4058   632.1    3.200      66.343
2015    3        8     4  55    5.4038   632.1    3.199      66.334
2015    3        8     5   1    5.4018   632.1    3.198      66.324
2015    3        8     5   6    5.3998   632.1    3.197      66.313
2015    3        8     5  12    5.3978   632.1    3.196      66.302
2015    3        8     5  17    5.3958   632.0    3.195      66.290
2015    3        8     5  23    5.3937   632.0    3.194      66.278
2015    3        8     5  28    5.3917   632.0    3.193      66.264
2015    3        8     5  33    5.3897   632.0    3.191      66.250
2015    3        8     5  39    5.3876   631.9    3.190      66.235
2015    3        8     5  44    5.3856   631.9    3.189      66.219
2015    3        8     5  50    5.3835   631.9    3.188      66.203
2015    3        8     5  55    5.3814   631.8    3.187      66.186
2015    3        8     6   1    5.3793   631.8    3.185      66.169
2015    3        8     6   6    5.3773   631.8    3.184      66.151
2015    3        8     6  12    5.3752   631.8    3.183      66.133
2015    3        8     6  17    5.3731   631.7    3.182      66.115
2015    3        8     6  22    5.3710   631.7    3.180      66.096
2015    3        8     6  28    5.3689   631.6    3.179      66.077
2015    3        8     6  33    5.3668   631.6    3.178      66.058
2015    3        8     6  39    5.3647   631.6    3.177      66.038
2015    3        8     6  44    5.3627   631.5    3.176      66.019
2015    3        8     6  50    5.3606   631.5    3.174      66.000
2015    3        8     6  55    5.3585   631.5    3.173      65.981
2015    3        8     7   1    5.3565   631.4    3.172      65.962
2015    3        8     7   6    5.3544   631.4    3.171      65.943
2015    3        8     7  11    5.3524   631.3    3.170      65.925
2015    3        8     7  17    5.3504   631.3    3.169      65.907
2015    3        8     7  22    5.3483   631.3    3.168      65.889
2015    3        8     7  28    5.3463   631.2    3.168      65.872
2015    3        8     7  33    5.3443   631.2    3.167      65.855
2015    3        8     7  39    5.3423   631.1    3.166      65.838
2015    3        8     7  44    5.3402   631.1    3.165      65.822
2015    3        8     7  50    5.3383   631.0    3.165      65.807
2015    3        8     7  55    5.3362   631.0    3.164      65.793
2015    3        8     8   1    5.3342   631.0    3.164      65.780
2015    3        8     8   6    5.3322   630.9    3.163      65.767
2015    3        8     8  11    5.3302   630.9    3.163      65.756
2015    3        8     8  17    5.3281   630.8    3.162      65.746
2015    3        8     8  22    5.3261   630.8    3.162      65.736
2015    3        8     8  28    5.3241   630.8    3.161      65.727
2015    3        8     8  33    5.3220   630.7    3.161      65.719
2015    3        8     8  39    5.3200   630.7    3.161      65.711
2015    3        8     8  44    5.3180   630.6    3.160      65.704
2015    3        8     8  50    5.3159   630.6    3.160      65.697
2015    3        8     8  55    5.3139   630.6    3.160      65.690
2015    3        8     9   0    5.3119   630.5    3.160      65.683
2015    3        8     9   6    5.3098   630.5    3.159      65.676
2015    3        8     9  11    5.3078   630.5    3.159      65.670
2015    3        8     9  17    5.3058   630.4    3.159      65.664
2015    3        8     9  22    5.3037   630.4    3.159      65.658
2015    3        8     9  28    5.3017   630.3    3.158      65.652
2015    3        8     9  33    5.2997   630.3    3.158      65.646
2015    3        8     9  39    5.2976   630.3    3.158      65.641
2015    3        8     9  44    5.2956   630.2    3.157      65.636
2015    3        8     9  49    5.2935   630.2    3.157      65.631
2015    3        8     9  55    5.2915   630.2    3.157      65.626
2015    3        8    10   0    5.2894   630.1    3.156      65.621
2015    3        8    10   6    5.2873   630.1    3.156      65.615
2015    3        8    10  11    5.2852   630.0    3.156      65.610
2015    3        8    10  17    5.2831   630.0    3.155      65.604
2015    3        8    10  22    5.2810   630.0    3.155      65.597
2015    3        8    10  28    5.2789   629.9    3.154      65.590
2015    3        8    10  33    5.2768   629.9    3.154      65.583
2015    3        8    10  38    5.2747   629.9    3.153      65.575
2015    3        8    10  44    5.2726   629.8    3.152      65.566
2015    3        8    10  49    5.2705   629.8    3.152      65.557
2015    3        8    10  55    5.2683   629.7    3.151      65.547
2015    3        8    11   0    5.2662   629.7    3.150      65.537
2015    3        8    11   6    5.2640   629.7    3.149      65.525
2015    3        8    11  11    5.2618   629.6    3.148      65.513
2015    3        8    11  17    5.2597   629.6    3.147      65.501
2015    3        8    11  22    5.2575   629.5    3.146      65.487
2015    3        8    11  28    5.2553   629.5    3.145      65.473
2015    3        8    11  33    5.2531   629.5    3.144      65.458
2015    3        8    11  38    5.2508   629.4    3.143      65.442
2015    3        8    11  44    5.2486   629.4    3.142      65.425
2015    3        8    11  49    5.2464   629.3    3.141      65.407
2015    3        8    11  55    5.2441   629.3    3.140      65.388
2015    3        8    12   0    5.2418   629.2    3.139      65.369
2015    3        8    12   6    5.2395   629.2    3.137      65.349
2015    3        8    12  11    5.2373   629.1    3.136      65.328
2015    3        8    12  17    5.2349   629.1    3.135      65.306
2015    3        8    12  22    5.2326   629.0    3.134      65.284
2015    3        8    12  27    5.2303   629.0    3.132      65.262
2015    3        8    12  33    5.2280   628.9    3.131      65.239
2015    3        8    12  38    5.2256   628.9    3.130      65.215
2015    3        8    12  44    5.2233   628.8    3.128      65.191
2015    3        8    12  49    5.2210   628.8    3.127      65.167
2015    3        8    12  55    5.2186   628.7    3.126      65.142
2015    3        8    13   0    5.2162   628.6    3.124      65.118
2015    3        8    13   6    5.2139   628.6    3.123      65.093
2015    3        8    13  11    5.2115   628.5    3.122      65.068
2015    3        8    13  16    5.2092   628.5    3.121      65.043
2015    3        8    13  22    5.2068   628.4    3.120      65.019
2015    3        8    13  27    5.2045   628.3    3.119      64.994
2015    3        8    13  33    5.2021   628.3    3.118      64.970
2015    3        8    13  38    5.1998   628.2    3.117      64.946
2015    3        8    13  44    5.1975   628.2    3.116      64.923
2015    3        8    13  49    5.1952   628.1    3.115      64.900
2015    3        8    13  55    5.1929   628.0    3.114      64.877
2015    3        8    14   0    5.1905   628.0    3.113      64.856
2015    3        8    14   5    5.1882   627.9    3.113      64.834
2015    3        8    14  11    5.1859   627.8    3.112      64.814
2015    3        8    14  16    5.1836   627.8    3.111      64.794
2015    3        8    14  22    5.1813   627.7    3.111      64.774
2015    3        8    14  27    5.1790   627.6    3.110      64.756
2015    3        8    14  33    5.1767   627.6    3.110      64.738
2015    3        8    14  38    5.1744   627.5    3.110      64.721
2015    3        8    14  44    5.1721   627.4    3.109      64.705
2015    3        8    14  49    5.1697   627.4    3.109      64.689
2015    3        8    14  55    5.1674   627.3    3.109      64.674
2015    3        8    15   0    5.1651   627.2    3.109      64.659
2015    3        8    15   5    5.1627   627.2    3.109      64.645
2015    3        8    15  11    5.1604   627.1    3.109      64.632
2015    3        8    15  16    5.1580   627.0    3.108      64.619
2015    3        8    15  22    5.1556   627.0    3.108      64.606
2015    3        8    15  27    5.1532   626.9    3.108      64.595
2015    3        8    15  33    5.1508   626.8    3.108      64.584
2015    3        8    15  38    5.1484   626.8    3.108      64.572
2015    3        8    15  44    5.1460   626.7    3.108      64.561
2015    3        8    15  49    5.1435   626.6    3.107      64.550
2015    3        8    15  54    5.1411   626.6    3.107      64.539
2015    3        8    16   0    5.1387   626.5    3.107      64.528
2015    3        8    16   5    5.1362   626.4    3.107      64.517
2015    3        8    16  11    5.1338   626.4    3.106      64.505
2015    3        8    16  16    5.1313   626.3    3.106      64.493
2015    3        8    16  22    5.1289   626.2    3.105      64.480
2015    3        8    16  27    5.1264   626.2    3.105      64.466
2015    3        8    16  33    5.1240   626.1    3.105      64.452
2015    3        8    16  38    5.1215   626.0    3.104      64.438
2015    3        8    16  43    5.1190   626.0    3.104      64.423
2015    3        8    16  49    5.1166   625.9    3.103      64.408
2015    3        8    16  54    5.1141   625.8    3.102      64.392
2015    3        8    17   0    5.1117   625.7    3.102      64.376
2015    3        8    17   5    5.1092   625.7    3.101      64.359
2015    3        8    17  11    5.1067   625.6    3.100      64.341
2015    3        8    17  16    5.1042   625.5    3.099      64.324
2015    3        8    17  22    5.1017   625.5    3.099      64.305
2015    3        8    17  27    5.0992   625.4    3.098      64.286
2015    3        8    17  32    5.0967   625.3    3.097      64.266
2015    3        8    17  38    5.0941   625.2    3.096      64.246
2015    3        8    17  43    5.0916   625.2    3.095      64.224
2015    3        8    17  49    5.0890   625.1    3.094      64.203
2015    3        8    17  54    5.0865   625.0    3.093      64.180
2015    3        8    18   0    5.0839   624.9    3.092      64.157
2015    3        8    18   5    5.0813   624.8    3.091      64.133
2015    3        8    18  11    5.0787   624.8    3.090      64.108
2015    3        8    18  16    5.0761   624.7    3.088      64.083
2015    3        8    18  21    5.0735   624.6    3.087      64.057
2015    3        8    18  27    5.0708   624.5    3.086      64.031
2015    3        8    18  32    5.0682   624.4    3.085      64.004
2015    3        8    18  38    5.0655   624.3    3.084      63.977
2015    3        8    18  43    5.0628   624.3    3.082      63.949
2015    3        8    18  49    5.0601   624.2    3.081      63.921
2015    3        8    18  54    5.0574   624.1    3.080      63.892
2015    3        8    19   0    5.0547   624.0    3.078      63.863
2015    3        8    19   5    5.0520   623.9    3.077      63.833
2015    3        8    19  11    5.0492   623.8    3.076      63.803
2015    3        8    19  16    5.0465   623.7    3.075      63.773
2015    3        8    19  21    5.0437   623.6    3.073      63.742
2015    3        8    19  27    5.0409   623.5    3.072      63.710
2015    3        8    19  32    5.0381   623.4    3.071      63.679
2015    3        8    19  38    5.0354   623.3    3.069      63.647
2015    3        8    19  43    5.0326   623.2    3.068      63.614
2015    3        8    19  49    5.0298   623.1    3.067      63.582
2015    3        8    19  54    5.0270   623.0    3.066      63.550
2015    3        8    20   0    5.0242   622.9    3.064      63.517
2015    3        8    20   5    5.0214   622.8    3.063      63.485
2015    3        8    20  10    5.0186   622.7    3.062      63.453
2015    3        8    20  16    5.0158   622.6    3.061      63.420
2015    3        8    20  21    5.0130   622.5    3.060      63.388
2015    3        8    20  27    5.0102   622.4    3.059      63.357
2015    3        8    20  32    5.0074   622.3    3.058      63.325
2015    3        8    20  38    5.0047   622.2    3.057      63.294
2015    3        8    20  43    5.0019   622.1    3.056      63.263
2015    3        8    20  49    4.9991   621.9    3.055      63.233
2015    3        8    20  54    4.9963   621.8    3.055      63.203
2015    3        8    20  59    4.9936   621.7    3.054      63.173
2015    3        8    21   5    4.9908   621.6    3.053      63.144
2015    3        8    21  10    4.9881   621.5    3.053      63.116
2015    3        8    21  16    4.9853   621.4    3.052      63.087
2015    3        8    21  21    4.9826   621.3    3.052      63.060
2015    3        8    21  27    4.9798   621.2    3.051      63.033
2015    3        8    21  32    4.9771   621.0    3.051      63.006
2015    3        8    21  38    4.9744   620.9    3.051      62.979
2015    3        8    21  43    4.9716   620.8    3.050      62.953
2015    3        8    21  48    4.9688   620.7    3.050      62.927
2015    3        8    21  54    4.9660   620.6    3.050      62.901
2015    3        8    21  59    4.9633   620.5    3.049      62.876
2015    3        8    22   5    4.9605   620.4    3.049      62.851
2015    3        8    22  10    4.9577   620.3    3.049      62.825
2015    3        8    22  16    4.9548   620.1    3.049      62.800
2015    3        8    22  21    4.9520   620.0    3.048      62.775
2015    3        8    22  27    4.9492   619.9    3.048      62.750
2015    3        8    22  32    4.9463   619.8    3.048      62.725
2015    3        8    22  37    4.9435   619.7    3.047      62.699
2015    3        8    22  43    4.9407   619.6    3.047      62.673
2015    3        8    22  48    4.9378   619.4    3.047      62.648
2015    3        8    22  54    4.9349   619.3    3.046      62.621
2015    3        8    22  59    4.9321   619.2    3.046      62.595
2015    3        8    23   5    4.9292   619.1    3.046      62.568
2015    3        8    23  10    4.9264   619.0    3.045      62.541
2015    3        8    23  16    4.9235   618.8    3.045      62.513
2015    3        8    23  21    4.9207   618.7    3.045      62.485
2015    3        8    23  27    4.9178   618.6    3.044      62.457
2015    3        8    23  32    4.9150   618.5    3.044      62.429
2015    3        8    23  37    4.9121   618.3    3.043      62.400
2015    3        8    23  43    4.9093   618.2    3.043      62.371
2015    3        8    23  48    4.9064   618.1    3.042      62.342
2015    3        8    23  54    4.9036   618.0    3.042      62.312
2015    3        8    23  59    4.9008   617.8    3.041      62.282
2015    3        9     0   5    4.8979   617.7    3.041      62.253
2015    3        9     0  10    4.8951   617.6    3.040      62.222
2015    3        9     0  16    4.8922   617.5    3.040      62.192
2015    3        9     0  21    4.8894   617.3    3.039      62.161
2015    3        9     0  26    4.8865   617.2    3.039      62.131
2015    3        9     0  32    4.8837   617.1    3.038      62.100
2015    3        9     0  37    4.8809   616.9    3.038      62.069
2015    3        9     0  43    4.8780   616.8    3.037      62.039
2015    3        9     0  48    4.8751   616.7    3.037      62.009
2015    3        9     0  54    4.8723   616.5    3.036      61.978
2015    3        9     0  59    4.8694   616.4    3.036      61.948
2015    3        9     1   5    4.8666   616.3    3.035      61.917
2015    3        9     1  10    4.8637   616.1    3.035      61.886
2015    3        9     1  15    4.8608   616.0    3.034      61.855
2015    3        9     1  21    4.8578   615.9    3.033      61.824
2015    3        9     1  26    4.8549   615.7    3.032      61.792
2015    3        9     1  32    4.8520   615.6    3.032      61.760
2015    3        9     1  37    4.8490   615.5    3.031      61.728
2015    3        9     1  43    4.8461   615.3    3.030      61.695
2015    3        9     1  48    4.8431   615.2    3.029      61.662
2015    3        9     1  54    4.8402   615.0    3.029      61.629
2015    3        9     1  59    4.8372   614.9    3.028      61.595
2015    3        9     2   4    4.8342   614.8    3.027      61.561
2015    3        9     2  10    4.8312   614.6    3.026      61.526
2015    3        9     2  15    4.8282   614.5    3.025      61.492
2015    3        9     2  21    4.8252   614.3    3.024      61.457
2015    3        9     2  26    4.8222   614.2    3.024      61.422
2015    3        9     2  32    4.8192   614.0    3.023      61.387
2015    3        9     2  37    4.8162   613.9    3.022      61.352
2015    3        9     2  43    4.8132   613.7    3.021      61.316
2015    3        9     2  48    4.8102   613.6    3.020      61.280
2015    3        9     2  54    4.8072   613.4    3.020      61.244
2015    3        9     2  59    4.8042   613.3    3.019      61.209
2015    3        9     3   4    4.8012   613.1    3.018      61.173
2015    3        9     3  10    4.7981   613.0    3.017      61.137
2015    3        9     3  15    4.7951   612.8    3.017      61.100
2015    3        9     3  21    4.7921   612.7    3.016      61.064
2015    3        9     3  26    4.7891   612.5    3.015      61.027
2015    3        9     3  32    4.7861   612.3    3.014      60.990
2015    3        9     3  37    4.7831   612.2    3.014      60.953
2015    3        9     3  43    4.7801   612.0    3.013      60.916
2015    3        9     3  48    4.7771   611.9    3.012      60.878
2015    3        9     3  53    4.7741   611.7    3.011      60.841
2015    3        9     3  59    4.7711   611.5    3.011      60.803
2015    3        9     4   4    4.7681   611.4    3.010      60.764
2015    3        9     4  10    4.7651   611.2    3.009      60.725
2015    3        9     4  15    4.7621   611.0    3.008      60.686
2015    3        9     4  21    4.7591   610.9    3.008      60.647
2015    3        9     4  26    4.7561   610.7    3.007      60.608
2015    3        9     4  32    4.7531   610.5    3.007      60.569
2015    3        9     4  37    4.7501   610.4    3.006      60.529
2015    3        9     4  42    4.7471   610.2    3.005      60.489
2015    3        9     4  48    4.7441   610.0    3.005      60.450
2015    3        9     4  53    4.7411   609.9    3.004      60.410
2015    3        9     4  59    4.7381   609.7    3.004      60.370
2015    3        9     5   4    4.7351   609.5    3.003      60.330
2015    3        9     5  10    4.7322   609.4    3.003      60.289
2015    3        9     5  15    4.7292   609.2    3.002      60.249
2015    3        9     5  21    4.7262   609.0    3.002      60.208
2015    3        9     5  26    4.7232   608.9    3.001      60.168
2015    3        9     5  31    4.7203   608.7    3.001      60.127
2015    3        9     5  37    4.7173   608.5    3.001      60.086
2015    3        9     5  42    4.7143   608.4    3.000      60.045
2015    3        9     5  48    4.7113   608.2    3.000      60.004
2015    3        9     5  53    4.7084   608.0    3.000      59.962
2015    3        9     5  59    4.7054   607.8    2.999      59.921
2015    3        9     6   4    4.7024   607.7    2.999      59.880
2015    3        9     6  10    4.6994   607.5    2.999      59.838
2015    3        9     6  15    4.6965   607.3    2.998      59.796
2015    3        9     6  20    4.6935   607.1    2.998      59.755
2015    3        9     6  26    4.6905   607.0    2.998      59.713
2015    3        9     6  31    4.6876   606.8    2.998      59.670
2015    3        9     6  37    4.6846   606.6    2.997      59.628
2015    3        9     6  42    4.6816   606.4    2.997      59.586
2015    3        9     6  48    4.6787   606.2    2.997      59.544
2015    3        9     6  53    4.6757   606.1    2.997      59.502
2015    3        9     6  59    4.6728   605.9    2.997      59.459
2015    3        9     7   4    4.6698   605.7    2.996      59.417
2015    3        9     7  10    4.6668   605.5    2.996      59.375
2015    3        9     7  15    4.6639   605.3    2.996      59.333
2015    3        9     7  20    4.6609   605.1    2.996      59.291
2015    3        9     7  26    4.6580   605.0    2.996      59.249
2015    3        9     7  31    4.6550   604.8    2.995      59.208
2015    3        9     7  37    4.6521   604.6    2.995      59.166
2015    3        9     7  42    4.6491   604.4    2.995      59.124
2015    3        9     7  48    4.6462   604.2    2.995      59.083
2015    3        9     7  53    4.6432   604.0    2.995      59.042
2015    3        9     7  59    4.6403   603.9    2.995      59.001
2015    3        9     8   4    4.6373   603.7    2.994      58.961
2015    3        9     8   9    4.6344   603.5    2.994      58.921
2015    3        9     8  15    4.6315   603.3    2.994      58.881
2015    3        9     8  20    4.6285   603.1    2.994      58.842
2015    3        9     8  26    4.6255   602.9    2.994      58.802
2015    3        9     8  31    4.6226   602.7    2.994      58.763
2015    3        9     8  37    4.6196   602.5    2.993      58.723
2015    3        9     8  42    4.6166   602.4    2.993      58.684
2015    3        9     8  48    4.6137   602.2    2.993      58.644
2015    3        9     8  53    4.6107   602.0    2.993      58.605
2015    3        9     8  58    4.6077   601.8    2.993      58.566
2015    3        9     9   4    4.6048   601.6    2.992      58.526
2015    3        9     9   9    4.6018   601.4    2.992      58.486
2015    3        9     9  15    4.5988   601.2    2.992      58.447
2015    3        9     9  20    4.5958   601.0    2.992      58.407
2015    3        9     9  26    4.5929   600.8    2.992      58.367
2015    3        9     9  31    4.5899   600.6    2.992      58.328
2015    3        9     9  37    4.5870   600.5    2.992      58.288
2015    3        9     9  42    4.5840   600.3    2.992      58.249
2015    3        9     9  47    4.5811   600.1    2.992      58.211
2015    3        9     9  53    4.5781   599.9    2.992      58.172
2015    3        9     9  58    4.5752   599.7    2.992      58.134
2015    3        9    10   4    4.5723   599.5    2.992      58.096
2015    3        9    10   9    4.5694   599.3    2.992      58.059
2015    3        9    10  15    4.5665   599.1    2.992      58.021
2015    3        9    10  20    4.5635   598.9    2.992      57.983
2015    3        9    10  26    4.5606   598.7    2.992      57.946
2015    3        9    10  31    4.5577   598.5    2.992      57.908
2015    3        9    10  36    4.5548   598.3    2.992      57.870
2015    3        9    10  42    4.5519   598.2    2.992      57.831
2015    3        9    10  47    4.5489   598.0    2.992      57.792
2015    3        9    10  53    4.5460   597.8    2.992      57.753
2015    3        9    10  58    4.5430   597.6    2.992      57.713
2015    3        9    11   4    4.5401   597.4    2.992      57.673
2015    3        9    11   9    4.5371   597.2    2.991      57.632
2015    3        9    11  15    4.5342   597.0    2.991      57.590
2015    3        9    11  20    4.5312   596.8    2.991      57.548
2015    3        9    11  26    4.5282   596.6    2.990      57.505
2015    3        9    11  31    4.5252   596.4    2.990      57.462
2015    3        9    11  36    4.5222   596.2    2.990      57.417
2015    3        9    11  42    4.5193   596.0    2.989      57.373
2015    3        9    11  47    4.5163   595.8    2.989      57.328
2015    3        9    11  53    4.5133   595.6    2.989      57.282
2015    3        9    11  58    4.5103   595.4    2.988      57.236
2015    3        9    12   4    4.5073   595.2    2.988      57.190
2015    3        9    12   9    4.5043   595.0    2.988      57.144
2015    3        9    12  15    4.5013   594.8    2.987      57.096
2015    3        9    12  20    4.4983   594.6    2.987      57.049
2015    3        9    12  25    4.4954   594.4    2.986      57.002
2015    3        9    12  31    4.4924   594.2    2.986      56.954
2015    3        9    12  36    4.4894   594.0    2.986      56.906
2015    3        9    12  42    4.4865   593.8    2.986      56.858
2015    3        9    12  47    4.4835   593.6    2.985      56.810
2015    3        9    12  53    4.4805   593.4    2.985      56.761
2015    3        9    12  58    4.4776   593.2    2.985      56.713
2015    3        9    13   4    4.4746   593.0    2.984      56.664
2015    3        9    13   9    4.4717   592.8    2.984      56.615
2015    3        9    13  14    4.4687   592.6    2.984      56.566
2015    3        9    13  20    4.4658   592.3    2.984      56.517
2015    3        9    13  25    4.4629   592.1    2.983      56.467
2015    3        9    13  31    4.4599   591.9    2.983      56.417
2015    3        9    13  36    4.4570   591.7    2.983      56.367
2015    3        9    13  42    4.4540   591.5    2.983      56.318
2015    3        9    13  47    4.4512   591.3    2.982      56.267
2015    3        9    13  53    4.4482   591.1    2.982      56.217
2015    3        9    13  58    4.4453   590.8    2.982      56.167
2015    3        9    14   3    4.4424   590.6    2.982      56.117
2015    3        9    14   9    4.4395   590.4    2.982      56.067
2015    3        9    14  14    4.4367   590.2    2.982      56.017
2015    3        9    14  20    4.4338   590.0    2.982      55.967
2015    3        9    14  25    4.4309   589.7    2.982      55.917
2015    3        9    14  31    4.4280   589.5    2.981      55.867
2015    3        9    14  36    4.4252   589.3    2.981      55.818
2015    3        9    14  42    4.4223   589.1    2.981      55.768
2015    3        9    14  47    4.4195   588.8    2.981      55.719
2015    3        9    14  53    4.4167   588.6    2.981      55.670
2015    3        9    14  58    4.4139   588.4    2.981      55.621
2015    3        9    15   3    4.4110   588.2    2.981      55.572
2015    3        9    15   9    4.4082   587.9    2.981      55.523
2015    3        9    15  14    4.4054   587.7    2.982      55.474
2015    3        9    15  20    4.4026   587.5    2.982      55.426
2015    3        9    15  25    4.3998   587.2    2.982      55.377
2015    3        9    15  31    4.3970   587.0    2.982      55.329
2015    3        9    15  36    4.3941   586.8    2.982      55.281
2015    3        9    15  42    4.3913   586.6    2.982      55.232
2015    3        9    15  47    4.3885   586.3    2.982      55.183
2015    3        9    15  52    4.3856   586.1    2.982      55.134
2015    3        9    15  58    4.3828   585.9    2.982      55.085
2015    3        9    16   3    4.3799   585.6    2.982      55.036
2015    3        9    16   9    4.3771   585.4    2.982      54.987
2015    3        9    16  14    4.3742   585.2    2.982      54.938
2015    3        9    16  20    4.3713   584.9    2.982      54.888
2015    3        9    16  25    4.3684   584.7    2.982      54.839
2015    3        9    16  31    4.3656   584.5    2.982      54.789
2015    3        9    16  36    4.3627   584.2    2.982      54.740
2015    3        9    16  41    4.3598   584.0    2.982      54.691
2015    3        9    16  47    4.3569   583.7    2.983      54.641
2015    3        9    16  52    4.3541   583.5    2.983      54.592
2015    3        9    16  58    4.3512   583.3    2.983      54.543
2015    3        9    17   3    4.3483   583.0    2.983      54.494
2015    3        9    17   9    4.3455   582.8    2.983      54.446
2015    3        9    17  14    4.3426   582.5    2.984      54.398
2015    3        9    17  20    4.3398   582.3    2.984      54.351
2015    3        9    17  25    4.3370   582.1    2.984      54.304
2015    3        9    17  30    4.3342   581.8    2.984      54.257
2015    3        9    17  36    4.3314   581.6    2.985      54.211
2015    3        9    17  41    4.3286   581.3    2.985      54.165
2015    3        9    17  47    4.3258   581.1    2.986      54.119
2015    3        9    17  52    4.3230   580.9    2.986      54.073
2015    3        9    17  58    4.3202   580.6    2.986      54.028
2015    3        9    18   3    4.3174   580.4    2.987      53.982
2015    3        9    18   9    4.3146   580.2    2.987      53.936
2015    3        9    18  14    4.3118   579.9    2.988      53.890
2015    3        9    18  20    4.3090   579.7    2.988      53.844
2015    3        9    18  25    4.3061   579.5    2.989      53.798
2015    3        9    18  30    4.3034   579.2    2.989      53.752
2015    3        9    18  36    4.3005   579.0    2.989      53.705
2015    3        9    18  41    4.2977   578.8    2.990      53.657
2015    3        9    18  47    4.2949   578.5    2.990      53.610
2015    3        9    18  52    4.2921   578.3    2.991      53.563
2015    3        9    18  58    4.2892   578.0    2.991      53.515
2015    3        9    19   3    4.2864   577.8    2.992      53.467
2015    3        9    19   9    4.2836   577.6    2.992      53.419
2015    3        9    19  14    4.2807   577.3    2.993      53.370
2015    3        9    19  19    4.2779   577.1    2.993      53.322
2015    3        9    19  25    4.2751   576.8    2.994      53.273
2015    3        9    19  30    4.2723   576.6    2.994      53.225
2015    3        9    19  36    4.2694   576.4    2.995      53.176
2015    3        9    19  41    4.2666   576.1    2.995      53.127
2015    3        9    19  47    4.2638   575.9    2.996      53.079
2015    3        9    19  52    4.2611   575.6    2.996      53.030
2015    3        9    19  58    4.2583   575.4    2.997      52.982
2015    3        9    20   3    4.2555   575.1    2.997      52.934
2015    3        9    20   8    4.2528   574.9    2.998      52.886
2015    3        9    20  14    4.2500   574.7    2.998      52.838
2015    3        9    20  19    4.2473   574.4    2.999      52.790
2015    3        9    20  25    4.2446   574.2    2.999      52.742
2015    3        9    20  30    4.2419   573.9    3.000      52.694
2015    3        9    20  36    4.2392   573.7    3.000      52.647
2015    3        9    20  41    4.2364   573.4    3.001      52.599
2015    3        9    20  47    4.2338   573.2    3.001      52.551
2015    3        9    20  52    4.2311   572.9    3.002      52.504
2015    3        9    20  57    4.2284   572.7    3.002      52.456
2015    3        9    21   3    4.2257   572.4    3.003      52.408
2015    3        9    21   8    4.2230   572.2    3.003      52.360
2015    3        9    21  14    4.2204   572.0    3.004      52.312
2015    3        9    21  19    4.2177   571.7    3.004      52.264
2015    3        9    21  25    4.2151   571.5    3.004      52.216
2015    3        9    21  30    4.2124   571.2    3.005      52.168
2015    3        9    21  36    4.2098   571.0    3.005      52.120
2015    3        9    21  41    4.2072   570.7    3.006      52.072
2015    3        9    21  46    4.2045   570.5    3.006      52.024
2015    3        9    21  52    4.2018   570.2    3.007      51.976
2015    3        9    21  57    4.1992   570.0    3.007      51.928
2015    3        9    22   3    4.1966   569.7    3.008      51.880
2015    3        9    22   8    4.1939   569.5    3.008      51.833
2015    3        9    22  14    4.1913   569.2    3.009      51.785
2015    3        9    22  19    4.1887   569.0    3.009      51.737
2015    3        9    22  25    4.1861   568.7    3.010      51.690
2015    3        9    22  30    4.1835   568.5    3.010      51.642
2015    3        9    22  36    4.1809   568.2    3.011      51.595
2015    3        9    22  41    4.1783   568.0    3.011      51.547
2015    3        9    22  46    4.1757   567.7    3.012      51.499
2015    3        9    22  52    4.1730   567.5    3.012      51.451
2015    3        9    22  57    4.1704   567.2    3.012      51.403
2015    3        9    23   3    4.1678   567.0    3.013      51.354
2015    3        9    23   8    4.1651   566.7    3.013      51.306
2015    3        9    23  14    4.1626   566.4    3.014      51.256
2015    3        9    23  19    4.1599   566.2    3.014      51.206
2015    3        9    23  25    4.1573   565.9    3.014      51.157
2015    3        9    23  30    4.1547   565.7    3.015      51.106
2015    3        9    23  35    4.1520   565.4    3.015      51.056
2015    3        9    23  41    4.1494   565.1    3.015      51.005
2015    3        9    23  46    4.1467   564.9    3.015      50.953
2015    3        9    23  52    4.1441   564.6    3.016      50.901
2015    3        9    23  57    4.1415   564.3    3.016      50.849
2015    3       10     0   3    4.1389   564.1    3.016      50.797
2015    3       10     0   8    4.1363   563.8    3.016      50.745
2015    3       10     0  14    4.1336   563.5    3.016      50.692
2015    3       10     0  19    4.1310   563.3    3.017      50.639
2015    3       10     0  24    4.1284   563.0    3.017      50.585
2015    3       10     0  30    4.1258   562.7    3.017      50.532
2015    3       10     0  35    4.1231   562.4    3.017      50.478
2015    3       10     0  41    4.1206   562.2    3.017      50.424
2015    3       10     0  46    4.1180   561.9    3.018      50.370
2015    3       10     0  52    4.1154   561.6    3.018      50.316
2015    3       10     0  57    4.1128   561.3    3.018      50.263
2015    3       10     1   3    4.1103   561.0    3.018      50.209
2015    3       10     1   8    4.1077   560.8    3.019      50.154
2015    3       10     1  13    4.1052   560.5    3.019      50.100
2015    3       10     1  19    4.1026   560.2    3.019      50.046
2015    3       10     1  24    4.1001   559.9    3.020      49.992
2015    3       10     1  30    4.0975   559.6    3.020      49.938
2015    3       10     1  35    4.0950   559.4    3.021      49.885
2015    3       10     1  41    4.0924   559.1    3.021      49.831
2015    3       10     1  46    4.0899   558.8    3.022      49.777
2015    3       10     1  52    4.0874   558.5    3.022      49.723
2015    3       10     1  57    4.0849   558.2    3.023      49.669
2015    3       10     2   3    4.0824   557.9    3.023      49.615
2015    3       10     2   8    4.0799   557.7    3.024      49.561
2015    3       10     2  13    4.0774   557.4    3.024      49.508
2015    3       10     2  19    4.0749   557.1    3.025      49.454
2015    3       10     2  24    4.0724   556.8    3.026      49.401
2015    3       10     2  30    4.0699   556.5    3.026      49.347
2015    3       10     2  35    4.0675   556.2    3.027      49.294
2015    3       10     2  41    4.0650   555.9    3.028      49.241
2015    3       10     2  46    4.0625   555.6    3.029      49.188
2015    3       10     2  52    4.0601   555.3    3.029      49.136
2015    3       10     2  57    4.0577   555.0    3.030      49.084
2015    3       10     3   2    4.0553   554.7    3.031      49.033
2015    3       10     3   8    4.0530   554.4    3.032      48.982
2015    3       10     3  13    4.0506   554.2    3.033      48.932
2015    3       10     3  19    4.0483   553.9    3.034      48.882
2015    3       10     3  24    4.0460   553.6    3.035      48.833
2015    3       10     3  30    4.0437   553.3    3.037      48.785
2015    3       10     3  35    4.0415   553.0    3.038      48.737
2015    3       10     3  41    4.0392   552.7    3.039      48.691
2015    3       10     3  46    4.0370   552.4    3.040      48.644
2015    3       10     3  51    4.0348   552.1    3.042      48.598
2015    3       10     3  57    4.0326   551.8    3.043      48.553
2015    3       10     4   2    4.0304   551.6    3.044      48.508
2015    3       10     4   8    4.0282   551.3    3.046      48.463
2015    3       10     4  13    4.0259   551.0    3.047      48.419
2015    3       10     4  19    4.0237   550.7    3.049      48.375
2015    3       10     4  24    4.0215   550.4    3.050      48.331
2015    3       10     4  30    4.0193   550.1    3.052      48.287
2015    3       10     4  35    4.0170   549.9    3.053      48.244
2015    3       10     4  40    4.0148   549.6    3.055      48.200
2015    3       10     4  46    4.0125   549.3    3.056      48.156
2015    3       10     4  51    4.0103   549.0    3.057      48.112
2015    3       10     4  57    4.0080   548.7    3.059      48.069
2015    3       10     5   2    4.0057   548.4    3.060      48.025
2015    3       10     5   8    4.0034   548.1    3.062      47.981
2015    3       10     5  13    4.0012   547.9    3.063      47.937
2015    3       10     5  19    3.9989   547.6    3.065      47.893
2015    3       10     5  24    3.9966   547.3    3.066      47.849
2015    3       10     5  29    3.9944   547.0    3.067      47.806
2015    3       10     5  35    3.9922   546.7    3.069      47.761
2015    3       10     5  40    3.9899   546.4    3.070      47.717
2015    3       10     5  46    3.9876   546.1    3.071      47.673
2015    3       10     5  51    3.9854   545.9    3.073      47.629
2015    3       10     5  57    3.9832   545.6    3.074      47.584
2015    3       10     6   2    3.9810   545.3    3.075      47.540
2015    3       10     6   8    3.9787   545.0    3.077      47.495
2015    3       10     6  13    3.9766   544.7    3.078      47.451
2015    3       10     6  19    3.9744   544.4    3.079      47.406
2015    3       10     6  24    3.9723   544.1    3.081      47.361
2015    3       10     6  29    3.9700   543.8    3.082      47.317
2015    3       10     6  35    3.9679   543.6    3.083      47.272
2015    3       10     6  40    3.9658   543.3    3.085      47.227
2015    3       10     6  46    3.9637   543.0    3.086      47.182
2015    3       10     6  51    3.9616   542.7    3.087      47.137
2015    3       10     6  57    3.9594   542.4    3.088      47.092
2015    3       10     7   2    3.9573   542.1    3.090      47.047
2015    3       10     7   8    3.9553   541.8    3.091      47.001
2015    3       10     7  13    3.9532   541.5    3.092      46.956
2015    3       10     7  18    3.9511   541.3    3.093      46.910
2015    3       10     7  24    3.9490   541.0    3.094      46.865
2015    3       10     7  29    3.9470   540.7    3.096      46.819
2015    3       10     7  35    3.9449   540.4    3.097      46.773
2015    3       10     7  40    3.9429   540.1    3.098      46.727
2015    3       10     7  46    3.9408   539.8    3.099      46.681
2015    3       10     7  51    3.9388   539.5    3.100      46.635
2015    3       10     7  57    3.9366   539.2    3.101      46.589
2015    3       10     8   2    3.9346   538.9    3.102      46.542
2015    3       10     8   7    3.9325   538.6    3.103      46.496
2015    3       10     8  13    3.9305   538.3    3.104      46.449
2015    3       10     8  18    3.9285   538.0    3.105      46.402
2015    3       10     8  24    3.9265   537.7    3.107      46.355
2015    3       10     8  29    3.9244   537.4    3.108      46.308
2015    3       10     8  35    3.9224   537.1    3.109      46.260
2015    3       10     8  40    3.9204   536.9    3.110      46.212
2015    3       10     8  46    3.9183   536.6    3.111      46.165
2015    3       10     8  51    3.9163   536.3    3.112      46.117
2015    3       10     8  56    3.9142   536.0    3.113      46.069
2015    3       10     9   2    3.9121   535.6    3.114      46.020
2015    3       10     9   7    3.9101   535.3    3.114      45.972
2015    3       10     9  13    3.9081   535.0    3.115      45.923
2015    3       10     9  18    3.9061   534.7    3.116      45.875
2015    3       10     9  24    3.9040   534.4    3.117      45.826
2015    3       10     9  29    3.9020   534.1    3.118      45.778
2015    3       10     9  35    3.9001   533.8    3.119      45.729
2015    3       10     9  40    3.8981   533.5    3.121      45.681
2015    3       10     9  46    3.8960   533.2    3.122      45.632
2015    3       10     9  51    3.8941   532.9    3.123      45.584
2015    3       10     9  56    3.8921   532.6    3.124      45.535
2015    3       10    10   2    3.8902   532.3    3.125      45.487
2015    3       10    10   7    3.8882   532.0    3.126      45.440
2015    3       10    10  13    3.8864   531.6    3.127      45.392
2015    3       10    10  18    3.8844   531.3    3.129      45.345
2015    3       10    10  24    3.8826   531.0    3.130      45.298
2015    3       10    10  29    3.8807   530.7    3.131      45.251
2015    3       10    10  35    3.8788   530.4    3.133      45.205
2015    3       10    10  40    3.8770   530.1    3.134      45.158
2015    3       10    10  45    3.8752   529.8    3.136      45.112
2015    3       10    10  51    3.8733   529.5    3.137      45.067
2015    3       10    10  56    3.8715   529.1    3.139      45.021
2015    3       10    11   2    3.8697   528.8    3.140      44.976
2015    3       10    11   7    3.8679   528.5    3.142      44.930
2015    3       10    11  13    3.8660   528.2    3.143      44.885
2015    3       10    11  18    3.8642   527.9    3.145      44.840
2015    3       10    11  24    3.8624   527.6    3.147      44.794
2015    3       10    11  29    3.8605   527.3    3.148      44.749
2015    3       10    11  34    3.8587   527.0    3.150      44.703
2015    3       10    11  40    3.8569   526.6    3.152      44.658
2015    3       10    11  45    3.8551   526.3    3.153      44.612
2015    3       10    11  51    3.8532   526.0    3.155      44.567
2015    3       10    11  56    3.8514   525.7    3.157      44.521
2015    3       10    12   2    3.8495   525.3    3.159      44.475
2015    3       10    12   7    3.8477   525.0    3.160      44.430
2015    3       10    12  13    3.8460   524.7    3.162      44.384
2015    3       10    12  18    3.8442   524.4    3.164      44.339
2015    3       10    12  23    3.8424   524.0    3.166      44.294
2015    3       10    12  29    3.8407   523.7    3.168      44.249
2015    3       10    12  34    3.8390   523.4    3.170      44.204
2015    3       10    12  40    3.8373   523.1    3.171      44.159
2015    3       10    12  45    3.8356   522.7    3.173      44.115
2015    3       10    12  51    3.8339   522.4    3.175      44.071
2015    3       10    12  56    3.8323   522.1    3.178      44.027
2015    3       10    13   2    3.8307   521.8    3.180      43.984
2015    3       10    13   7    3.8292   521.4    3.182      43.941
2015    3       10    13  12    3.8276   521.1    3.184      43.898
2015    3       10    13  18    3.8260   520.8    3.186      43.856
2015    3       10    13  23    3.8246   520.5    3.188      43.814
2015    3       10    13  29    3.8230   520.1    3.191      43.772
2015    3       10    13  34    3.8216   519.8    3.193      43.731
2015    3       10    13  40    3.8201   519.5    3.195      43.689
2015    3       10    13  45    3.8186   519.2    3.198      43.648
2015    3       10    13  51    3.8172   518.9    3.200      43.608
2015    3       10    13  56    3.8157   518.5    3.202      43.567
2015    3       10    14   2    3.8143   518.2    3.205      43.526
2015    3       10    14   7    3.8129   517.9    3.207      43.486
2015    3       10    14  12    3.8114   517.6    3.210      43.445
2015    3       10    14  18    3.8100   517.3    3.212      43.405
2015    3       10    14  23    3.8086   517.0    3.214      43.365
2015    3       10    14  29    3.8072   516.6    3.217      43.324
2015    3       10    14  34    3.8058   516.3    3.219      43.284
2015    3       10    14  40    3.8043   516.0    3.222      43.244
2015    3       10    14  45    3.8029   515.7    3.224      43.203
2015    3       10    14  51    3.8015   515.4    3.226      43.163
2015    3       10    14  56    3.8001   515.1    3.229      43.123
2015    3       10    15   1    3.7987   514.7    3.231      43.082
2015    3       10    15   7    3.7973   514.4    3.233      43.042
2015    3       10    15  12    3.7959   514.1    3.236      43.002
2015    3       10    15  18    3.7946   513.8    3.238      42.962
2015    3       10    15  23    3.7932   513.5    3.240      42.922
2015    3       10    15  29    3.7919   513.2    3.243      42.882
2015    3       10    15  34    3.7905   512.9    3.245      42.842
2015    3       10    15  40    3.7891   512.5    3.247      42.802
2015    3       10    15  45    3.7878   512.2    3.250      42.763
2015    3       10    15  50    3.7864   511.9    3.252      42.723
2015    3       10    15  56    3.7852   511.6    3.254      42.684
2015    3       10    16   1    3.7838   511.3    3.257      42.644
2015    3       10    16   7    3.7825   511.0    3.259      42.605
2015    3       10    16  12    3.7812   510.7    3.261      42.566
2015    3       10    16  18    3.7799   510.4    3.264      42.526
2015    3       10    16  23    3.7786   510.1    3.266      42.487
2015    3       10    16  29    3.7773   509.8    3.268      42.448
2015    3       10    16  34    3.7760   509.4    3.271      42.408
2015    3       10    16  39    3.7747   509.1    3.273      42.369
2015    3       10    16  45    3.7734   508.8    3.275      42.330
2015    3       10    16  50    3.7721   508.5    3.278      42.290
2015    3       10    16  56    3.7709   508.2    3.280      42.251
2015    3       10    17   1    3.7696   507.9    3.282      42.211
2015    3       10    17   7    3.7683   507.6    3.285      42.172
2015    3       10    17  12    3.7670   507.3    3.287      42.132
2015    3       10    17  18    3.7658   507.0    3.289      42.092
2015    3       10    17  23    3.7645   506.6    3.292      42.052
2015    3       10    17  29    3.7633   506.3    3.294      42.012
2015    3       10    17  34    3.7621   506.0    3.296      41.972
2015    3       10    17  39    3.7609   505.7    3.298      41.932
2015    3       10    17  45    3.7597   505.4    3.301      41.892
2015    3       10    17  50    3.7585   505.1    3.303      41.852
2015    3       10    17  56    3.7573   504.8    3.305      41.812
2015    3       10    18   1    3.7561   504.5    3.308      41.771
2015    3       10    18   7    3.7549   504.1    3.310      41.731
2015    3       10    18  12    3.7538   503.8    3.312      41.690
2015    3       10    18  18    3.7527   503.5    3.315      41.650
2015    3       10    18  23    3.7515   503.2    3.317      41.609
2015    3       10    18  28    3.7503   502.9    3.319      41.568
2015    3       10    18  34    3.7492   502.6    3.322      41.527
2015    3       10    18  39    3.7481   502.2    3.324      41.486
2015    3       10    18  45    3.7470   501.9    3.326      41.445
2015    3       10    18  50    3.7459   501.6    3.329      41.404
2015    3       10    18  56    3.7448   501.3    3.331      41.363
2015    3       10    19   1    3.7437   501.0    3.333      41.322
2015    3       10    19   7    3.7426   500.6    3.336      41.281
2015    3       10    19  12    3.7414   500.3    3.338      41.239
2015    3       10    19  17    3.7405   500.0    3.340      41.198
2015    3       10    19  23    3.7393   499.7    3.343      41.157
2015    3       10    19  28    3.7383   499.4    3.345      41.115
2015    3       10    19  34    3.7372   499.0    3.347      41.074
2015    3       10    19  39    3.7363   498.7    3.350      41.033
2015    3       10    19  45    3.7352   498.4    3.352      40.992
2015    3       10    19  50    3.7342   498.1    3.355      40.951
2015    3       10    19  56    3.7332   497.7    3.357      40.910
2015    3       10    20   1    3.7323   497.4    3.360      40.869
2015    3       10    20   6    3.7313   497.1    3.362      40.828
2015    3       10    20  12    3.7305   496.8    3.365      40.788
2015    3       10    20  17    3.7295   496.4    3.368      40.748
2015    3       10    20  23    3.7287   496.1    3.370      40.708
2015    3       10    20  28    3.7278   495.8    3.373      40.668
2015    3       10    20  34    3.7269   495.5    3.376      40.628
2015    3       10    20  39    3.7260   495.2    3.378      40.589
2015    3       10    20  45    3.7253   494.8    3.381      40.549
2015    3       10    20  50    3.7244   494.5    3.384      40.511
2015    3       10    20  55    3.7237   494.2    3.387      40.472
2015    3       10    21   1    3.7229   493.9    3.390      40.433
2015    3       10    21   6    3.7222   493.6    3.393      40.395
2015    3       10    21  12    3.7214   493.2    3.396      40.357
2015    3       10    21  17    3.7207   492.9    3.399      40.319
2015    3       10    21  23    3.7200   492.6    3.402      40.281
2015    3       10    21  28    3.7193   492.3    3.405      40.243
2015    3       10    21  34    3.7186   492.0    3.408      40.206
2015    3       10    21  39    3.7179   491.7    3.411      40.168
2015    3       10    21  45    3.7172   491.4    3.414      40.131
2015    3       10    21  50    3.7166   491.0    3.417      40.093
2015    3       10    21  55    3.7160   490.7    3.420      40.056
2015    3       10    22   1    3.7154   490.4    3.424      40.019
2015    3       10    22   6    3.7147   490.1    3.427      39.982
2015    3       10    22  12    3.7141   489.8    3.430      39.945
2015    3       10    22  17    3.7135   489.5    3.433      39.908
2015    3       10    22  23    3.7128   489.1    3.436      39.870
2015    3       10    22  28    3.7123   488.8    3.440      39.833
2015    3       10    22  34    3.7117   488.5    3.443      39.796
2015    3       10    22  39    3.7111   488.2    3.446      39.759
2015    3       10    22  44    3.7106   487.9    3.449      39.722
2015    3       10    22  50    3.7100   487.6    3.453      39.685
2015    3       10    22  55    3.7094   487.3    3.456      39.647
2015    3       10    23   1    3.7089   486.9    3.459      39.610
2015    3       10    23   6    3.7084   486.6    3.462      39.573
2015    3       10    23  12    3.7078   486.3    3.466      39.535
2015    3       10    23  17    3.7073   486.0    3.469      39.498
2015    3       10    23  23    3.7068   485.7    3.472      39.461
2015    3       10    23  28    3.7063   485.4    3.475      39.423
2015    3       10    23  33    3.7058   485.1    3.479      39.386
2015    3       10    23  39    3.7053   484.7    3.482      39.349
2015    3       10    23  44    3.7048   484.4    3.485      39.311
2015    3       10    23  50    3.7043   484.1    3.488      39.274
2015    3       10    23  55    3.7039   483.8    3.492      39.237
2015    3       11     0   1    3.7034   483.5    3.495      39.199
2015    3       11     0   6    3.7030   483.2    3.498      39.162
2015    3       11     0  12    3.7027   482.9    3.501      39.125
2015    3       11     0  17    3.7022   482.5    3.505      39.088
2015    3       11     0  22    3.7018   482.2    3.508      39.050
2015    3       11     0  28    3.7014   481.9    3.511      39.013
2015    3       11     0  33    3.7011   481.6    3.514      38.976
2015    3       11     0  39    3.7007   481.3    3.518      38.939
2015    3       11     0  44    3.7004   481.0    3.521      38.902
2015    3       11     0  50    3.7000   480.7    3.524      38.865
2015    3       11     0  55    3.6997   480.4    3.528      38.828
2015    3       11     1   1    3.6994   480.1    3.531      38.792
2015    3       11     1   6    3.6991   479.8    3.534      38.755
2015    3       11     1  12    3.6988   479.4    3.537      38.719
2015    3       11     1  17    3.6986   479.1    3.541      38.682
2015    3       11     1  22    3.6983   478.8    3.544      38.646
2015    3       11     1  28    3.6980   478.5    3.548      38.610
2015    3       11     1  33    3.6978   478.2    3.551      38.574
2015    3       11     1  39    3.6976   477.9    3.554      38.538
2015    3       11     1  44    3.6973   477.6    3.558      38.502
2015    3       11     1  50    3.6971   477.3    3.561      38.466
2015    3       11     1  55    3.6969   477.0    3.564      38.430
2015    3       11     2   1    3.6968   476.7    3.568      38.395
2015    3       11     2   6    3.6966   476.4    3.571      38.359
2015    3       11     2  11    3.6964   476.1    3.575      38.324
2015    3       11     2  17    3.6963   475.8    3.578      38.288
2015    3       11     2  22    3.6961   475.5    3.582      38.253
2015    3       11     2  28    3.6961   475.2    3.585      38.218
2015    3       11     2  33    3.6959   474.9    3.589      38.183
2015    3       11     2  39    3.6959   474.5    3.592      38.148
2015    3       11     2  44    3.6957   474.2    3.596      38.113
2015    3       11     2  50    3.6956   473.9    3.599      38.078
2015    3       11     2  55    3.6956   473.6    3.603      38.043
2015    3       11     3   0    3.6955   473.3    3.606      38.008
2015    3       11     3   6    3.6955   473.0    3.610      37.974
2015    3       11     3  11    3.6954   472.7    3.613      37.939
2015    3       11     3  17    3.6953   472.4    3.617      37.904
2015    3       11     3  22    3.6954   472.1    3.620      37.869
2015    3       11     3  28    3.6953   471.8    3.624      37.834
2015    3       11     3  33    3.6954   471.5    3.628      37.800
2015    3       11     3  39    3.6953   471.2    3.631      37.765
2015    3       11     3  44    3.6953   470.9    3.635      37.730
2015    3       11     3  49    3.6954   470.6    3.639      37.696
2015    3       11     3  55    3.6955   470.3    3.642      37.661
2015    3       11     4   0    3.6955   470.0    3.646      37.626
2015    3       11     4   6    3.6957   469.7    3.650      37.592
2015    3       11     4  11    3.6957   469.4    3.653      37.557
2015    3       11     4  17    3.6957   469.1    3.657      37.523
2015    3       11     4  22    3.6960   468.8    3.661      37.488
2015    3       11     4  28    3.6961   468.5    3.665      37.453
2015    3       11     4  33    3.6962   468.2    3.668      37.419
2015    3       11     4  38    3.6964   467.9    3.672      37.385
2015    3       11     4  44    3.6965   467.6    3.676      37.350
2015    3       11     4  49    3.6966   467.3    3.680      37.316
2015    3       11     4  55    3.6969   467.0    3.684      37.282
2015    3       11     5   0    3.6971   466.7    3.688      37.248
2015    3       11     5   6    3.6974   466.3    3.692      37.214
2015    3       11     5  11    3.6976   466.0    3.696      37.181
2015    3       11     5  17    3.6979   465.7    3.700      37.147
2015    3       11     5  22    3.6981   465.4    3.704      37.113
2015    3       11     5  28    3.6985   465.1    3.708      37.080
2015    3       11     5  33    3.6987   464.8    3.712      37.047
2015    3       11     5  38    3.6991   464.5    3.716      37.014
2015    3       11     5  44    3.6995   464.2    3.720      36.981
2015    3       11     5  49    3.6999   463.9    3.724      36.948
2015    3       11     5  55    3.7003   463.6    3.729      36.915
2015    3       11     6   0    3.7007   463.3    3.733      36.883
2015    3       11     6   6    3.7011   463.0    3.737      36.850
2015    3       11     6  11    3.7016   462.7    3.741      36.818
2015    3       11     6  17    3.7020   462.4    3.746      36.786
2015    3       11     6  22    3.7026   462.1    3.750      36.754
2015    3       11     6  27    3.7030   461.9    3.755      36.722
2015    3       11     6  33    3.7035   461.6    3.759      36.691
2015    3       11     6  38    3.7040   461.3    3.763      36.659
2015    3       11     6  44    3.7046   461.0    3.768      36.627
2015    3       11     6  49    3.7050   460.7    3.772      36.596
2015    3       11     6  55    3.7056   460.4    3.777      36.564
2015    3       11     7   0    3.7062   460.1    3.781      36.533
2015    3       11     7   6    3.7067   459.8    3.786      36.502
2015    3       11     7  11    3.7074   459.5    3.790      36.471
2015    3       11     7  16    3.7079   459.2    3.795      36.439
2015    3       11     7  22    3.7085   458.9    3.799      36.408
2015    3       11     7  27    3.7090   458.6    3.804      36.377
2015    3       11     7  33    3.7096   458.3    3.808      36.346
2015    3       11     7  38    3.7104   458.0    3.813      36.315
2015    3       11     7  44    3.7109   457.7    3.817      36.284
2015    3       11     7  49    3.7115   457.4    3.822      36.253
2015    3       11     7  55    3.7123   457.1    3.826      36.222
2015    3       11     8   0    3.7129   456.9    3.831      36.191
2015    3       11     8   5    3.7135   456.6    3.835      36.160
2015    3       11     8  11    3.7142   456.3    3.840      36.129
2015    3       11     8  16    3.7148   456.0    3.844      36.099
2015    3       11     8  22    3.7155   455.7    3.849      36.068
2015    3       11     8  27    3.7163   455.4    3.853      36.037
2015    3       11     8  33    3.7170   455.1    3.858      36.006
2015    3       11     8  38    3.7177   454.8    3.862      35.976
2015    3       11     8  44    3.7184   454.5    3.867      35.945
2015    3       11     8  49    3.7193   454.2    3.871      35.915
2015    3       11     8  55    3.7200   453.9    3.876      35.884
2015    3       11     9   0    3.7207   453.6    3.880      35.854
2015    3       11     9   5    3.7216   453.4    3.885      35.824
2015    3       11     9  11    3.7224   453.1    3.890      35.793
2015    3       11     9  16    3.7232   452.8    3.894      35.763
2015    3       11     9  22    3.7240   452.5    3.899      35.733
2015    3       11     9  27    3.7249   452.2    3.903      35.703
2015    3       11     9  33    3.7258   451.9    3.908      35.673
2015    3       11     9  38    3.7266   451.6    3.913      35.643
2015    3       11     9  44    3.7275   451.3    3.917      35.614
2015    3       11     9  49    3.7285   451.0    3.922      35.584
2015    3       11     9  54    3.7294   450.8    3.927      35.554
2015    3       11    10   0    3.7304   450.5    3.931      35.525
2015    3       11    10   5    3.7313   450.2    3.936      35.496
2015    3       11    10  11    3.7323   449.9    3.941      35.467
2015    3       11    10  16    3.7333   449.6    3.946      35.438
2015    3       11    10  22    3.7344   449.3    3.951      35.409
2015    3       11    10  27    3.7353   449.0    3.955      35.381
2015    3       11    10  33    3.7364   448.7    3.960      35.352
2015    3       11    10  38    3.7375   448.5    3.965      35.324
2015    3       11    10  43    3.7386   448.2    3.970      35.296
2015    3       11    10  49    3.7398   447.9    3.975      35.268
2015    3       11    10  54    3.7408   447.6    3.980      35.240
2015    3       11    11   0    3.7420   447.3    3.985      35.213
2015    3       11    11   5    3.7432   447.0    3.990      35.185
2015    3       11    11  11    3.7443   446.8    3.995      35.158
2015    3       11    11  16    3.7456   446.5    4.000      35.131
2015    3       11    11  22    3.7468   446.2    4.006      35.104
2015    3       11    11  27    3.7481   445.9    4.011      35.078
2015    3       11    11  32    3.7493   445.6    4.016      35.051
2015    3       11    11  38    3.7506   445.4    4.021      35.025
2015    3       11    11  43    3.7519   445.1    4.027      34.999
2015    3       11    11  49    3.7532   444.8    4.032      34.973
2015    3       11    11  54    3.7545   444.5    4.037      34.947
2015    3       11    12   0    3.7559   444.2    4.043      34.921
2015    3       11    12   5    3.7573   444.0    4.048      34.896
2015    3       11    12  11    3.7587   443.7    4.053      34.871
2015    3       11    12  16    3.7600   443.4    4.059      34.845
2015    3       11    12  21    3.7614   443.1    4.064      34.820
2015    3       11    12  27    3.7629   442.9    4.070      34.795
2015    3       11    12  32    3.7644   442.6    4.075      34.771
2015    3       11    12  38    3.7658   442.3    4.081      34.746
2015    3       11    12  43    3.7673   442.0    4.086      34.721
2015    3       11    12  49    3.7687   441.8    4.092      34.697
2015    3       11    12  54    3.7702   441.5    4.098      34.673
2015    3       11    13   0    3.7719   441.2    4.103      34.649
2015    3       11    13   5    3.7733   440.9    4.109      34.624
2015    3       11    13  11    3.7750   440.7    4.115      34.600
2015    3       11    13  16    3.7765   440.4    4.120      34.577
2015    3       11    13  21    3.7781   440.1    4.126      34.553
2015    3       11    13  27    3.7798   439.8    4.132      34.529
2015    3       11    13  32    3.7813   439.6    4.138      34.505
2015    3       11    13  38    3.7830   439.3    4.143      34.482
2015    3       11    13  43    3.7846   439.0    4.149      34.459
2015    3       11    13  49    3.7863   438.8    4.155      34.435
2015    3       11    13  54    3.7880   438.5    4.161      34.412
2015    3       11    14   0    3.7898   438.2    4.167      34.389
2015    3       11    14   5    3.7914   438.0    4.173      34.366
2015    3       11    14  10    3.7932   437.7    4.179      34.343
2015    3       11    14  16    3.7950   437.4    4.185      34.320
2015    3       11    14  21    3.7968   437.2    4.191      34.297
2015    3       11    14  27    3.7985   436.9    4.197      34.274
2015    3       11    14  32    3.8004   436.6    4.203      34.252
2015    3       11    14  38    3.8022   436.4    4.209      34.229
2015    3       11    14  43    3.8040   436.1    4.215      34.207
2015    3       11    14  49    3.8060   435.8    4.221      34.184
2015    3       11    14  54    3.8078   435.6    4.227      34.162
2015    3       11    14  59    3.8097   435.3    4.233      34.140
2015    3       11    15   5    3.8116   435.0    4.239      34.118
2015    3       11    15  10    3.8135   434.8    4.246      34.096
2015    3       11    15  16    3.8155   434.5    4.252      34.074
2015    3       11    15  21    3.8175   434.2    4.258      34.052
2015    3       11    15  27    3.8196   434.0    4.264      34.030
2015    3       11    15  32    3.8216   433.7    4.271      34.008
2015    3       11    15  38    3.8235   433.5    4.277      33.987
2015    3       11    15  43    3.8256   433.2    4.283      33.965
2015    3       11    15  48    3.8276   432.9    4.289      33.944
2015    3       11    15  54    3.8298   432.7    4.296      33.922
2015    3       11    15  59    3.8318   432.4    4.302      33.901
2015    3       11    16   5    3.8339   432.2    4.309      33.880
2015    3       11    16  10    3.8362   431.9    4.315      33.859
2015    3       11    16  16    3.8382   431.7    4.321      33.838
2015    3       11    16  21    3.8404   431.4    4.328      33.818
2015    3       11    16  27    3.8428   431.1    4.334      33.797
2015    3       11    16  32    3.8450   430.9    4.341      33.776
2015    3       11    16  38    3.8472   430.6    4.347      33.756
2015    3       11    16  43    3.8495   430.4    4.354      33.736
2015    3       11    16  48    3.8516   430.1    4.360      33.715
2015    3       11    16  54    3.8539   429.9    4.367      33.695
2015    3       11    16  59    3.8564   429.6    4.374      33.675
2015    3       11    17   5    3.8586   429.4    4.380      33.656
2015    3       11    17  10    3.8611   429.1    4.387      33.636
2015    3       11    17  16    3.8634   428.9    4.394      33.617
2015    3       11    17  21    3.8657   428.6    4.400      33.597
2015    3       11    17  27    3.8683   428.4    4.407      33.578
2015    3       11    17  32    3.8706   428.1    4.414      33.559
2015    3       11    17  37    3.8732   427.9    4.421      33.540
2015    3       11    17  43    3.8757   427.6    4.428      33.521
2015    3       11    17  48    3.8782   427.4    4.435      33.503
2015    3       11    17  54    3.8807   427.1    4.441      33.484
2015    3       11    17  59    3.8833   426.9    4.448      33.466
2015    3       11    18   5    3.8859   426.6    4.455      33.448
2015    3       11    18  10    3.8884   426.4    4.462      33.430
2015    3       11    18  16    3.8910   426.2    4.469      33.412
2015    3       11    18  21    3.8937   425.9    4.477      33.395
2015    3       11    18  26    3.8963   425.7    4.484      33.377
2015    3       11    18  32    3.8991   425.4    4.491      33.360
2015    3       11    18  37    3.9018   425.2    4.498      33.343
2015    3       11    18  43    3.9045   424.9    4.505      33.326
2015    3       11    18  48    3.9073   424.7    4.513      33.310
2015    3       11    18  54    3.9101   424.5    4.520      33.293
2015    3       11    18  59    3.9131   424.2    4.528      33.277
2015    3       11    19   5    3.9158   424.0    4.535      33.261
2015    3       11    19  10    3.9186   423.8    4.542      33.246
2015    3       11    19  15    3.9215   423.5    4.550      33.230
2015    3       11    19  21    3.9246   423.3    4.558      33.215
2015    3       11    19  26    3.9274   423.0    4.565      33.200
2015    3       11    19  32    3.9305   422.8    4.573      33.185
2015    3       11    19  37    3.9333   422.6    4.581      33.170
2015    3       11    19  43    3.9365   422.3    4.589      33.156
2015    3       11    19  48    3.9394   422.1    4.597      33.142
2015    3       11    19  54    3.9425   421.9    4.605      33.128
2015    3       11    19  59    3.9457   421.6    4.613      33.115
2015    3       11    20   5    3.9487   421.4    4.621      33.101
2015    3       11    20  10    3.9518   421.2    4.629      33.088
2015    3       11    20  15    3.9551   420.9    4.637      33.075
2015    3       11    20  21    3.9582   420.7    4.645      33.063
2015    3       11    20  26    3.9615   420.5    4.653      33.050
2015    3       11    20  32    3.9646   420.3    4.662      33.038
2015    3       11    20  37    3.9679   420.0    4.670      33.026
2015    3       11    20  43    3.9712   419.8    4.679      33.015
2015    3       11    20  48    3.9744   419.6    4.687      33.003
2015    3       11    20  54    3.9778   419.4    4.696      32.992
2015    3       11    20  59    3.9811   419.1    4.704      32.981
2015    3       11    21   4    3.9845   418.9    4.713      32.970
2015    3       11    21  10    3.9878   418.7    4.722      32.960
2015    3       11    21  15    3.9914   418.5    4.730      32.949
2015    3       11    21  21    3.9947   418.3    4.739      32.939
2015    3       11    21  26    3.9981   418.0    4.748      32.929
2015    3       11    21  32    4.0015   417.8    4.757      32.919
2015    3       11    21  37    4.0050   417.6    4.766      32.910
2015    3       11    21  43    4.0085   417.4    4.775      32.900
2015    3       11    21  48    4.0122   417.2    4.784      32.891
2015    3       11    21  53    4.0157   417.0    4.793      32.882
2015    3       11    21  59    4.0191   416.7    4.802      32.873
2015    3       11    22   4    4.0228   416.5    4.811      32.864
2015    3       11    22  10    4.0262   416.3    4.820      32.855
2015    3       11    22  15    4.0299   416.1    4.829      32.846
2015    3       11    22  21    4.0334   415.9    4.838      32.838
2015    3       11    22  26    4.0370   415.7    4.848      32.830
2015    3       11    22  32    4.0406   415.5    4.857      32.821
2015    3       11    22  37    4.0443   415.3    4.866      32.813
2015    3       11    22  42    4.0480   415.1    4.876      32.805
2015    3       11    22  48    4.0518   414.9    4.885      32.797
2015    3       11    22  53    4.0555   414.6    4.895      32.790
2015    3       11    22  59    4.0591   414.4    4.904      32.782
2015    3       11    23   4    4.0630   414.2    4.914      32.775
2015    3       11    23  10    4.0668   414.0    4.923      32.767
2015    3       11    23  15    4.0705   413.8    4.933      32.760
2015    3       11    23  21    4.0744   413.6    4.942      32.753
2015    3       11    23  26    4.0782   413.4    4.952      32.746
2015    3       11    23  31    4.0819   413.2    4.962      32.739
2015    3       11    23  37    4.0859   413.0    4.972      32.733
2015    3       11    23  42    4.0898   412.8    4.982      32.726
2015    3       11    23  48    4.0936   412.6    4.991      32.720
2015    3       11    23  53    4.0976   412.4    5.001      32.714
2015    3       11    23  59    4.1017   412.2    5.011      32.708
2015    3       12     0   4    4.1057   412.0    5.021      32.702
