year    month   day   hour  minute  B_enl V_enl   n_enl       T_enl
[year] [month] [day] [hour][minute] [nT]  [km/s]  [cm-3]      [kK]
2015    3        2     0   1    4.2103   530.7    3.350      39.398
2015    3        2     0   6    4.2113   530.4    3.355      39.351
2015    3        2     0  11    4.2119   530.0    3.360      39.305
2015    3        2     0  17    4.2127   529.7    3.365      39.259
2015    3        2     0  22    4.2137   529.3    3.370      39.213
2015    3        2     0  28    4.2144   529.0    3.375      39.167
2015    3        2     0  33    4.2153   528.6    3.380      39.121
2015    3        2     0  38    4.2162   528.3    3.385      39.075
2015    3        2     0  44    4.2173   527.9    3.391      39.029
2015    3        2     0  49    4.2181   527.6    3.396      38.983
2015    3        2     0  54    4.2191   527.2    3.401      38.937
2015    3        2     1   0    4.2202   526.9    3.406      38.892
2015    3        2     1   5    4.2210   526.5    3.411      38.846
2015    3        2     1  11    4.2221   526.2    3.416      38.800
2015    3        2     1  16    4.2233   525.9    3.422      38.755
2015    3        2     1  21    4.2242   525.5    3.427      38.710
2015    3        2     1  27    4.2255   525.2    3.432      38.664
2015    3        2     1  32    4.2266   524.8    3.437      38.620
2015    3        2     1  38    4.2276   524.5    3.443      38.575
2015    3        2     1  43    4.2290   524.1    3.448      38.530
2015    3        2     1  48    4.2300   523.8    3.454      38.485
2015    3        2     1  54    4.2314   523.5    3.459      38.441
2015    3        2     1  59    4.2327   523.1    3.465      38.396
2015    3        2     2   5    4.2337   522.8    3.470      38.352
2015    3        2     2  10    4.2352   522.4    3.476      38.308
2015    3        2     2  15    4.2363   522.1    3.481      38.264
2015    3        2     2  21    4.2377   521.8    3.487      38.220
2015    3        2     2  26    4.2391   521.4    3.492      38.176
2015    3        2     2  32    4.2407   521.1    3.498      38.133
2015    3        2     2  37    4.2421   520.8    3.504      38.089
2015    3        2     2  42    4.2435   520.4    3.509      38.046
2015    3        2     2  48    4.2450   520.1    3.515      38.003
2015    3        2     2  53    4.2465   519.8    3.521      37.960
2015    3        2     2  59    4.2478   519.4    3.527      37.917
2015    3        2     3   4    4.2493   519.1    3.533      37.874
2015    3        2     3   9    4.2509   518.8    3.539      37.832
2015    3        2     3  15    4.2527   518.4    3.544      37.790
2015    3        2     3  20    4.2541   518.1    3.550      37.748
2015    3        2     3  26    4.2560   517.8    3.556      37.706
2015    3        2     3  31    4.2574   517.5    3.562      37.664
2015    3        2     3  36    4.2593   517.1    3.569      37.622
2015    3        2     3  42    4.2610   516.8    3.575      37.580
2015    3        2     3  47    4.2628   516.5    3.581      37.539
2015    3        2     3  53    4.2645   516.2    3.587      37.498
2015    3        2     3  58    4.2661   515.8    3.593      37.457
2015    3        2     4   3    4.2679   515.5    3.599      37.416
2015    3        2     4   9    4.2698   515.2    3.606      37.375
2015    3        2     4  14    4.2716   514.9    3.612      37.335
2015    3        2     4  20    4.2735   514.6    3.618      37.295
2015    3        2     4  25    4.2756   514.2    3.625      37.255
2015    3        2     4  30    4.2776   513.9    3.631      37.215
2015    3        2     4  36    4.2795   513.6    3.638      37.176
2015    3        2     4  41    4.2813   513.3    3.644      37.136
2015    3        2     4  46    4.2835   513.0    3.651      37.097
2015    3        2     4  52    4.2856   512.7    3.658      37.059
2015    3        2     4  57    4.2875   512.3    3.664      37.020
2015    3        2     5   3    4.2896   512.0    3.671      36.982
2015    3        2     5   8    4.2917   511.7    3.678      36.945
2015    3        2     5  13    4.2940   511.4    3.685      36.907
2015    3        2     5  19    4.2962   511.1    3.692      36.870
2015    3        2     5  24    4.2984   510.8    3.699      36.833
2015    3        2     5  30    4.3004   510.5    3.706      36.797
2015    3        2     5  35    4.3026   510.2    3.713      36.761
2015    3        2     5  40    4.3049   509.9    3.720      36.724
2015    3        2     5  46    4.3074   509.6    3.727      36.689
2015    3        2     5  51    4.3095   509.3    3.734      36.654
2015    3        2     5  57    4.3118   509.0    3.741      36.618
2015    3        2     6   2    4.3142   508.7    3.749      36.584
2015    3        2     6   7    4.3165   508.4    3.756      36.549
2015    3        2     6  13    4.3189   508.1    3.763      36.515
2015    3        2     6  18    4.3213   507.8    3.770      36.481
2015    3        2     6  24    4.3239   507.5    3.778      36.447
2015    3        2     6  29    4.3262   507.2    3.785      36.413
2015    3        2     6  34    4.3286   506.9    3.793      36.380
2015    3        2     6  40    4.3312   506.6    3.800      36.347
2015    3        2     6  45    4.3337   506.3    3.807      36.313
2015    3        2     6  51    4.3360   506.1    3.815      36.281
2015    3        2     6  56    4.3385   505.8    3.822      36.248
2015    3        2     7   1    4.3411   505.5    3.830      36.215
2015    3        2     7   7    4.3436   505.2    3.837      36.183
2015    3        2     7  12    4.3461   504.9    3.845      36.150
2015    3        2     7  18    4.3487   504.6    3.852      36.118
2015    3        2     7  23    4.3513   504.4    3.860      36.086
2015    3        2     7  28    4.3538   504.1    3.867      36.054
2015    3        2     7  34    4.3564   503.8    3.875      36.022
2015    3        2     7  39    4.3590   503.5    3.883      35.990
2015    3        2     7  45    4.3617   503.2    3.890      35.959
2015    3        2     7  50    4.3645   503.0    3.898      35.927
2015    3        2     7  55    4.3671   502.7    3.905      35.896
2015    3        2     8   1    4.3697   502.4    3.913      35.865
2015    3        2     8   6    4.3724   502.1    3.920      35.834
2015    3        2     8  12    4.3751   501.9    3.928      35.803
2015    3        2     8  17    4.3778   501.6    3.936      35.772
2015    3        2     8  22    4.3807   501.3    3.943      35.741
2015    3        2     8  28    4.3835   501.1    3.951      35.710
2015    3        2     8  33    4.3861   500.8    3.959      35.680
2015    3        2     8  38    4.3889   500.5    3.966      35.650
2015    3        2     8  44    4.3918   500.3    3.974      35.620
2015    3        2     8  49    4.3945   500.0    3.982      35.590
2015    3        2     8  55    4.3974   499.8    3.989      35.560
2015    3        2     9   0    4.4002   499.5    3.997      35.530
2015    3        2     9   5    4.4033   499.2    4.005      35.501
2015    3        2     9  11    4.4060   499.0    4.013      35.472
2015    3        2     9  16    4.4090   498.7    4.020      35.443
2015    3        2     9  22    4.4119   498.5    4.028      35.414
2015    3        2     9  27    4.4149   498.2    4.036      35.385
2015    3        2     9  32    4.4178   498.0    4.044      35.357
2015    3        2     9  38    4.4208   497.7    4.052      35.329
2015    3        2     9  43    4.4238   497.4    4.060      35.301
2015    3        2     9  49    4.4270   497.2    4.068      35.273
2015    3        2     9  54    4.4299   496.9    4.076      35.246
2015    3        2     9  59    4.4329   496.7    4.084      35.219
2015    3        2    10   5    4.4360   496.5    4.092      35.192
2015    3        2    10  10    4.4391   496.2    4.100      35.165
2015    3        2    10  16    4.4422   496.0    4.108      35.139
2015    3        2    10  21    4.4453   495.7    4.116      35.113
2015    3        2    10  26    4.4485   495.5    4.124      35.087
2015    3        2    10  32    4.4516   495.2    4.132      35.061
2015    3        2    10  37    4.4548   495.0    4.140      35.036
2015    3        2    10  43    4.4580   494.8    4.148      35.011
2015    3        2    10  48    4.4612   494.5    4.157      34.986
2015    3        2    10  53    4.4645   494.3    4.165      34.962
2015    3        2    10  59    4.4676   494.1    4.173      34.937
2015    3        2    11   4    4.4708   493.8    4.181      34.913
2015    3        2    11  10    4.4741   493.6    4.190      34.890
2015    3        2    11  15    4.4774   493.4    4.198      34.866
2015    3        2    11  20    4.4807   493.1    4.206      34.843
2015    3        2    11  26    4.4840   492.9    4.215      34.821
2015    3        2    11  31    4.4873   492.7    4.223      34.798
2015    3        2    11  37    4.4906   492.4    4.231      34.776
2015    3        2    11  42    4.4941   492.2    4.240      34.755
2015    3        2    11  47    4.4974   492.0    4.248      34.733
2015    3        2    11  53    4.5009   491.8    4.257      34.712
2015    3        2    11  58    4.5042   491.6    4.265      34.691
2015    3        2    12   4    4.5076   491.3    4.274      34.671
2015    3        2    12   9    4.5111   491.1    4.282      34.651
2015    3        2    12  14    4.5145   490.9    4.291      34.632
2015    3        2    12  20    4.5180   490.7    4.299      34.612
2015    3        2    12  25    4.5215   490.5    4.308      34.593
2015    3        2    12  30    4.5250   490.3    4.317      34.575
2015    3        2    12  36    4.5286   490.0    4.325      34.557
2015    3        2    12  41    4.5321   489.8    4.334      34.539
2015    3        2    12  47    4.5357   489.6    4.343      34.522
2015    3        2    12  52    4.5393   489.4    4.351      34.505
2015    3        2    12  57    4.5429   489.2    4.360      34.488
2015    3        2    13   3    4.5465   489.0    4.369      34.472
2015    3        2    13   8    4.5502   488.8    4.378      34.456
2015    3        2    13  14    4.5539   488.6    4.387      34.440
2015    3        2    13  19    4.5575   488.4    4.395      34.425
2015    3        2    13  24    4.5612   488.2    4.404      34.410
2015    3        2    13  30    4.5649   488.0    4.413      34.395
2015    3        2    13  35    4.5686   487.8    4.422      34.381
2015    3        2    13  41    4.5723   487.6    4.431      34.367
2015    3        2    13  46    4.5760   487.4    4.440      34.353
2015    3        2    13  51    4.5798   487.2    4.448      34.339
2015    3        2    13  57    4.5836   487.0    4.457      34.326
2015    3        2    14   2    4.5873   486.9    4.466      34.313
2015    3        2    14   8    4.5911   486.7    4.475      34.300
2015    3        2    14  13    4.5949   486.5    4.484      34.288
2015    3        2    14  18    4.5988   486.3    4.493      34.276
2015    3        2    14  24    4.6026   486.1    4.502      34.264
2015    3        2    14  29    4.6064   485.9    4.511      34.252
2015    3        2    14  35    4.6103   485.8    4.519      34.240
2015    3        2    14  40    4.6143   485.6    4.528      34.229
2015    3        2    14  45    4.6181   485.4    4.537      34.218
2015    3        2    14  51    4.6220   485.2    4.546      34.207
2015    3        2    14  56    4.6259   485.0    4.555      34.197
2015    3        2    15   2    4.6298   484.9    4.564      34.186
2015    3        2    15   7    4.6338   484.7    4.573      34.176
2015    3        2    15  12    4.6378   484.5    4.582      34.166
2015    3        2    15  18    4.6418   484.3    4.591      34.156
2015    3        2    15  23    4.6457   484.2    4.600      34.147
2015    3        2    15  29    4.6498   484.0    4.609      34.137
2015    3        2    15  34    4.6539   483.8    4.618      34.128
2015    3        2    15  39    4.6578   483.7    4.627      34.119
2015    3        2    15  45    4.6619   483.5    4.636      34.110
2015    3        2    15  50    4.6660   483.3    4.645      34.102
2015    3        2    15  56    4.6701   483.2    4.654      34.094
2015    3        2    16   1    4.6742   483.0    4.663      34.086
2015    3        2    16   6    4.6784   482.9    4.672      34.078
2015    3        2    16  12    4.6825   482.7    4.681      34.070
2015    3        2    16  17    4.6867   482.5    4.690      34.063
2015    3        2    16  22    4.6909   482.4    4.699      34.056
2015    3        2    16  28    4.6951   482.2    4.709      34.049
2015    3        2    16  33    4.6995   482.1    4.718      34.043
2015    3        2    16  39    4.7036   481.9    4.727      34.037
2015    3        2    16  44    4.7079   481.8    4.736      34.031
2015    3        2    16  49    4.7122   481.6    4.746      34.026
2015    3        2    16  55    4.7165   481.5    4.755      34.021
2015    3        2    17   0    4.7207   481.3    4.764      34.017
2015    3        2    17   6    4.7251   481.2    4.774      34.013
2015    3        2    17  11    4.7294   481.0    4.783      34.009
2015    3        2    17  16    4.7338   480.9    4.792      34.006
2015    3        2    17  22    4.7380   480.8    4.801      34.003
2015    3        2    17  27    4.7424   480.6    4.811      34.001
2015    3        2    17  33    4.7467   480.5    4.820      33.999
2015    3        2    17  38    4.7511   480.4    4.829      33.997
2015    3        2    17  43    4.7553   480.2    4.838      33.995
2015    3        2    17  49    4.7597   480.1    4.847      33.994
2015    3        2    17  54    4.7641   480.0    4.856      33.993
2015    3        2    18   0    4.7685   479.8    4.865      33.992
2015    3        2    18   5    4.7729   479.7    4.874      33.990
2015    3        2    18  10    4.7771   479.6    4.883      33.989
2015    3        2    18  16    4.7815   479.5    4.892      33.988
2015    3        2    18  21    4.7859   479.3    4.901      33.987
2015    3        2    18  27    4.7902   479.2    4.910      33.986
2015    3        2    18  32    4.7946   479.1    4.918      33.986
2015    3        2    18  37    4.7989   479.0    4.927      33.985
2015    3        2    18  43    4.8034   478.8    4.936      33.984
2015    3        2    18  48    4.8078   478.7    4.945      33.983
2015    3        2    18  54    4.8122   478.6    4.953      33.982
2015    3        2    18  59    4.8166   478.5    4.962      33.981
2015    3        2    19   4    4.8210   478.4    4.970      33.980
2015    3        2    19  10    4.8253   478.2    4.979      33.979
2015    3        2    19  15    4.8298   478.1    4.988      33.978
2015    3        2    19  21    4.8341   478.0    4.996      33.977
2015    3        2    19  26    4.8385   477.9    5.004      33.977
2015    3        2    19  31    4.8429   477.8    5.013      33.976
2015    3        2    19  37    4.8474   477.7    5.021      33.975
2015    3        2    19  42    4.8519   477.6    5.030      33.975
2015    3        2    19  48    4.8563   477.5    5.038      33.974
2015    3        2    19  53    4.8607   477.3    5.046      33.974
2015    3        2    19  58    4.8652   477.2    5.054      33.974
2015    3        2    20   4    4.8696   477.1    5.062      33.973
2015    3        2    20   9    4.8741   477.0    5.070      33.973
2015    3        2    20  14    4.8786   476.9    5.078      33.974
2015    3        2    20  20    4.8831   476.8    5.086      33.974
2015    3        2    20  25    4.8876   476.7    5.094      33.974
2015    3        2    20  31    4.8921   476.6    5.102      33.975
2015    3        2    20  36    4.8966   476.5    5.110      33.976
2015    3        2    20  41    4.9012   476.4    5.118      33.977
2015    3        2    20  47    4.9057   476.3    5.126      33.978
2015    3        2    20  52    4.9103   476.2    5.134      33.979
2015    3        2    20  58    4.9148   476.1    5.142      33.981
2015    3        2    21   3    4.9194   476.0    5.149      33.983
2015    3        2    21   8    4.9240   475.9    5.157      33.985
2015    3        2    21  14    4.9287   475.8    5.165      33.987
2015    3        2    21  19    4.9333   475.7    5.172      33.990
2015    3        2    21  25    4.9379   475.6    5.180      33.992
2015    3        2    21  30    4.9426   475.5    5.188      33.996
2015    3        2    21  35    4.9472   475.4    5.195      33.999
2015    3        2    21  41    4.9519   475.3    5.203      34.002
2015    3        2    21  46    4.9566   475.2    5.211      34.006
2015    3        2    21  52    4.9613   475.1    5.218      34.010
2015    3        2    21  57    4.9660   475.1    5.226      34.014
2015    3        2    22   2    4.9708   475.0    5.234      34.019
2015    3        2    22   8    4.9755   474.9    5.241      34.024
2015    3        2    22  13    4.9803   474.8    5.249      34.029
2015    3        2    22  19    4.9851   474.7    5.257      34.034
2015    3        2    22  24    4.9899   474.6    5.264      34.039
2015    3        2    22  29    4.9947   474.5    5.272      34.045
2015    3        2    22  35    4.9995   474.4    5.280      34.050
2015    3        2    22  40    5.0043   474.4    5.287      34.057
2015    3        2    22  46    5.0092   474.3    5.295      34.063
2015    3        2    22  51    5.0141   474.2    5.303      34.069
2015    3        2    22  56    5.0189   474.1    5.311      34.076
2015    3        2    23   2    5.0239   474.0    5.319      34.083
2015    3        2    23   7    5.0287   474.0    5.327      34.090
2015    3        2    23  13    5.0337   473.9    5.335      34.098
2015    3        2    23  18    5.0386   473.8    5.343      34.106
2015    3        2    23  23    5.0435   473.7    5.350      34.114
2015    3        2    23  29    5.0484   473.7    5.358      34.123
2015    3        2    23  34    5.0535   473.6    5.366      34.132
2015    3        2    23  40    5.0584   473.5    5.374      34.142
2015    3        2    23  45    5.0633   473.5    5.382      34.152
2015    3        2    23  50    5.0683   473.4    5.390      34.162
2015    3        2    23  56    5.0733   473.3    5.398      34.173
2015    3        3     0   1    5.0782   473.3    5.406      34.185
2015    3        3     0   6    5.0831   473.2    5.414      34.197
2015    3        3     0  12    5.0881   473.2    5.421      34.209
2015    3        3     0  17    5.0930   473.1    5.429      34.222
2015    3        3     0  23    5.0979   473.0    5.437      34.235
2015    3        3     0  28    5.1029   473.0    5.444      34.249
2015    3        3     0  33    5.1078   472.9    5.452      34.263
2015    3        3     0  39    5.1127   472.9    5.459      34.276
2015    3        3     0  44    5.1175   472.8    5.466      34.290
2015    3        3     0  50    5.1224   472.8    5.473      34.304
2015    3        3     0  55    5.1272   472.7    5.480      34.318
2015    3        3     1   0    5.1321   472.6    5.487      34.332
2015    3        3     1   6    5.1370   472.6    5.494      34.345
2015    3        3     1  11    5.1418   472.5    5.501      34.359
2015    3        3     1  17    5.1466   472.5    5.508      34.372
2015    3        3     1  22    5.1514   472.4    5.515      34.386
2015    3        3     1  27    5.1563   472.4    5.521      34.399
2015    3        3     1  33    5.1611   472.3    5.528      34.412
2015    3        3     1  38    5.1659   472.3    5.535      34.424
2015    3        3     1  44    5.1707   472.2    5.541      34.437
2015    3        3     1  49    5.1755   472.2    5.548      34.450
2015    3        3     1  54    5.1803   472.1    5.554      34.462
2015    3        3     2   0    5.1851   472.1    5.561      34.474
2015    3        3     2   5    5.1899   472.0    5.567      34.486
2015    3        3     2  11    5.1946   472.0    5.574      34.498
2015    3        3     2  16    5.1994   472.0    5.580      34.510
2015    3        3     2  21    5.2042   471.9    5.586      34.521
2015    3        3     2  27    5.2090   471.9    5.592      34.533
2015    3        3     2  32    5.2138   471.8    5.599      34.544
2015    3        3     2  38    5.2185   471.8    5.605      34.556
2015    3        3     2  43    5.2233   471.7    5.611      34.567
2015    3        3     2  48    5.2281   471.7    5.617      34.578
2015    3        3     2  54    5.2329   471.6    5.623      34.589
2015    3        3     2  59    5.2377   471.6    5.629      34.601
2015    3        3     3   5    5.2424   471.6    5.635      34.612
2015    3        3     3  10    5.2472   471.5    5.641      34.623
2015    3        3     3  15    5.2520   471.5    5.647      34.635
2015    3        3     3  21    5.2568   471.4    5.653      34.646
2015    3        3     3  26    5.2616   471.4    5.659      34.657
2015    3        3     3  31    5.2664   471.4    5.665      34.669
2015    3        3     3  37    5.2713   471.3    5.671      34.681
2015    3        3     3  42    5.2761   471.3    5.677      34.692
2015    3        3     3  48    5.2809   471.2    5.683      34.704
2015    3        3     3  53    5.2858   471.2    5.689      34.717
2015    3        3     3  58    5.2906   471.2    5.695      34.729
2015    3        3     4   4    5.2954   471.1    5.701      34.741
2015    3        3     4   9    5.3003   471.1    5.707      34.754
2015    3        3     4  15    5.3052   471.1    5.713      34.767
2015    3        3     4  20    5.3101   471.0    5.719      34.780
2015    3        3     4  25    5.3150   471.0    5.725      34.794
2015    3        3     4  31    5.3199   471.0    5.730      34.807
2015    3        3     4  36    5.3248   470.9    5.736      34.822
2015    3        3     4  42    5.3298   470.9    5.742      34.836
2015    3        3     4  47    5.3347   470.9    5.748      34.851
2015    3        3     4  52    5.3396   470.9    5.754      34.866
2015    3        3     4  58    5.3446   470.8    5.760      34.882
2015    3        3     5   3    5.3496   470.8    5.766      34.897
2015    3        3     5   9    5.3546   470.8    5.772      34.913
2015    3        3     5  14    5.3596   470.8    5.778      34.929
2015    3        3     5  19    5.3646   470.7    5.784      34.946
2015    3        3     5  25    5.3696   470.7    5.790      34.962
2015    3        3     5  30    5.3746   470.7    5.795      34.979
2015    3        3     5  36    5.3797   470.7    5.801      34.996
2015    3        3     5  41    5.3847   470.6    5.807      35.013
2015    3        3     5  46    5.3898   470.6    5.813      35.030
2015    3        3     5  52    5.3948   470.6    5.819      35.048
2015    3        3     5  57    5.3999   470.6    5.825      35.065
2015    3        3     6   3    5.4049   470.6    5.831      35.083
2015    3        3     6   8    5.4100   470.5    5.837      35.101
2015    3        3     6  13    5.4151   470.5    5.843      35.120
2015    3        3     6  19    5.4202   470.5    5.849      35.139
2015    3        3     6  24    5.4253   470.5    5.856      35.158
2015    3        3     6  30    5.4304   470.5    5.861      35.178
2015    3        3     6  35    5.4354   470.5    5.867      35.199
2015    3        3     6  40    5.4405   470.5    5.873      35.220
2015    3        3     6  46    5.4455   470.5    5.879      35.241
2015    3        3     6  51    5.4506   470.5    5.885      35.264
2015    3        3     6  57    5.4555   470.5    5.890      35.286
2015    3        3     7   2    5.4606   470.5    5.896      35.309
2015    3        3     7   7    5.4655   470.4    5.901      35.333
2015    3        3     7  13    5.4704   470.4    5.907      35.356
2015    3        3     7  18    5.4754   470.4    5.912      35.380
2015    3        3     7  23    5.4803   470.4    5.917      35.404
2015    3        3     7  29    5.4852   470.4    5.922      35.428
2015    3        3     7  34    5.4900   470.4    5.927      35.451
2015    3        3     7  40    5.4949   470.4    5.931      35.475
2015    3        3     7  45    5.4997   470.4    5.936      35.498
2015    3        3     7  50    5.5045   470.4    5.941      35.521
2015    3        3     7  56    5.5092   470.5    5.945      35.544
2015    3        3     8   1    5.5141   470.5    5.949      35.566
2015    3        3     8   7    5.5188   470.5    5.954      35.589
2015    3        3     8  12    5.5235   470.5    5.958      35.611
2015    3        3     8  17    5.5283   470.5    5.962      35.632
2015    3        3     8  23    5.5331   470.5    5.966      35.654
2015    3        3     8  28    5.5378   470.5    5.970      35.675
2015    3        3     8  34    5.5425   470.5    5.974      35.696
2015    3        3     8  39    5.5472   470.5    5.978      35.717
2015    3        3     8  44    5.5518   470.5    5.981      35.738
2015    3        3     8  50    5.5566   470.5    5.985      35.758
2015    3        3     8  55    5.5612   470.5    5.989      35.778
2015    3        3     9   1    5.5659   470.5    5.993      35.798
2015    3        3     9   6    5.5706   470.5    5.996      35.818
2015    3        3     9  11    5.5752   470.5    6.000      35.838
2015    3        3     9  17    5.5798   470.5    6.003      35.857
2015    3        3     9  22    5.5845   470.5    6.007      35.877
2015    3        3     9  28    5.5892   470.5    6.010      35.896
2015    3        3     9  33    5.5938   470.5    6.014      35.915
2015    3        3     9  38    5.5984   470.5    6.017      35.934
2015    3        3     9  44    5.6031   470.5    6.021      35.953
2015    3        3     9  49    5.6077   470.5    6.024      35.972
2015    3        3     9  55    5.6124   470.6    6.028      35.991
2015    3        3    10   0    5.6170   470.6    6.031      36.010
2015    3        3    10   5    5.6216   470.6    6.034      36.029
2015    3        3    10  11    5.6262   470.6    6.038      36.048
2015    3        3    10  16    5.6309   470.6    6.041      36.067
2015    3        3    10  22    5.6354   470.6    6.045      36.086
2015    3        3    10  27    5.6401   470.6    6.048      36.105
2015    3        3    10  32    5.6448   470.6    6.052      36.124
2015    3        3    10  38    5.6495   470.6    6.055      36.144
2015    3        3    10  43    5.6541   470.6    6.059      36.163
2015    3        3    10  48    5.6588   470.7    6.062      36.182
2015    3        3    10  54    5.6634   470.7    6.066      36.202
2015    3        3    10  59    5.6681   470.7    6.069      36.222
2015    3        3    11   5    5.6728   470.7    6.073      36.242
2015    3        3    11  10    5.6775   470.7    6.077      36.263
2015    3        3    11  15    5.6822   470.7    6.081      36.283
2015    3        3    11  21    5.6868   470.7    6.084      36.304
2015    3        3    11  26    5.6915   470.8    6.088      36.325
2015    3        3    11  32    5.6962   470.8    6.092      36.347
2015    3        3    11  37    5.7010   470.8    6.097      36.368
2015    3        3    11  42    5.7057   470.8    6.101      36.391
2015    3        3    11  48    5.7105   470.8    6.105      36.413
2015    3        3    11  53    5.7152   470.9    6.109      36.437
2015    3        3    11  59    5.7200   470.9    6.114      36.461
2015    3        3    12   4    5.7248   470.9    6.118      36.485
2015    3        3    12   9    5.7294   470.9    6.123      36.509
2015    3        3    12  15    5.7343   470.9    6.127      36.535
2015    3        3    12  20    5.7391   471.0    6.132      36.561
2015    3        3    12  26    5.7439   471.0    6.136      36.588
2015    3        3    12  31    5.7486   471.0    6.141      36.615
2015    3        3    12  36    5.7534   471.1    6.145      36.644
2015    3        3    12  42    5.7582   471.1    6.150      36.673
2015    3        3    12  47    5.7629   471.1    6.154      36.703
2015    3        3    12  53    5.7677   471.1    6.158      36.733
2015    3        3    12  58    5.7723   471.2    6.163      36.764
2015    3        3    13   3    5.7771   471.2    6.167      36.795
2015    3        3    13   9    5.7818   471.3    6.171      36.827
2015    3        3    13  14    5.7865   471.3    6.175      36.859
2015    3        3    13  20    5.7912   471.3    6.179      36.891
2015    3        3    13  25    5.7958   471.4    6.183      36.923
2015    3        3    13  30    5.8004   471.4    6.187      36.955
2015    3        3    13  36    5.8050   471.4    6.191      36.987
2015    3        3    13  41    5.8096   471.5    6.194      37.020
2015    3        3    13  47    5.8141   471.5    6.198      37.052
2015    3        3    13  52    5.8186   471.6    6.201      37.084
2015    3        3    13  57    5.8232   471.6    6.204      37.117
2015    3        3    14   3    5.8278   471.7    6.208      37.149
2015    3        3    14   8    5.8323   471.7    6.211      37.182
2015    3        3    14  14    5.8367   471.8    6.214      37.214
2015    3        3    14  19    5.8412   471.8    6.216      37.247
2015    3        3    14  24    5.8456   471.8    6.219      37.279
2015    3        3    14  30    5.8499   471.9    6.222      37.311
2015    3        3    14  35    5.8544   471.9    6.224      37.343
2015    3        3    14  40    5.8587   472.0    6.227      37.375
2015    3        3    14  46    5.8631   472.0    6.229      37.407
2015    3        3    14  51    5.8673   472.1    6.231      37.438
2015    3        3    14  57    5.8716   472.1    6.233      37.469
2015    3        3    15   2    5.8760   472.2    6.235      37.500
2015    3        3    15   7    5.8803   472.2    6.237      37.530
2015    3        3    15  13    5.8846   472.3    6.239      37.560
2015    3        3    15  18    5.8889   472.3    6.241      37.590
2015    3        3    15  24    5.8931   472.4    6.243      37.619
2015    3        3    15  29    5.8973   472.4    6.245      37.649
2015    3        3    15  34    5.9016   472.5    6.247      37.678
2015    3        3    15  40    5.9059   472.5    6.248      37.706
2015    3        3    15  45    5.9101   472.6    6.250      37.735
2015    3        3    15  51    5.9143   472.6    6.251      37.763
2015    3        3    15  56    5.9186   472.6    6.253      37.791
2015    3        3    16   1    5.9228   472.7    6.254      37.819
2015    3        3    16   7    5.9270   472.7    6.256      37.846
2015    3        3    16  12    5.9312   472.8    6.257      37.874
2015    3        3    16  18    5.9355   472.8    6.259      37.901
2015    3        3    16  23    5.9396   472.9    6.260      37.928
2015    3        3    16  28    5.9438   472.9    6.262      37.955
2015    3        3    16  34    5.9482   473.0    6.263      37.982
2015    3        3    16  39    5.9523   473.0    6.264      38.010
2015    3        3    16  45    5.9566   473.1    6.266      38.036
2015    3        3    16  50    5.9609   473.2    6.267      38.064
2015    3        3    16  55    5.9651   473.2    6.268      38.091
2015    3        3    17   1    5.9693   473.3    6.270      38.118
2015    3        3    17   6    5.9737   473.3    6.271      38.145
2015    3        3    17  12    5.9779   473.4    6.273      38.173
2015    3        3    17  17    5.9822   473.4    6.274      38.200
2015    3        3    17  22    5.9865   473.5    6.276      38.228
2015    3        3    17  28    5.9909   473.5    6.277      38.256
2015    3        3    17  33    5.9952   473.6    6.279      38.284
2015    3        3    17  39    5.9995   473.6    6.280      38.312
2015    3        3    17  44    6.0038   473.7    6.282      38.341
2015    3        3    17  49    6.0082   473.8    6.283      38.370
2015    3        3    17  55    6.0126   473.8    6.285      38.399
2015    3        3    18   0    6.0169   473.9    6.287      38.428
2015    3        3    18   5    6.0213   473.9    6.289      38.458
2015    3        3    18  11    6.0257   474.0    6.291      38.488
2015    3        3    18  16    6.0300   474.1    6.293      38.518
2015    3        3    18  22    6.0344   474.1    6.295      38.548
2015    3        3    18  27    6.0388   474.2    6.297      38.580
2015    3        3    18  32    6.0431   474.3    6.299      38.611
2015    3        3    18  38    6.0475   474.3    6.301      38.643
2015    3        3    18  43    6.0518   474.4    6.303      38.675
2015    3        3    18  49    6.0562   474.5    6.305      38.708
2015    3        3    18  54    6.0606   474.5    6.308      38.741
2015    3        3    18  59    6.0649   474.6    6.310      38.775
2015    3        3    19   5    6.0692   474.7    6.313      38.809
2015    3        3    19  10    6.0735   474.7    6.315      38.843
2015    3        3    19  16    6.0778   474.8    6.317      38.878
2015    3        3    19  21    6.0821   474.9    6.320      38.914
2015    3        3    19  26    6.0864   475.0    6.322      38.950
2015    3        3    19  32    6.0906   475.0    6.325      38.987
2015    3        3    19  37    6.0948   475.1    6.327      39.025
2015    3        3    19  43    6.0991   475.2    6.329      39.063
2015    3        3    19  48    6.1032   475.3    6.331      39.102
2015    3        3    19  53    6.1074   475.3    6.333      39.142
2015    3        3    19  59    6.1115   475.4    6.335      39.182
2015    3        3    20   4    6.1156   475.5    6.337      39.224
2015    3        3    20  10    6.1197   475.6    6.339      39.266
2015    3        3    20  15    6.1238   475.7    6.340      39.308
2015    3        3    20  20    6.1278   475.7    6.342      39.351
2015    3        3    20  26    6.1318   475.8    6.343      39.394
2015    3        3    20  31    6.1358   475.9    6.344      39.437
2015    3        3    20  37    6.1398   476.0    6.345      39.481
2015    3        3    20  42    6.1437   476.1    6.346      39.524
2015    3        3    20  47    6.1476   476.1    6.347      39.567
2015    3        3    20  53    6.1516   476.2    6.348      39.610
2015    3        3    20  58    6.1554   476.3    6.349      39.653
2015    3        3    21   4    6.1593   476.4    6.349      39.696
2015    3        3    21   9    6.1631   476.5    6.350      39.738
2015    3        3    21  14    6.1670   476.5    6.350      39.779
2015    3        3    21  20    6.1708   476.6    6.350      39.821
2015    3        3    21  25    6.1746   476.7    6.350      39.861
2015    3        3    21  30    6.1783   476.8    6.350      39.902
2015    3        3    21  36    6.1821   476.9    6.351      39.942
2015    3        3    21  41    6.1858   476.9    6.351      39.982
2015    3        3    21  47    6.1896   477.0    6.350      40.021
2015    3        3    21  52    6.1933   477.1    6.350      40.060
2015    3        3    21  57    6.1970   477.2    6.350      40.099
2015    3        3    22   3    6.2008   477.3    6.350      40.137
2015    3        3    22   8    6.2045   477.3    6.350      40.175
2015    3        3    22  14    6.2083   477.4    6.349      40.213
2015    3        3    22  19    6.2120   477.5    6.349      40.250
2015    3        3    22  24    6.2157   477.6    6.349      40.287
2015    3        3    22  30    6.2194   477.7    6.348      40.324
2015    3        3    22  35    6.2231   477.7    6.348      40.361
2015    3        3    22  41    6.2267   477.8    6.348      40.397
2015    3        3    22  46    6.2304   477.9    6.347      40.434
2015    3        3    22  51    6.2342   478.0    6.347      40.470
2015    3        3    22  57    6.2378   478.1    6.346      40.505
2015    3        3    23   2    6.2416   478.1    6.346      40.541
2015    3        3    23   8    6.2452   478.2    6.345      40.577
2015    3        3    23  13    6.2489   478.3    6.345      40.613
2015    3        3    23  18    6.2526   478.4    6.344      40.648
2015    3        3    23  24    6.2563   478.5    6.344      40.684
2015    3        3    23  29    6.2601   478.5    6.344      40.719
2015    3        3    23  35    6.2639   478.6    6.343      40.755
2015    3        3    23  40    6.2676   478.7    6.343      40.790
2015    3        3    23  45    6.2714   478.8    6.343      40.826
2015    3        3    23  51    6.2751   478.9    6.342      40.862
2015    3        3    23  56    6.2789   479.0    6.342      40.898
2015    3        4     0   2    6.2827   479.1    6.342      40.934
2015    3        4     0   7    6.2865   479.1    6.342      40.970
2015    3        4     0  12    6.2904   479.2    6.342      41.006
2015    3        4     0  18    6.2941   479.3    6.342      41.043
2015    3        4     0  23    6.2980   479.4    6.342      41.080
2015    3        4     0  29    6.3019   479.5    6.342      41.117
2015    3        4     0  34    6.3057   479.6    6.343      41.154
2015    3        4     0  39    6.3097   479.7    6.343      41.192
2015    3        4     0  45    6.3135   479.8    6.344      41.230
2015    3        4     0  50    6.3175   479.8    6.345      41.269
2015    3        4     0  55    6.3214   479.9    6.345      41.307
2015    3        4     1   1    6.3255   480.0    6.346      41.347
2015    3        4     1   6    6.3294   480.1    6.348      41.386
2015    3        4     1  12    6.3334   480.2    6.349      41.427
2015    3        4     1  17    6.3375   480.3    6.350      41.468
2015    3        4     1  22    6.3415   480.4    6.352      41.509
2015    3        4     1  28    6.3456   480.5    6.354      41.551
2015    3        4     1  33    6.3497   480.6    6.355      41.594
2015    3        4     1  39    6.3538   480.7    6.357      41.638
2015    3        4     1  44    6.3578   480.8    6.359      41.684
2015    3        4     1  49    6.3619   480.9    6.361      41.731
2015    3        4     1  55    6.3660   481.0    6.364      41.779
2015    3        4     2   0    6.3700   481.1    6.366      41.828
2015    3        4     2   6    6.3740   481.2    6.368      41.879
2015    3        4     2  11    6.3780   481.3    6.370      41.930
2015    3        4     2  16    6.3819   481.5    6.372      41.982
2015    3        4     2  22    6.3859   481.6    6.374      42.035
2015    3        4     2  27    6.3897   481.7    6.376      42.089
2015    3        4     2  33    6.3936   481.8    6.377      42.143
2015    3        4     2  38    6.3974   481.9    6.379      42.198
2015    3        4     2  43    6.4011   482.0    6.380      42.254
2015    3        4     2  49    6.4048   482.2    6.381      42.309
2015    3        4     2  54    6.4084   482.3    6.382      42.365
2015    3        4     3   0    6.4121   482.4    6.383      42.420
2015    3        4     3   5    6.4157   482.5    6.383      42.476
2015    3        4     3  10    6.4192   482.6    6.384      42.530
2015    3        4     3  16    6.4227   482.8    6.384      42.585
2015    3        4     3  21    6.4262   482.9    6.384      42.638
2015    3        4     3  27    6.4297   483.0    6.383      42.692
2015    3        4     3  32    6.4331   483.1    6.383      42.744
2015    3        4     3  37    6.4365   483.2    6.382      42.796
2015    3        4     3  43    6.4398   483.3    6.382      42.848
2015    3        4     3  48    6.4433   483.5    6.381      42.898
2015    3        4     3  54    6.4466   483.6    6.380      42.948
2015    3        4     3  59    6.4498   483.7    6.379      42.998
2015    3        4     4   4    6.4532   483.8    6.378      43.046
2015    3        4     4  10    6.4564   483.9    6.376      43.094
2015    3        4     4  15    6.4597   484.1    6.375      43.142
2015    3        4     4  20    6.4630   484.2    6.373      43.188
2015    3        4     4  26    6.4662   484.3    6.372      43.235
2015    3        4     4  31    6.4694   484.4    6.370      43.281
2015    3        4     4  37    6.4727   484.6    6.368      43.326
2015    3        4     4  42    6.4759   484.7    6.366      43.370
2015    3        4     4  47    6.4790   484.8    6.365      43.414
2015    3        4     4  53    6.4821   484.9    6.363      43.458
2015    3        4     4  58    6.4854   485.0    6.361      43.502
2015    3        4     5   4    6.4884   485.1    6.359      43.544
2015    3        4     5   9    6.4916   485.3    6.356      43.587
2015    3        4     5  14    6.4948   485.4    6.354      43.629
2015    3        4     5  20    6.4978   485.5    6.352      43.670
2015    3        4     5  25    6.5010   485.6    6.350      43.712
2015    3        4     5  31    6.5040   485.7    6.348      43.753
2015    3        4     5  36    6.5071   485.9    6.346      43.793
2015    3        4     5  41    6.5102   486.0    6.343      43.834
2015    3        4     5  47    6.5133   486.1    6.341      43.874
2015    3        4     5  52    6.5165   486.2    6.339      43.913
2015    3        4     5  58    6.5195   486.3    6.337      43.953
2015    3        4     6   3    6.5225   486.5    6.334      43.992
2015    3        4     6   8    6.5256   486.6    6.332      44.032
2015    3        4     6  14    6.5288   486.7    6.330      44.071
2015    3        4     6  19    6.5318   486.8    6.328      44.110
2015    3        4     6  25    6.5349   486.9    6.325      44.149
2015    3        4     6  30    6.5380   487.1    6.323      44.188
2015    3        4     6  35    6.5411   487.2    6.321      44.227
2015    3        4     6  41    6.5442   487.3    6.319      44.266
2015    3        4     6  46    6.5473   487.4    6.317      44.305
2015    3        4     6  52    6.5505   487.6    6.315      44.344
2015    3        4     6  57    6.5536   487.7    6.313      44.384
2015    3        4     7   2    6.5566   487.8    6.312      44.424
2015    3        4     7   8    6.5597   487.9    6.310      44.464
2015    3        4     7  13    6.5629   488.1    6.308      44.504
2015    3        4     7  19    6.5660   488.2    6.307      44.544
2015    3        4     7  24    6.5692   488.3    6.306      44.585
2015    3        4     7  29    6.5725   488.4    6.305      44.626
2015    3        4     7  35    6.5756   488.6    6.303      44.667
2015    3        4     7  40    6.5788   488.7    6.303      44.709
2015    3        4     7  45    6.5819   488.8    6.302      44.751
2015    3        4     7  51    6.5851   489.0    6.301      44.793
2015    3        4     7  56    6.5885   489.1    6.301      44.836
2015    3        4     8   2    6.5916   489.2    6.301      44.879
2015    3        4     8   7    6.5949   489.3    6.301      44.923
2015    3        4     8  12    6.5981   489.5    6.301      44.967
2015    3        4     8  18    6.6014   489.6    6.301      45.013
2015    3        4     8  23    6.6046   489.7    6.302      45.059
2015    3        4     8  29    6.6080   489.9    6.302      45.106
2015    3        4     8  34    6.6113   490.0    6.303      45.153
2015    3        4     8  39    6.6144   490.2    6.304      45.202
2015    3        4     8  45    6.6178   490.3    6.305      45.251
2015    3        4     8  50    6.6211   490.4    6.306      45.301
2015    3        4     8  56    6.6242   490.6    6.308      45.353
2015    3        4     9   1    6.6275   490.7    6.309      45.406
2015    3        4     9   6    6.6307   490.9    6.310      45.460
2015    3        4     9  12    6.6339   491.0    6.311      45.516
2015    3        4     9  17    6.6371   491.2    6.313      45.573
2015    3        4     9  23    6.6404   491.3    6.314      45.630
2015    3        4     9  28    6.6436   491.5    6.315      45.689
2015    3        4     9  33    6.6466   491.6    6.315      45.748
2015    3        4     9  39    6.6495   491.8    6.316      45.806
2015    3        4     9  44    6.6527   491.9    6.316      45.866
2015    3        4     9  50    6.6556   492.1    6.317      45.925
2015    3        4     9  55    6.6585   492.3    6.317      45.984
2015    3        4    10   0    6.6614   492.4    6.316      46.043
2015    3        4    10   6    6.6641   492.6    6.316      46.101
2015    3        4    10  11    6.6669   492.8    6.315      46.159
2015    3        4    10  17    6.6698   492.9    6.314      46.217
2015    3        4    10  22    6.6723   493.1    6.313      46.273
2015    3        4    10  27    6.6750   493.3    6.312      46.328
2015    3        4    10  33    6.6776   493.4    6.310      46.383
2015    3        4    10  38    6.6803   493.6    6.308      46.437
2015    3        4    10  44    6.6828   493.8    6.307      46.490
2015    3        4    10  49    6.6854   493.9    6.305      46.542
2015    3        4    10  54    6.6880   494.1    6.302      46.594
2015    3        4    11   0    6.6905   494.3    6.300      46.645
2015    3        4    11   5    6.6930   494.5    6.297      46.695
2015    3        4    11  10    6.6954   494.6    6.295      46.745
2015    3        4    11  16    6.6978   494.8    6.292      46.794
2015    3        4    11  21    6.7002   495.0    6.289      46.842
2015    3        4    11  27    6.7026   495.2    6.286      46.890
2015    3        4    11  32    6.7050   495.3    6.283      46.937
2015    3        4    11  37    6.7073   495.5    6.280      46.984
2015    3        4    11  43    6.7097   495.7    6.276      47.030
2015    3        4    11  48    6.7119   495.9    6.273      47.075
2015    3        4    11  54    6.7143   496.0    6.270      47.120
2015    3        4    11  59    6.7165   496.2    6.266      47.165
2015    3        4    12   4    6.7188   496.4    6.262      47.209
2015    3        4    12  10    6.7210   496.6    6.259      47.253
2015    3        4    12  15    6.7233   496.7    6.255      47.296
2015    3        4    12  21    6.7255   496.9    6.251      47.339
2015    3        4    12  26    6.7277   497.1    6.248      47.382
2015    3        4    12  31    6.7299   497.3    6.244      47.424
2015    3        4    12  37    6.7321   497.5    6.240      47.465
2015    3        4    12  42    6.7341   497.6    6.236      47.507
2015    3        4    12  48    6.7364   497.8    6.232      47.548
2015    3        4    12  53    6.7386   498.0    6.228      47.589
2015    3        4    12  58    6.7406   498.2    6.224      47.629
2015    3        4    13   4    6.7428   498.3    6.220      47.669
2015    3        4    13   9    6.7450   498.5    6.217      47.709
2015    3        4    13  15    6.7471   498.7    6.213      47.749
2015    3        4    13  20    6.7492   498.9    6.209      47.789
2015    3        4    13  25    6.7514   499.0    6.205      47.829
2015    3        4    13  31    6.7536   499.2    6.201      47.868
2015    3        4    13  36    6.7557   499.4    6.197      47.908
2015    3        4    13  42    6.7578   499.6    6.194      47.948
2015    3        4    13  47    6.7600   499.7    6.190      47.988
2015    3        4    13  52    6.7622   499.9    6.187      48.028
2015    3        4    13  58    6.7644   500.1    6.183      48.068
2015    3        4    14   3    6.7667   500.3    6.180      48.109
2015    3        4    14   9    6.7689   500.5    6.176      48.150
2015    3        4    14  14    6.7711   500.6    6.173      48.192
2015    3        4    14  19    6.7732   500.8    6.170      48.234
2015    3        4    14  25    6.7755   501.0    6.167      48.276
2015    3        4    14  30    6.7776   501.2    6.164      48.320
2015    3        4    14  35    6.7797   501.4    6.161      48.363
2015    3        4    14  41    6.7820   501.6    6.158      48.407
2015    3        4    14  46    6.7841   501.8    6.156      48.452
2015    3        4    14  52    6.7863   502.0    6.153      48.496
2015    3        4    14  57    6.7883   502.1    6.150      48.541
2015    3        4    15   2    6.7905   502.3    6.147      48.587
2015    3        4    15   8    6.7925   502.5    6.145      48.632
2015    3        4    15  13    6.7946   502.7    6.142      48.676
2015    3        4    15  19    6.7966   502.9    6.139      48.721
2015    3        4    15  24    6.7987   503.1    6.137      48.766
2015    3        4    15  29    6.8006   503.3    6.134      48.811
2015    3        4    15  35    6.8025   503.5    6.131      48.856
2015    3        4    15  40    6.8044   503.7    6.129      48.901
2015    3        4    15  46    6.8063   503.9    6.126      48.946
2015    3        4    15  51    6.8082   504.1    6.123      48.990
2015    3        4    15  56    6.8101   504.3    6.120      49.035
2015    3        4    16   2    6.8119   504.5    6.118      49.080
2015    3        4    16   7    6.8138   504.7    6.115      49.125
2015    3        4    16  13    6.8154   504.9    6.112      49.169
2015    3        4    16  18    6.8173   505.1    6.109      49.214
2015    3        4    16  23    6.8190   505.3    6.106      49.258
2015    3        4    16  29    6.8207   505.5    6.103      49.302
2015    3        4    16  34    6.8224   505.7    6.100      49.346
2015    3        4    16  40    6.8240   505.9    6.097      49.391
2015    3        4    16  45    6.8257   506.1    6.093      49.435
2015    3        4    16  50    6.8272   506.3    6.090      49.478
2015    3        4    16  56    6.8289   506.5    6.087      49.522
2015    3        4    17   1    6.8304   506.7    6.083      49.566
2015    3        4    17   7    6.8319   506.9    6.080      49.609
2015    3        4    17  12    6.8336   507.1    6.076      49.653
2015    3        4    17  17    6.8351   507.3    6.072      49.696
2015    3        4    17  23    6.8366   507.5    6.068      49.739
2015    3        4    17  28    6.8379   507.7    6.064      49.782
2015    3        4    17  34    6.8395   507.9    6.060      49.824
2015    3        4    17  39    6.8409   508.1    6.056      49.867
2015    3        4    17  44    6.8423   508.4    6.052      49.909
2015    3        4    17  50    6.8437   508.6    6.048      49.951
2015    3        4    17  55    6.8450   508.8    6.043      49.993
2015    3        4    18   0    6.8462   509.0    6.039      50.035
2015    3        4    18   6    6.8475   509.2    6.034      50.076
2015    3        4    18  11    6.8489   509.4    6.030      50.117
2015    3        4    18  17    6.8502   509.6    6.025      50.158
2015    3        4    18  22    6.8513   509.8    6.021      50.199
2015    3        4    18  27    6.8525   510.0    6.016      50.239
2015    3        4    18  33    6.8537   510.3    6.011      50.280
2015    3        4    18  38    6.8550   510.5    6.006      50.320
2015    3        4    18  44    6.8561   510.7    6.002      50.361
2015    3        4    18  49    6.8573   510.9    5.997      50.401
2015    3        4    18  54    6.8584   511.1    5.992      50.441
2015    3        4    19   0    6.8594   511.3    5.987      50.481
2015    3        4    19   5    6.8606   511.5    5.982      50.521
2015    3        4    19  11    6.8615   511.8    5.977      50.561
2015    3        4    19  16    6.8627   512.0    5.972      50.601
2015    3        4    19  21    6.8636   512.2    5.967      50.642
2015    3        4    19  27    6.8647   512.4    5.962      50.682
2015    3        4    19  32    6.8656   512.6    5.957      50.722
2015    3        4    19  38    6.8667   512.8    5.952      50.762
2015    3        4    19  43    6.8677   513.0    5.947      50.802
2015    3        4    19  48    6.8685   513.3    5.942      50.842
2015    3        4    19  54    6.8695   513.5    5.937      50.882
2015    3        4    19  59    6.8704   513.7    5.932      50.921
2015    3        4    20   5    6.8712   513.9    5.927      50.961
2015    3        4    20  10    6.8722   514.1    5.922      51.001
2015    3        4    20  15    6.8730   514.3    5.917      51.040
2015    3        4    20  21    6.8740   514.5    5.912      51.079
2015    3        4    20  26    6.8747   514.8    5.907      51.118
2015    3        4    20  32    6.8757   515.0    5.902      51.158
2015    3        4    20  37    6.8765   515.2    5.897      51.197
2015    3        4    20  42    6.8773   515.4    5.892      51.236
2015    3        4    20  48    6.8781   515.6    5.887      51.276
2015    3        4    20  53    6.8789   515.8    5.882      51.315
2015    3        4    20  59    6.8799   516.0    5.878      51.355
2015    3        4    21   4    6.8806   516.2    5.873      51.395
2015    3        4    21   9    6.8814   516.4    5.868      51.435
2015    3        4    21  15    6.8823   516.7    5.864      51.476
2015    3        4    21  20    6.8831   516.9    5.859      51.517
2015    3        4    21  25    6.8839   517.1    5.855      51.558
2015    3        4    21  31    6.8848   517.3    5.850      51.600
2015    3        4    21  36    6.8854   517.5    5.846      51.642
2015    3        4    21  42    6.8862   517.7    5.841      51.684
2015    3        4    21  47    6.8869   517.9    5.837      51.727
2015    3        4    21  52    6.8878   518.2    5.832      51.770
2015    3        4    21  58    6.8883   518.4    5.828      51.813
2015    3        4    22   3    6.8890   518.6    5.823      51.856
2015    3        4    22   9    6.8896   518.8    5.818      51.899
2015    3        4    22  14    6.8901   519.0    5.814      51.942
2015    3        4    22  19    6.8907   519.3    5.809      51.985
2015    3        4    22  25    6.8912   519.5    5.804      52.027
2015    3        4    22  30    6.8917   519.7    5.799      52.069
2015    3        4    22  36    6.8922   519.9    5.794      52.111
2015    3        4    22  41    6.8926   520.1    5.789      52.153
2015    3        4    22  46    6.8929   520.4    5.784      52.194
2015    3        4    22  52    6.8932   520.6    5.779      52.234
2015    3        4    22  57    6.8937   520.8    5.773      52.274
2015    3        4    23   3    6.8940   521.0    5.768      52.313
2015    3        4    23   8    6.8943   521.3    5.763      52.352
2015    3        4    23  13    6.8945   521.5    5.757      52.391
2015    3        4    23  19    6.8948   521.7    5.752      52.429
2015    3        4    23  24    6.8948   521.9    5.746      52.466
2015    3        4    23  30    6.8952   522.1    5.740      52.504
2015    3        4    23  35    6.8953   522.4    5.735      52.540
2015    3        4    23  40    6.8955   522.6    5.729      52.577
2015    3        4    23  46    6.8956   522.8    5.723      52.613
2015    3        4    23  51    6.8957   523.0    5.718      52.649
2015    3        4    23  57    6.8957   523.2    5.712      52.684
2015    3        5     0   2    6.8959   523.5    5.706      52.719
2015    3        5     0   7    6.8959   523.7    5.700      52.754
2015    3        5     0  13    6.8960   523.9    5.694      52.789
2015    3        5     0  18    6.8961   524.1    5.689      52.823
2015    3        5     0  24    6.8961   524.3    5.683      52.857
2015    3        5     0  29    6.8961   524.5    5.677      52.891
2015    3        5     0  34    6.8961   524.8    5.671      52.924
2015    3        5     0  40    6.8961   525.0    5.665      52.957
2015    3        5     0  45    6.8960   525.2    5.660      52.990
2015    3        5     0  51    6.8960   525.4    5.654      53.023
2015    3        5     0  56    6.8959   525.6    5.648      53.056
2015    3        5     1   1    6.8957   525.9    5.642      53.089
2015    3        5     1   7    6.8957   526.1    5.637      53.121
2015    3        5     1  12    6.8956   526.3    5.631      53.153
2015    3        5     1  17    6.8955   526.5    5.626      53.186
2015    3        5     1  23    6.8954   526.7    5.620      53.218
2015    3        5     1  28    6.8951   526.9    5.614      53.250
2015    3        5     1  34    6.8950   527.1    5.609      53.283
2015    3        5     1  39    6.8949   527.4    5.604      53.315
2015    3        5     1  44    6.8949   527.6    5.598      53.348
2015    3        5     1  50    6.8947   527.8    5.593      53.381
2015    3        5     1  55    6.8944   528.0    5.588      53.414
2015    3        5     2   1    6.8944   528.2    5.583      53.448
2015    3        5     2   6    6.8943   528.4    5.578      53.481
2015    3        5     2  11    6.8941   528.6    5.573      53.516
2015    3        5     2  17    6.8939   528.9    5.568      53.551
2015    3        5     2  22    6.8939   529.1    5.564      53.587
2015    3        5     2  28    6.8938   529.3    5.559      53.624
2015    3        5     2  33    6.8935   529.5    5.554      53.662
2015    3        5     2  38    6.8933   529.7    5.550      53.701
2015    3        5     2  44    6.8933   529.9    5.545      53.740
2015    3        5     2  49    6.8931   530.2    5.541      53.779
2015    3        5     2  55    6.8929   530.4    5.536      53.819
2015    3        5     3   0    6.8926   530.6    5.532      53.860
2015    3        5     3   5    6.8923   530.8    5.527      53.900
2015    3        5     3  11    6.8921   531.0    5.522      53.941
2015    3        5     3  16    6.8918   531.3    5.518      53.981
2015    3        5     3  22    6.8914   531.5    5.513      54.021
2015    3        5     3  27    6.8912   531.7    5.508      54.061
2015    3        5     3  32    6.8907   531.9    5.503      54.101
2015    3        5     3  38    6.8903   532.1    5.498      54.140
2015    3        5     3  43    6.8900   532.3    5.493      54.179
2015    3        5     3  49    6.8896   532.6    5.488      54.217
2015    3        5     3  54    6.8891   532.8    5.483      54.255
2015    3        5     3  59    6.8885   533.0    5.478      54.292
2015    3        5     4   5    6.8882   533.2    5.473      54.329
2015    3        5     4  10    6.8877   533.4    5.468      54.366
2015    3        5     4  16    6.8872   533.6    5.463      54.402
2015    3        5     4  21    6.8867   533.8    5.458      54.438
2015    3        5     4  26    6.8861   534.0    5.453      54.474
2015    3        5     4  32    6.8854   534.3    5.447      54.509
2015    3        5     4  37    6.8849   534.5    5.442      54.544
2015    3        5     4  42    6.8843   534.7    5.437      54.579
2015    3        5     4  48    6.8838   534.9    5.432      54.614
2015    3        5     4  53    6.8832   535.1    5.427      54.648
2015    3        5     4  59    6.8826   535.3    5.422      54.682
2015    3        5     5   4    6.8818   535.5    5.417      54.716
2015    3        5     5   9    6.8812   535.7    5.411      54.750
2015    3        5     5  15    6.8805   535.9    5.406      54.784
2015    3        5     5  20    6.8798   536.1    5.401      54.817
2015    3        5     5  26    6.8791   536.3    5.396      54.850
2015    3        5     5  31    6.8784   536.6    5.390      54.883
2015    3        5     5  36    6.8779   536.8    5.385      54.916
2015    3        5     5  42    6.8770   537.0    5.380      54.949
2015    3        5     5  47    6.8762   537.2    5.375      54.981
2015    3        5     5  53    6.8755   537.4    5.370      55.013
2015    3        5     5  58    6.8749   537.6    5.364      55.045
2015    3        5     6   3    6.8739   537.8    5.359      55.077
2015    3        5     6   9    6.8733   538.0    5.354      55.108
2015    3        5     6  14    6.8724   538.2    5.349      55.140
2015    3        5     6  20    6.8717   538.4    5.343      55.171
2015    3        5     6  25    6.8708   538.6    5.338      55.202
2015    3        5     6  30    6.8701   538.8    5.333      55.233
2015    3        5     6  36    6.8692   539.0    5.328      55.264
2015    3        5     6  41    6.8685   539.2    5.323      55.295
2015    3        5     6  47    6.8677   539.4    5.318      55.326
2015    3        5     6  52    6.8668   539.6    5.313      55.357
2015    3        5     6  57    6.8661   539.8    5.308      55.388
2015    3        5     7   3    6.8653   540.0    5.304      55.419
2015    3        5     7   8    6.8646   540.2    5.299      55.451
2015    3        5     7  14    6.8637   540.4    5.294      55.483
2015    3        5     7  19    6.8629   540.6    5.290      55.515
2015    3        5     7  24    6.8621   540.8    5.286      55.547
2015    3        5     7  30    6.8615   541.0    5.281      55.580
2015    3        5     7  35    6.8607   541.3    5.277      55.614
2015    3        5     7  41    6.8598   541.5    5.273      55.649
2015    3        5     7  46    6.8592   541.7    5.268      55.685
2015    3        5     7  51    6.8584   541.9    5.264      55.721
2015    3        5     7  57    6.8576   542.1    5.260      55.757
2015    3        5     8   2    6.8568   542.3    5.256      55.793
2015    3        5     8   7    6.8559   542.5    5.251      55.830
2015    3        5     8  13    6.8550   542.7    5.247      55.866
2015    3        5     8  18    6.8543   543.0    5.242      55.902
2015    3        5     8  24    6.8534   543.2    5.238      55.938
2015    3        5     8  29    6.8525   543.4    5.233      55.974
2015    3        5     8  34    6.8515   543.6    5.229      56.010
2015    3        5     8  40    6.8507   543.8    5.224      56.044
2015    3        5     8  45    6.8497   544.0    5.220      56.078
2015    3        5     8  51    6.8487   544.2    5.215      56.112
2015    3        5     8  56    6.8477   544.4    5.210      56.145
2015    3        5     9   1    6.8469   544.6    5.206      56.178
2015    3        5     9   7    6.8459   544.8    5.201      56.210
2015    3        5     9  12    6.8449   545.0    5.196      56.242
2015    3        5     9  18    6.8439   545.3    5.192      56.274
2015    3        5     9  23    6.8429   545.5    5.187      56.306
2015    3        5     9  28    6.8420   545.7    5.183      56.337
2015    3        5     9  34    6.8411   545.9    5.178      56.369
2015    3        5     9  39    6.8401   546.1    5.174      56.400
2015    3        5     9  45    6.8392   546.3    5.169      56.432
2015    3        5     9  50    6.8382   546.5    5.165      56.464
2015    3        5     9  55    6.8373   546.7    5.161      56.496
2015    3        5    10   1    6.8364   546.9    5.156      56.529
2015    3        5    10   6    6.8354   547.1    5.152      56.562
2015    3        5    10  12    6.8345   547.3    5.148      56.595
2015    3        5    10  17    6.8335   547.5    5.144      56.629
2015    3        5    10  22    6.8325   547.7    5.139      56.663
2015    3        5    10  28    6.8316   547.9    5.135      56.696
2015    3        5    10  33    6.8306   548.1    5.131      56.730
2015    3        5    10  39    6.8296   548.3    5.126      56.763
2015    3        5    10  44    6.8285   548.5    5.122      56.796
2015    3        5    10  49    6.8276   548.7    5.117      56.829
2015    3        5    10  55    6.8265   548.9    5.113      56.861
2015    3        5    11   0    6.8254   549.2    5.108      56.893
2015    3        5    11   6    6.8244   549.4    5.103      56.924
2015    3        5    11  11    6.8233   549.6    5.099      56.955
2015    3        5    11  16    6.8222   549.8    5.094      56.985
2015    3        5    11  22    6.8211   550.0    5.089      57.015
2015    3        5    11  27    6.8200   550.2    5.085      57.044
2015    3        5    11  32    6.8188   550.4    5.080      57.072
2015    3        5    11  38    6.8177   550.6    5.075      57.100
2015    3        5    11  43    6.8166   550.8    5.071      57.128
2015    3        5    11  49    6.8154   551.0    5.066      57.155
2015    3        5    11  54    6.8143   551.2    5.061      57.182
2015    3        5    11  59    6.8132   551.3    5.057      57.210
2015    3        5    12   5    6.8121   551.5    5.052      57.237
2015    3        5    12  10    6.8110   551.7    5.048      57.264
2015    3        5    12  16    6.8099   551.9    5.043      57.291
2015    3        5    12  21    6.8088   552.1    5.039      57.318
2015    3        5    12  26    6.8077   552.3    5.035      57.345
2015    3        5    12  32    6.8066   552.5    5.031      57.373
2015    3        5    12  37    6.8055   552.7    5.027      57.401
2015    3        5    12  43    6.8045   552.9    5.023      57.430
2015    3        5    12  48    6.8034   553.1    5.019      57.459
2015    3        5    12  53    6.8023   553.3    5.015      57.489
2015    3        5    12  59    6.8013   553.5    5.011      57.519
2015    3        5    13   4    6.8002   553.7    5.007      57.550
2015    3        5    13  10    6.7991   553.9    5.003      57.581
2015    3        5    13  15    6.7980   554.2    4.999      57.613
2015    3        5    13  20    6.7969   554.4    4.995      57.645
2015    3        5    13  26    6.7958   554.6    4.990      57.677
2015    3        5    13  31    6.7947   554.8    4.986      57.708
2015    3        5    13  37    6.7936   555.0    4.982      57.740
2015    3        5    13  42    6.7924   555.2    4.978      57.771
2015    3        5    13  47    6.7913   555.4    4.974      57.803
2015    3        5    13  53    6.7901   555.6    4.970      57.834
2015    3        5    13  58    6.7890   555.8    4.965      57.865
2015    3        5    14   4    6.7878   556.0    4.961      57.895
2015    3        5    14   9    6.7867   556.2    4.957      57.925
2015    3        5    14  14    6.7855   556.4    4.953      57.955
2015    3        5    14  20    6.7844   556.6    4.948      57.985
2015    3        5    14  25    6.7832   556.8    4.944      58.014
2015    3        5    14  31    6.7821   557.0    4.940      58.044
2015    3        5    14  36    6.7810   557.2    4.936      58.074
2015    3        5    14  41    6.7799   557.4    4.932      58.103
2015    3        5    14  47    6.7789   557.6    4.928      58.134
2015    3        5    14  52    6.7778   557.8    4.925      58.164
2015    3        5    14  57    6.7767   558.0    4.921      58.195
2015    3        5    15   3    6.7756   558.2    4.917      58.227
2015    3        5    15   8    6.7746   558.4    4.913      58.259
2015    3        5    15  14    6.7735   558.6    4.909      58.291
2015    3        5    15  19    6.7725   558.8    4.905      58.324
2015    3        5    15  24    6.7714   559.0    4.901      58.356
2015    3        5    15  30    6.7703   559.2    4.898      58.389
2015    3        5    15  35    6.7693   559.4    4.894      58.422
2015    3        5    15  41    6.7682   559.6    4.889      58.454
2015    3        5    15  46    6.7670   559.8    4.885      58.486
2015    3        5    15  51    6.7659   560.1    4.881      58.518
2015    3        5    15  57    6.7648   560.3    4.877      58.549
2015    3        5    16   2    6.7636   560.5    4.872      58.580
2015    3        5    16   8    6.7625   560.7    4.868      58.610
2015    3        5    16  13    6.7613   560.9    4.864      58.639
2015    3        5    16  18    6.7601   561.1    4.859      58.667
2015    3        5    16  24    6.7589   561.3    4.855      58.694
2015    3        5    16  29    6.7577   561.5    4.850      58.721
2015    3        5    16  35    6.7565   561.7    4.846      58.748
2015    3        5    16  40    6.7552   561.9    4.841      58.774
2015    3        5    16  45    6.7540   562.1    4.837      58.799
2015    3        5    16  51    6.7527   562.3    4.832      58.824
2015    3        5    16  56    6.7515   562.5    4.828      58.848
2015    3        5    17   2    6.7502   562.7    4.823      58.872
2015    3        5    17   7    6.7489   562.9    4.819      58.896
2015    3        5    17  12    6.7477   563.1    4.815      58.920
2015    3        5    17  18    6.7464   563.3    4.810      58.944
2015    3        5    17  23    6.7451   563.5    4.806      58.967
2015    3        5    17  29    6.7439   563.7    4.802      58.990
2015    3        5    17  34    6.7426   563.9    4.798      59.014
2015    3        5    17  39    6.7413   564.1    4.794      59.038
2015    3        5    17  45    6.7400   564.3    4.790      59.062
2015    3        5    17  50    6.7388   564.4    4.786      59.086
2015    3        5    17  56    6.7375   564.6    4.782      59.111
2015    3        5    18   1    6.7363   564.8    4.779      59.136
2015    3        5    18   6    6.7350   565.0    4.775      59.162
2015    3        5    18  12    6.7337   565.2    4.772      59.190
2015    3        5    18  17    6.7325   565.4    4.768      59.218
2015    3        5    18  22    6.7312   565.6    4.765      59.248
2015    3        5    18  28    6.7299   565.8    4.762      59.278
2015    3        5    18  33    6.7286   566.0    4.759      59.309
2015    3        5    18  39    6.7272   566.2    4.755      59.341
2015    3        5    18  44    6.7259   566.4    4.752      59.373
2015    3        5    18  49    6.7245   566.6    4.749      59.404
2015    3        5    18  55    6.7232   566.8    4.745      59.436
2015    3        5    19   0    6.7217   567.0    4.742      59.468
2015    3        5    19   6    6.7203   567.2    4.738      59.499
2015    3        5    19  11    6.7188   567.4    4.735      59.530
2015    3        5    19  16    6.7174   567.6    4.731      59.560
2015    3        5    19  22    6.7159   567.8    4.727      59.590
2015    3        5    19  27    6.7144   568.0    4.724      59.618
2015    3        5    19  33    6.7129   568.2    4.720      59.647
2015    3        5    19  38    6.7114   568.4    4.717      59.675
2015    3        5    19  43    6.7099   568.6    4.713      59.702
2015    3        5    19  49    6.7085   568.8    4.709      59.730
2015    3        5    19  54    6.7069   569.0    4.706      59.758
2015    3        5    20   0    6.7055   569.2    4.702      59.786
2015    3        5    20   5    6.7039   569.4    4.699      59.814
2015    3        5    20  10    6.7025   569.6    4.695      59.842
2015    3        5    20  16    6.7010   569.8    4.692      59.869
2015    3        5    20  21    6.6996   570.0    4.688      59.897
2015    3        5    20  27    6.6981   570.2    4.685      59.926
2015    3        5    20  32    6.6966   570.4    4.681      59.955
2015    3        5    20  37    6.6951   570.6    4.678      59.984
2015    3        5    20  43    6.6937   570.8    4.674      60.014
2015    3        5    20  48    6.6922   571.0    4.670      60.044
2015    3        5    20  54    6.6907   571.2    4.667      60.073
2015    3        5    20  59    6.6892   571.4    4.663      60.103
2015    3        5    21   4    6.6877   571.6    4.659      60.132
2015    3        5    21  10    6.6862   571.8    4.655      60.160
2015    3        5    21  15    6.6847   572.0    4.651      60.188
2015    3        5    21  21    6.6832   572.2    4.647      60.216
2015    3        5    21  26    6.6817   572.4    4.643      60.244
2015    3        5    21  31    6.6802   572.6    4.639      60.270
2015    3        5    21  37    6.6786   572.8    4.635      60.296
2015    3        5    21  42    6.6771   573.0    4.630      60.321
2015    3        5    21  47    6.6755   573.1    4.626      60.345
2015    3        5    21  53    6.6740   573.3    4.622      60.368
2015    3        5    21  58    6.6724   573.5    4.617      60.392
2015    3        5    22   4    6.6709   573.7    4.613      60.414
2015    3        5    22   9    6.6693   573.9    4.609      60.436
2015    3        5    22  14    6.6678   574.1    4.604      60.458
2015    3        5    22  20    6.6662   574.3    4.600      60.479
2015    3        5    22  25    6.6647   574.5    4.596      60.499
2015    3        5    22  31    6.6631   574.7    4.591      60.520
2015    3        5    22  36    6.6616   574.8    4.587      60.541
2015    3        5    22  41    6.6600   575.0    4.583      60.561
2015    3        5    22  47    6.6585   575.2    4.579      60.581
2015    3        5    22  52    6.6570   575.4    4.574      60.601
2015    3        5    22  58    6.6555   575.6    4.570      60.622
2015    3        5    23   3    6.6539   575.8    4.566      60.642
2015    3        5    23   8    6.6524   576.0    4.563      60.663
2015    3        5    23  14    6.6509   576.1    4.559      60.684
2015    3        5    23  19    6.6495   576.3    4.555      60.705
2015    3        5    23  25    6.6480   576.5    4.551      60.726
2015    3        5    23  30    6.6465   576.7    4.548      60.748
2015    3        5    23  35    6.6451   576.9    4.545      60.772
2015    3        5    23  41    6.6436   577.0    4.541      60.796
2015    3        5    23  46    6.6422   577.2    4.538      60.820
2015    3        5    23  52    6.6407   577.4    4.535      60.846
2015    3        5    23  57    6.6392   577.6    4.532      60.873
2015    3        6     0   2    6.6377   577.8    4.529      60.902
2015    3        6     0   8    6.6362   578.0    4.526      60.931
2015    3        6     0  13    6.6347   578.2    4.523      60.960
2015    3        6     0  19    6.6331   578.4    4.520      60.990
2015    3        6     0  24    6.6315   578.5    4.517      61.021
2015    3        6     0  29    6.6299   578.7    4.514      61.051
2015    3        6     0  35    6.6283   578.9    4.511      61.081
2015    3        6     0  40    6.6266   579.1    4.508      61.110
2015    3        6     0  46    6.6249   579.3    4.504      61.139
2015    3        6     0  51    6.6232   579.5    4.501      61.167
2015    3        6     0  56    6.6215   579.7    4.498      61.194
2015    3        6     1   2    6.6197   579.9    4.494      61.221
2015    3        6     1   7    6.6179   580.0    4.491      61.247
2015    3        6     1  12    6.6162   580.2    4.487      61.272
2015    3        6     1  18    6.6144   580.4    4.484      61.297
2015    3        6     1  23    6.6126   580.6    4.480      61.322
2015    3        6     1  29    6.6109   580.8    4.477      61.346
2015    3        6     1  34    6.6091   581.0    4.474      61.370
2015    3        6     1  39    6.6074   581.1    4.470      61.394
2015    3        6     1  45    6.6056   581.3    4.467      61.419
2015    3        6     1  50    6.6039   581.5    4.464      61.444
2015    3        6     1  56    6.6022   581.7    4.461      61.470
2015    3        6     2   1    6.6005   581.8    4.458      61.497
2015    3        6     2   6    6.5988   582.0    4.455      61.525
2015    3        6     2  12    6.5971   582.2    4.452      61.553
2015    3        6     2  17    6.5954   582.4    4.449      61.582
2015    3        6     2  23    6.5937   582.6    4.446      61.611
2015    3        6     2  28    6.5920   582.8    4.442      61.639
2015    3        6     2  33    6.5903   582.9    4.439      61.667
2015    3        6     2  39    6.5886   583.1    4.436      61.695
2015    3        6     2  44    6.5869   583.3    4.432      61.722
2015    3        6     2  50    6.5852   583.5    4.429      61.748
2015    3        6     2  55    6.5835   583.7    4.425      61.774
2015    3        6     3   0    6.5818   583.9    4.421      61.799
2015    3        6     3   6    6.5801   584.0    4.417      61.822
2015    3        6     3  11    6.5784   584.2    4.413      61.844
2015    3        6     3  17    6.5767   584.4    4.409      61.865
2015    3        6     3  22    6.5750   584.6    4.405      61.886
2015    3        6     3  27    6.5733   584.7    4.401      61.905
2015    3        6     3  33    6.5716   584.9    4.397      61.923
2015    3        6     3  38    6.5699   585.1    4.392      61.941
2015    3        6     3  44    6.5683   585.3    4.388      61.958
2015    3        6     3  49    6.5666   585.4    4.384      61.974
2015    3        6     3  54    6.5650   585.6    4.380      61.990
2015    3        6     4   0    6.5634   585.8    4.375      62.005
2015    3        6     4   5    6.5618   585.9    4.371      62.020
2015    3        6     4  11    6.5602   586.1    4.367      62.035
2015    3        6     4  16    6.5586   586.3    4.363      62.049
2015    3        6     4  21    6.5571   586.4    4.359      62.063
2015    3        6     4  27    6.5556   586.6    4.355      62.078
2015    3        6     4  32    6.5541   586.8    4.351      62.092
2015    3        6     4  37    6.5526   586.9    4.347      62.106
2015    3        6     4  43    6.5513   587.1    4.343      62.120
2015    3        6     4  48    6.5498   587.2    4.339      62.135
2015    3        6     4  54    6.5485   587.4    4.335      62.150
2015    3        6     4  59    6.5472   587.6    4.332      62.165
2015    3        6     5   4    6.5458   587.7    4.328      62.181
2015    3        6     5  10    6.5446   587.9    4.325      62.197
2015    3        6     5  15    6.5433   588.1    4.321      62.213
2015    3        6     5  21    6.5421   588.2    4.318      62.230
2015    3        6     5  26    6.5408   588.4    4.315      62.249
2015    3        6     5  31    6.5396   588.6    4.312      62.268
2015    3        6     5  37    6.5382   588.7    4.309      62.288
2015    3        6     5  42    6.5370   588.9    4.306      62.309
2015    3        6     5  48    6.5357   589.1    4.303      62.330
2015    3        6     5  53    6.5344   589.2    4.301      62.353
2015    3        6     5  58    6.5331   589.4    4.298      62.376
2015    3        6     6   4    6.5318   589.6    4.295      62.399
2015    3        6     6   9    6.5305   589.7    4.292      62.423
2015    3        6     6  15    6.5291   589.9    4.289      62.447
2015    3        6     6  20    6.5277   590.1    4.286      62.472
2015    3        6     6  25    6.5263   590.3    4.283      62.496
2015    3        6     6  31    6.5249   590.4    4.280      62.520
2015    3        6     6  36    6.5236   590.6    4.277      62.545
2015    3        6     6  42    6.5221   590.8    4.275      62.569
2015    3        6     6  47    6.5207   590.9    4.272      62.593
2015    3        6     6  52    6.5193   591.1    4.269      62.618
2015    3        6     6  58    6.5179   591.3    4.266      62.643
2015    3        6     7   3    6.5165   591.4    4.263      62.667
2015    3        6     7   9    6.5151   591.6    4.260      62.692
2015    3        6     7  14    6.5137   591.8    4.258      62.717
2015    3        6     7  19    6.5122   591.9    4.255      62.742
2015    3        6     7  25    6.5108   592.1    4.252      62.767
2015    3        6     7  30    6.5094   592.3    4.250      62.793
2015    3        6     7  36    6.5079   592.4    4.247      62.819
2015    3        6     7  41    6.5065   592.6    4.245      62.846
2015    3        6     7  46    6.5050   592.8    4.242      62.874
2015    3        6     7  52    6.5036   592.9    4.240      62.901
2015    3        6     7  57    6.5021   593.1    4.237      62.928
2015    3        6     8   2    6.5006   593.3    4.235      62.956
2015    3        6     8   8    6.4991   593.4    4.232      62.984
2015    3        6     8  13    6.4976   593.6    4.230      63.013
2015    3        6     8  19    6.4960   593.8    4.227      63.043
2015    3        6     8  24    6.4945   594.0    4.225      63.073
2015    3        6     8  29    6.4929   594.1    4.222      63.103
2015    3        6     8  35    6.4913   594.3    4.219      63.133
2015    3        6     8  40    6.4897   594.5    4.217      63.163
2015    3        6     8  46    6.4881   594.6    4.214      63.192
2015    3        6     8  51    6.4865   594.8    4.211      63.221
2015    3        6     8  56    6.4849   595.0    4.208      63.250
2015    3        6     9   2    6.4832   595.2    4.205      63.278
2015    3        6     9   7    6.4816   595.3    4.202      63.306
2015    3        6     9  13    6.4799   595.5    4.198      63.332
2015    3        6     9  18    6.4783   595.7    4.195      63.357
2015    3        6     9  23    6.4766   595.8    4.192      63.382
2015    3        6     9  29    6.4749   596.0    4.188      63.405
2015    3        6     9  34    6.4733   596.2    4.185      63.428
2015    3        6     9  40    6.4716   596.3    4.181      63.450
2015    3        6     9  45    6.4699   596.5    4.178      63.471
2015    3        6     9  50    6.4683   596.7    4.174      63.491
2015    3        6     9  56    6.4666   596.8    4.170      63.511
2015    3        6    10   1    6.4650   597.0    4.167      63.530
2015    3        6    10   7    6.4633   597.2    4.163      63.548
2015    3        6    10  12    6.4617   597.3    4.159      63.566
2015    3        6    10  17    6.4600   597.5    4.156      63.583
2015    3        6    10  23    6.4584   597.6    4.152      63.600
2015    3        6    10  28    6.4568   597.8    4.148      63.616
2015    3        6    10  34    6.4552   598.0    4.145      63.632
2015    3        6    10  39    6.4536   598.1    4.141      63.647
2015    3        6    10  44    6.4520   598.3    4.137      63.663
2015    3        6    10  50    6.4504   598.4    4.134      63.677
2015    3        6    10  55    6.4488   598.6    4.130      63.692
2015    3        6    11   1    6.4473   598.8    4.126      63.706
2015    3        6    11   6    6.4457   598.9    4.123      63.720
2015    3        6    11  11    6.4441   599.1    4.119      63.734
2015    3        6    11  17    6.4425   599.2    4.116      63.748
2015    3        6    11  22    6.4409   599.4    4.112      63.761
2015    3        6    11  27    6.4393   599.6    4.109      63.775
2015    3        6    11  33    6.4376   599.7    4.105      63.788
2015    3        6    11  38    6.4360   599.9    4.102      63.802
2015    3        6    11  44    6.4344   600.0    4.099      63.815
2015    3        6    11  49    6.4327   600.2    4.095      63.829
2015    3        6    11  54    6.4311   600.3    4.092      63.843
2015    3        6    12   0    6.4294   600.5    4.089      63.857
2015    3        6    12   5    6.4277   600.7    4.085      63.871
2015    3        6    12  11    6.4260   600.8    4.082      63.885
2015    3        6    12  16    6.4243   601.0    4.079      63.899
2015    3        6    12  21    6.4226   601.1    4.076      63.913
2015    3        6    12  27    6.4209   601.3    4.073      63.927
2015    3        6    12  32    6.4192   601.4    4.070      63.941
2015    3        6    12  38    6.4175   601.6    4.067      63.956
2015    3        6    12  43    6.4158   601.7    4.064      63.971
2015    3        6    12  48    6.4140   601.9    4.061      63.986
2015    3        6    12  54    6.4122   602.0    4.058      64.002
2015    3        6    12  59    6.4104   602.2    4.055      64.018
2015    3        6    13   5    6.4087   602.3    4.052      64.035
2015    3        6    13  10    6.4069   602.5    4.049      64.052
2015    3        6    13  15    6.4051   602.6    4.046      64.069
2015    3        6    13  21    6.4033   602.8    4.043      64.086
2015    3        6    13  26    6.4014   602.9    4.040      64.104
2015    3        6    13  32    6.3996   603.1    4.038      64.122
2015    3        6    13  37    6.3978   603.2    4.035      64.141
2015    3        6    13  42    6.3960   603.4    4.032      64.160
2015    3        6    13  48    6.3942   603.5    4.029      64.179
2015    3        6    13  53    6.3924   603.7    4.027      64.198
2015    3        6    13  59    6.3906   603.8    4.024      64.218
2015    3        6    14   4    6.3888   603.9    4.021      64.239
2015    3        6    14   9    6.3871   604.1    4.019      64.261
2015    3        6    14  15    6.3853   604.2    4.016      64.283
2015    3        6    14  20    6.3836   604.4    4.014      64.307
2015    3        6    14  26    6.3819   604.5    4.011      64.331
2015    3        6    14  31    6.3803   604.7    4.009      64.355
2015    3        6    14  36    6.3786   604.8    4.006      64.380
2015    3        6    14  42    6.3769   605.0    4.004      64.404
2015    3        6    14  47    6.3753   605.1    4.001      64.429
2015    3        6    14  53    6.3736   605.2    3.999      64.455
2015    3        6    14  58    6.3720   605.4    3.996      64.480
2015    3        6    15   3    6.3704   605.5    3.994      64.506
2015    3        6    15   9    6.3688   605.7    3.991      64.531
2015    3        6    15  14    6.3672   605.8    3.989      64.556
2015    3        6    15  19    6.3656   606.0    3.986      64.582
2015    3        6    15  25    6.3640   606.1    3.984      64.608
2015    3        6    15  30    6.3624   606.3    3.981      64.634
2015    3        6    15  36    6.3608   606.4    3.979      64.661
2015    3        6    15  41    6.3592   606.6    3.977      64.688
2015    3        6    15  46    6.3576   606.7    3.974      64.715
2015    3        6    15  52    6.3560   606.9    3.972      64.741
2015    3        6    15  57    6.3543   607.0    3.969      64.766
2015    3        6    16   3    6.3527   607.2    3.966      64.792
2015    3        6    16   8    6.3511   607.3    3.964      64.816
2015    3        6    16  13    6.3494   607.5    3.961      64.839
2015    3        6    16  19    6.3477   607.6    3.958      64.862
2015    3        6    16  24    6.3460   607.8    3.955      64.883
2015    3        6    16  30    6.3442   607.9    3.952      64.904
2015    3        6    16  35    6.3424   608.1    3.949      64.923
2015    3        6    16  40    6.3406   608.2    3.946      64.941
2015    3        6    16  46    6.3388   608.4    3.943      64.958
2015    3        6    16  51    6.3370   608.6    3.939      64.974
2015    3        6    16  57    6.3351   608.7    3.936      64.989
2015    3        6    17   2    6.3332   608.9    3.933      65.003
2015    3        6    17   7    6.3313   609.0    3.929      65.016
2015    3        6    17  13    6.3294   609.2    3.925      65.028
2015    3        6    17  18    6.3274   609.3    3.922      65.040
2015    3        6    17  24    6.3255   609.5    3.918      65.050
2015    3        6    17  29    6.3235   609.6    3.914      65.059
2015    3        6    17  34    6.3215   609.8    3.910      65.067
2015    3        6    17  40    6.3195   609.9    3.907      65.075
2015    3        6    17  45    6.3175   610.1    3.903      65.082
2015    3        6    17  51    6.3154   610.2    3.899      65.088
2015    3        6    17  56    6.3134   610.4    3.895      65.093
2015    3        6    18   1    6.3114   610.5    3.891      65.098
2015    3        6    18   7    6.3093   610.6    3.887      65.102
2015    3        6    18  12    6.3072   610.8    3.883      65.106
2015    3        6    18  18    6.3052   610.9    3.880      65.110
2015    3        6    18  23    6.3031   611.1    3.876      65.114
2015    3        6    18  28    6.3010   611.2    3.872      65.118
2015    3        6    18  34    6.2989   611.3    3.869      65.122
2015    3        6    18  39    6.2969   611.5    3.865      65.126
2015    3        6    18  44    6.2948   611.6    3.861      65.131
2015    3        6    18  50    6.2928   611.7    3.858      65.136
2015    3        6    18  55    6.2907   611.8    3.855      65.142
2015    3        6    19   1    6.2887   612.0    3.851      65.149
2015    3        6    19   6    6.2867   612.1    3.848      65.156
2015    3        6    19  11    6.2847   612.2    3.845      65.165
2015    3        6    19  17    6.2827   612.3    3.843      65.176
2015    3        6    19  22    6.2807   612.5    3.840      65.189
2015    3        6    19  28    6.2787   612.6    3.837      65.203
2015    3        6    19  33    6.2768   612.7    3.835      65.219
2015    3        6    19  38    6.2748   612.9    3.832      65.236
2015    3        6    19  44    6.2729   613.0    3.830      65.254
2015    3        6    19  49    6.2710   613.1    3.827      65.272
2015    3        6    19  55    6.2690   613.2    3.825      65.292
2015    3        6    20   0    6.2671   613.4    3.823      65.313
2015    3        6    20   5    6.2652   613.5    3.820      65.334
2015    3        6    20  11    6.2633   613.6    3.818      65.356
2015    3        6    20  16    6.2614   613.7    3.816      65.379
2015    3        6    20  22    6.2595   613.9    3.814      65.400
2015    3        6    20  27    6.2576   614.0    3.812      65.423
2015    3        6    20  32    6.2557   614.1    3.810      65.446
2015    3        6    20  38    6.2538   614.2    3.808      65.471
2015    3        6    20  43    6.2519   614.4    3.806      65.496
2015    3        6    20  49    6.2500   614.5    3.804      65.522
2015    3        6    20  54    6.2482   614.6    3.802      65.549
2015    3        6    20  59    6.2463   614.8    3.800      65.575
2015    3        6    21   5    6.2444   614.9    3.798      65.602
2015    3        6    21  10    6.2425   615.0    3.796      65.628
2015    3        6    21  16    6.2406   615.2    3.794      65.654
2015    3        6    21  21    6.2387   615.3    3.792      65.680
2015    3        6    21  26    6.2367   615.4    3.789      65.705
2015    3        6    21  32    6.2348   615.6    3.787      65.729
2015    3        6    21  37    6.2328   615.7    3.784      65.751
2015    3        6    21  42    6.2308   615.9    3.782      65.772
2015    3        6    21  48    6.2288   616.0    3.779      65.790
2015    3        6    21  53    6.2267   616.1    3.776      65.808
2015    3        6    21  59    6.2247   616.3    3.773      65.823
2015    3        6    22   4    6.2226   616.4    3.770      65.838
2015    3        6    22   9    6.2205   616.6    3.766      65.850
2015    3        6    22  15    6.2184   616.7    3.763      65.861
2015    3        6    22  20    6.2163   616.8    3.760      65.871
2015    3        6    22  26    6.2142   617.0    3.756      65.879
2015    3        6    22  31    6.2121   617.1    3.753      65.886
2015    3        6    22  36    6.2099   617.2    3.749      65.891
2015    3        6    22  42    6.2078   617.4    3.745      65.896
2015    3        6    22  47    6.2056   617.5    3.742      65.899
2015    3        6    22  53    6.2035   617.6    3.738      65.901
2015    3        6    22  58    6.2013   617.7    3.734      65.903
2015    3        6    23   3    6.1992   617.9    3.730      65.903
2015    3        6    23   9    6.1970   618.0    3.727      65.903
2015    3        6    23  14    6.1948   618.1    3.723      65.902
2015    3        6    23  20    6.1927   618.2    3.719      65.901
2015    3        6    23  25    6.1905   618.3    3.715      65.899
2015    3        6    23  30    6.1883   618.5    3.712      65.896
2015    3        6    23  36    6.1861   618.6    3.708      65.893
2015    3        6    23  41    6.1840   618.7    3.704      65.890
2015    3        6    23  47    6.1818   618.8    3.701      65.887
2015    3        6    23  52    6.1796   618.9    3.697      65.884
2015    3        6    23  57    6.1775   619.0    3.694      65.881
2015    3        7     0   3    6.1753   619.1    3.690      65.879
2015    3        7     0   8    6.1731   619.2    3.687      65.876
2015    3        7     0  14    6.1710   619.4    3.683      65.874
2015    3        7     0  19    6.1688   619.5    3.680      65.874
2015    3        7     0  24    6.1667   619.6    3.677      65.873
2015    3        7     0  30    6.1646   619.7    3.674      65.873
2015    3        7     0  35    6.1625   619.8    3.671      65.875
2015    3        7     0  41    6.1604   619.9    3.668      65.878
2015    3        7     0  46    6.1582   620.0    3.666      65.883
2015    3        7     0  51    6.1561   620.1    3.663      65.890
2015    3        7     0  57    6.1540   620.2    3.660      65.897
2015    3        7     1   2    6.1519   620.3    3.658      65.907
2015    3        7     1   7    6.1498   620.4    3.655      65.917
2015    3        7     1  13    6.1477   620.5    3.653      65.928
2015    3        7     1  18    6.1456   620.7    3.651      65.940
2015    3        7     1  24    6.1435   620.8    3.648      65.953
2015    3        7     1  29    6.1414   620.9    3.646      65.967
2015    3        7     1  34    6.1393   621.0    3.644      65.982
2015    3        7     1  40    6.1372   621.1    3.641      65.997
2015    3        7     1  45    6.1351   621.2    3.639      66.012
2015    3        7     1  51    6.1330   621.3    3.637      66.027
2015    3        7     1  56    6.1310   621.4    3.635      66.043
2015    3        7     2   1    6.1289   621.5    3.633      66.060
2015    3        7     2   7    6.1268   621.6    3.631      66.077
2015    3        7     2  12    6.1248   621.7    3.629      66.095
2015    3        7     2  18    6.1227   621.8    3.627      66.115
2015    3        7     2  23    6.1207   621.9    3.625      66.136
2015    3        7     2  28    6.1187   622.0    3.624      66.159
2015    3        7     2  34    6.1167   622.1    3.622      66.182
2015    3        7     2  39    6.1147   622.2    3.620      66.206
2015    3        7     2  45    6.1127   622.4    3.619      66.231
2015    3        7     2  50    6.1106   622.5    3.617      66.256
2015    3        7     2  55    6.1086   622.6    3.615      66.281
2015    3        7     3   1    6.1065   622.7    3.613      66.306
2015    3        7     3   6    6.1045   622.8    3.611      66.332
2015    3        7     3  12    6.1024   622.9    3.609      66.356
2015    3        7     3  17    6.1003   623.1    3.607      66.379
2015    3        7     3  22    6.0982   623.2    3.605      66.400
2015    3        7     3  28    6.0960   623.3    3.602      66.419
2015    3        7     3  33    6.0939   623.4    3.600      66.437
2015    3        7     3  39    6.0917   623.5    3.597      66.453
2015    3        7     3  44    6.0896   623.7    3.595      66.468
2015    3        7     3  49    6.0874   623.8    3.592      66.481
2015    3        7     3  55    6.0852   623.9    3.589      66.492
2015    3        7     4   0    6.0830   624.0    3.586      66.502
2015    3        7     4   6    6.0808   624.1    3.583      66.510
2015    3        7     4  11    6.0785   624.2    3.580      66.517
2015    3        7     4  16    6.0763   624.3    3.577      66.522
2015    3        7     4  22    6.0741   624.4    3.574      66.526
2015    3        7     4  27    6.0719   624.5    3.571      66.529
2015    3        7     4  32    6.0697   624.6    3.567      66.531
2015    3        7     4  38    6.0674   624.7    3.564      66.532
2015    3        7     4  43    6.0652   624.8    3.561      66.532
2015    3        7     4  49    6.0630   624.9    3.558      66.531
2015    3        7     4  54    6.0607   625.0    3.554      66.529
2015    3        7     4  59    6.0585   625.1    3.551      66.526
2015    3        7     5   5    6.0563   625.2    3.548      66.522
2015    3        7     5  10    6.0540   625.3    3.545      66.519
2015    3        7     5  16    6.0518   625.4    3.541      66.514
2015    3        7     5  21    6.0495   625.5    3.538      66.510
2015    3        7     5  26    6.0473   625.6    3.535      66.505
2015    3        7     5  32    6.0451   625.7    3.532      66.500
2015    3        7     5  37    6.0428   625.8    3.529      66.495
2015    3        7     5  43    6.0406   625.9    3.526      66.490
2015    3        7     5  48    6.0383   625.9    3.523      66.486
2015    3        7     5  53    6.0361   626.0    3.520      66.482
2015    3        7     5  59    6.0339   626.1    3.518      66.478
2015    3        7     6   4    6.0316   626.2    3.515      66.475
2015    3        7     6  10    6.0294   626.3    3.513      66.472
2015    3        7     6  15    6.0271   626.4    3.510      66.471
2015    3        7     6  20    6.0249   626.4    3.508      66.471
2015    3        7     6  26    6.0227   626.5    3.505      66.472
2015    3        7     6  31    6.0204   626.6    3.503      66.474
2015    3        7     6  37    6.0182   626.7    3.500      66.477
2015    3        7     6  42    6.0160   626.8    3.498      66.480
2015    3        7     6  47    6.0137   626.9    3.496      66.483
2015    3        7     6  53    6.0115   626.9    3.493      66.486
2015    3        7     6  58    6.0092   627.0    3.491      66.490
2015    3        7     7   4    6.0070   627.1    3.489      66.494
2015    3        7     7   9    6.0047   627.2    3.486      66.498
2015    3        7     7  14    6.0025   627.3    3.484      66.501
2015    3        7     7  20    6.0002   627.3    3.482      66.505
2015    3        7     7  25    5.9980   627.4    3.480      66.509
2015    3        7     7  31    5.9957   627.5    3.477      66.513
2015    3        7     7  36    5.9935   627.6    3.475      66.517
2015    3        7     7  41    5.9913   627.6    3.473      66.523
2015    3        7     7  47    5.9891   627.7    3.471      66.529
2015    3        7     7  52    5.9869   627.8    3.469      66.535
2015    3        7     7  57    5.9847   627.9    3.467      66.542
2015    3        7     8   3    5.9825   627.9    3.465      66.550
2015    3        7     8   8    5.9803   628.0    3.463      66.560
2015    3        7     8  14    5.9782   628.1    3.461      66.571
2015    3        7     8  19    5.9760   628.2    3.459      66.583
2015    3        7     8  24    5.9739   628.3    3.457      66.597
2015    3        7     8  30    5.9717   628.3    3.455      66.610
2015    3        7     8  35    5.9696   628.4    3.454      66.624
2015    3        7     8  41    5.9675   628.5    3.452      66.638
2015    3        7     8  46    5.9653   628.6    3.450      66.652
2015    3        7     8  51    5.9632   628.7    3.448      66.666
2015    3        7     8  57    5.9611   628.7    3.446      66.680
2015    3        7     9   2    5.9589   628.8    3.443      66.694
2015    3        7     9   8    5.9567   628.9    3.441      66.707
2015    3        7     9  13    5.9545   629.0    3.439      66.718
2015    3        7     9  18    5.9523   629.1    3.437      66.728
2015    3        7     9  24    5.9501   629.1    3.434      66.738
2015    3        7     9  29    5.9479   629.2    3.432      66.746
2015    3        7     9  35    5.9457   629.3    3.429      66.753
2015    3        7     9  40    5.9434   629.4    3.427      66.759
2015    3        7     9  45    5.9412   629.4    3.424      66.764
2015    3        7     9  51    5.9389   629.5    3.421      66.767
2015    3        7     9  56    5.9367   629.6    3.418      66.770
2015    3        7    10   2    5.9344   629.6    3.416      66.771
2015    3        7    10   7    5.9322   629.7    3.413      66.771
2015    3        7    10  12    5.9299   629.8    3.410      66.770
2015    3        7    10  18    5.9276   629.8    3.407      66.769
2015    3        7    10  23    5.9254   629.9    3.405      66.767
2015    3        7    10  29    5.9231   630.0    3.402      66.764
2015    3        7    10  34    5.9209   630.0    3.399      66.761
2015    3        7    10  39    5.9187   630.1    3.397      66.758
2015    3        7    10  45    5.9165   630.2    3.394      66.754
2015    3        7    10  50    5.9142   630.2    3.391      66.750
2015    3        7    10  56    5.9120   630.3    3.389      66.745
2015    3        7    11   1    5.9098   630.3    3.386      66.741
2015    3        7    11   6    5.9077   630.4    3.384      66.736
2015    3        7    11  12    5.9055   630.5    3.382      66.732
2015    3        7    11  17    5.9033   630.5    3.379      66.728
2015    3        7    11  22    5.9012   630.6    3.377      66.724
2015    3        7    11  28    5.8990   630.6    3.375      66.719
2015    3        7    11  33    5.8968   630.7    3.373      66.715
2015    3        7    11  39    5.8946   630.8    3.371      66.711
2015    3        7    11  44    5.8924   630.8    3.369      66.708
2015    3        7    11  49    5.8902   630.9    3.367      66.705
2015    3        7    11  55    5.8880   630.9    3.365      66.703
2015    3        7    12   0    5.8857   631.0    3.363      66.702
2015    3        7    12   6    5.8835   631.0    3.361      66.701
2015    3        7    12  11    5.8813   631.1    3.359      66.701
2015    3        7    12  16    5.8790   631.1    3.358      66.701
2015    3        7    12  22    5.8767   631.2    3.356      66.702
2015    3        7    12  27    5.8745   631.2    3.354      66.702
2015    3        7    12  33    5.8722   631.3    3.352      66.703
2015    3        7    12  38    5.8699   631.3    3.351      66.705
2015    3        7    12  43    5.8677   631.4    3.349      66.707
2015    3        7    12  49    5.8654   631.4    3.347      66.708
2015    3        7    12  54    5.8631   631.5    3.346      66.710
2015    3        7    13   0    5.8609   631.5    3.344      66.713
2015    3        7    13   5    5.8586   631.6    3.343      66.716
2015    3        7    13  10    5.8564   631.6    3.341      66.718
2015    3        7    13  16    5.8541   631.7    3.340      66.722
2015    3        7    13  21    5.8519   631.7    3.339      66.728
2015    3        7    13  27    5.8497   631.7    3.337      66.734
2015    3        7    13  32    5.8475   631.8    3.336      66.741
2015    3        7    13  37    5.8453   631.8    3.335      66.749
2015    3        7    13  43    5.8431   631.9    3.334      66.757
2015    3        7    13  48    5.8409   631.9    3.332      66.765
2015    3        7    13  54    5.8387   632.0    3.331      66.773
2015    3        7    13  59    5.8365   632.0    3.330      66.781
2015    3        7    14   4    5.8344   632.1    3.328      66.789
2015    3        7    14  10    5.8322   632.1    3.327      66.797
2015    3        7    14  15    5.8300   632.2    3.325      66.804
2015    3        7    14  21    5.8278   632.2    3.323      66.810
2015    3        7    14  26    5.8257   632.3    3.322      66.815
2015    3        7    14  31    5.8235   632.3    3.320      66.820
2015    3        7    14  37    5.8213   632.4    3.318      66.824
2015    3        7    14  42    5.8191   632.4    3.316      66.827
2015    3        7    14  47    5.8169   632.4    3.314      66.830
2015    3        7    14  53    5.8147   632.5    3.313      66.832
2015    3        7    14  58    5.8125   632.5    3.310      66.833
2015    3        7    15   4    5.8103   632.6    3.308      66.833
2015    3        7    15   9    5.8081   632.6    3.306      66.833
2015    3        7    15  14    5.8059   632.7    3.304      66.832
2015    3        7    15  20    5.8037   632.7    3.302      66.829
2015    3        7    15  25    5.8015   632.7    3.300      66.826
2015    3        7    15  31    5.7992   632.8    3.297      66.823
2015    3        7    15  36    5.7970   632.8    3.295      66.818
2015    3        7    15  41    5.7948   632.8    3.293      66.813
2015    3        7    15  47    5.7926   632.9    3.290      66.807
2015    3        7    15  52    5.7903   632.9    3.288      66.800
2015    3        7    15  58    5.7881   632.9    3.285      66.793
2015    3        7    16   3    5.7859   633.0    3.283      66.786
2015    3        7    16   8    5.7837   633.0    3.281      66.777
2015    3        7    16  14    5.7815   633.0    3.278      66.769
2015    3        7    16  19    5.7793   633.1    3.276      66.760
2015    3        7    16  25    5.7770   633.1    3.274      66.751
2015    3        7    16  30    5.7748   633.1    3.271      66.742
2015    3        7    16  35    5.7726   633.1    3.269      66.732
2015    3        7    16  41    5.7704   633.2    3.267      66.722
2015    3        7    16  46    5.7682   633.2    3.264      66.712
2015    3        7    16  52    5.7660   633.2    3.262      66.701
2015    3        7    16  57    5.7638   633.2    3.260      66.691
2015    3        7    17   2    5.7616   633.3    3.258      66.680
2015    3        7    17   8    5.7594   633.3    3.256      66.670
2015    3        7    17  13    5.7573   633.3    3.254      66.659
2015    3        7    17  19    5.7551   633.3    3.251      66.649
2015    3        7    17  24    5.7529   633.3    3.249      66.639
2015    3        7    17  29    5.7508   633.4    3.248      66.629
2015    3        7    17  35    5.7487   633.4    3.246      66.619
2015    3        7    17  40    5.7465   633.4    3.244      66.609
2015    3        7    17  46    5.7444   633.4    3.242      66.600
2015    3        7    17  51    5.7423   633.4    3.240      66.591
2015    3        7    17  56    5.7401   633.4    3.239      66.583
2015    3        7    18   2    5.7381   633.5    3.237      66.575
2015    3        7    18   7    5.7360   633.5    3.236      66.568
2015    3        7    18  12    5.7339   633.5    3.234      66.561
2015    3        7    18  18    5.7318   633.5    3.233      66.556
2015    3        7    18  23    5.7298   633.5    3.232      66.550
2015    3        7    18  29    5.7277   633.5    3.231      66.546
2015    3        7    18  34    5.7256   633.6    3.230      66.541
2015    3        7    18  39    5.7236   633.6    3.228      66.538
2015    3        7    18  45    5.7215   633.6    3.228      66.535
2015    3        7    18  50    5.7194   633.6    3.227      66.533
2015    3        7    18  56    5.7173   633.6    3.226      66.532
2015    3        7    19   1    5.7152   633.7    3.225      66.531
2015    3        7    19   6    5.7131   633.7    3.224      66.532
2015    3        7    19  12    5.7110   633.7    3.223      66.534
2015    3        7    19  17    5.7089   633.7    3.222      66.536
2015    3        7    19  23    5.7067   633.7    3.221      66.539
2015    3        7    19  28    5.7046   633.8    3.221      66.542
2015    3        7    19  33    5.7024   633.8    3.220      66.545
2015    3        7    19  39    5.7003   633.8    3.219      66.549
2015    3        7    19  44    5.6982   633.8    3.218      66.553
2015    3        7    19  50    5.6960   633.8    3.217      66.556
2015    3        7    19  55    5.6939   633.8    3.216      66.560
2015    3        7    20   0    5.6917   633.9    3.215      66.563
2015    3        7    20   6    5.6896   633.9    3.214      66.566
2015    3        7    20  11    5.6874   633.9    3.212      66.568
2015    3        7    20  17    5.6853   633.9    3.211      66.570
2015    3        7    20  22    5.6832   633.9    3.210      66.572
2015    3        7    20  27    5.6811   633.9    3.209      66.574
2015    3        7    20  33    5.6790   633.9    3.208      66.575
2015    3        7    20  38    5.6769   633.9    3.207      66.576
2015    3        7    20  44    5.6748   634.0    3.206      66.577
2015    3        7    20  49    5.6727   634.0    3.204      66.577
2015    3        7    20  54    5.6707   634.0    3.203      66.578
2015    3        7    21   0    5.6686   634.0    3.202      66.577
2015    3        7    21   5    5.6665   634.0    3.201      66.577
2015    3        7    21  11    5.6645   634.0    3.200      66.576
2015    3        7    21  16    5.6625   634.0    3.199      66.575
2015    3        7    21  21    5.6604   634.0    3.197      66.574
2015    3        7    21  27    5.6584   634.0    3.196      66.572
2015    3        7    21  32    5.6564   634.0    3.195      66.570
2015    3        7    21  37    5.6544   634.0    3.194      66.567
2015    3        7    21  43    5.6524   634.0    3.192      66.564
2015    3        7    21  48    5.6503   634.0    3.191      66.561
2015    3        7    21  54    5.6484   634.0    3.190      66.557
2015    3        7    21  59    5.6463   634.0    3.189      66.553
2015    3        7    22   4    5.6443   634.1    3.187      66.549
2015    3        7    22  10    5.6423   634.1    3.186      66.544
2015    3        7    22  15    5.6402   634.1    3.185      66.539
2015    3        7    22  21    5.6382   634.1    3.183      66.533
2015    3        7    22  26    5.6362   634.1    3.182      66.527
2015    3        7    22  31    5.6342   634.1    3.181      66.520
2015    3        7    22  37    5.6321   634.1    3.179      66.513
2015    3        7    22  42    5.6301   634.1    3.178      66.506
2015    3        7    22  48    5.6280   634.1    3.177      66.498
2015    3        7    22  53    5.6260   634.1    3.175      66.490
2015    3        7    22  58    5.6240   634.1    3.174      66.482
2015    3        7    23   4    5.6219   634.1    3.173      66.473
2015    3        7    23   9    5.6199   634.1    3.171      66.464
2015    3        7    23  15    5.6179   634.1    3.170      66.456
2015    3        7    23  20    5.6159   634.1    3.169      66.447
2015    3        7    23  25    5.6138   634.1    3.167      66.438
2015    3        7    23  31    5.6118   634.1    3.166      66.428
2015    3        7    23  36    5.6098   634.1    3.165      66.419
2015    3        7    23  42    5.6077   634.1    3.163      66.410
2015    3        7    23  47    5.6057   634.1    3.162      66.401
2015    3        7    23  52    5.6037   634.1    3.161      66.392
2015    3        7    23  58    5.6016   634.0    3.160      66.383
2015    3        8     0   3    5.5996   634.0    3.158      66.375
2015    3        8     0   9    5.5975   634.0    3.157      66.366
2015    3        8     0  14    5.5955   634.0    3.156      66.358
2015    3        8     0  19    5.5935   634.0    3.155      66.349
2015    3        8     0  25    5.5914   634.0    3.154      66.341
2015    3        8     0  30    5.5894   634.0    3.152      66.333
2015    3        8     0  36    5.5874   634.0    3.151      66.325
2015    3        8     0  41    5.5853   634.0    3.150      66.317
2015    3        8     0  46    5.5832   634.0    3.149      66.309
2015    3        8     0  52    5.5812   634.0    3.148      66.302
2015    3        8     0  57    5.5791   634.0    3.147      66.294
2015    3        8     1   2    5.5771   634.0    3.146      66.286
2015    3        8     1   8    5.5750   634.0    3.145      66.279
2015    3        8     1  13    5.5729   634.0    3.144      66.271
2015    3        8     1  19    5.5709   634.0    3.143      66.264
2015    3        8     1  24    5.5687   634.0    3.142      66.256
2015    3        8     1  29    5.5667   634.0    3.141      66.248
2015    3        8     1  35    5.5646   634.0    3.139      66.241
2015    3        8     1  40    5.5625   633.9    3.138      66.233
2015    3        8     1  46    5.5604   633.9    3.137      66.226
2015    3        8     1  51    5.5583   633.9    3.136      66.218
2015    3        8     1  56    5.5563   633.9    3.135      66.210
2015    3        8     2   2    5.5542   633.9    3.134      66.203
2015    3        8     2   7    5.5521   633.9    3.133      66.196
2015    3        8     2  13    5.5500   633.9    3.132      66.188
2015    3        8     2  18    5.5480   633.8    3.132      66.181
2015    3        8     2  23    5.5459   633.8    3.131      66.174
2015    3        8     2  29    5.5439   633.8    3.130      66.167
2015    3        8     2  34    5.5418   633.8    3.129      66.160
2015    3        8     2  40    5.5398   633.8    3.128      66.154
2015    3        8     2  45    5.5378   633.8    3.127      66.148
2015    3        8     2  50    5.5358   633.7    3.126      66.142
2015    3        8     2  56    5.5338   633.7    3.125      66.136
2015    3        8     3   1    5.5318   633.7    3.125      66.131
2015    3        8     3   7    5.5298   633.7    3.124      66.126
2015    3        8     3  12    5.5278   633.7    3.123      66.121
2015    3        8     3  17    5.5259   633.6    3.122      66.117
2015    3        8     3  23    5.5239   633.6    3.122      66.113
2015    3        8     3  28    5.5220   633.6    3.121      66.110
2015    3        8     3  34    5.5200   633.6    3.120      66.107
2015    3        8     3  39    5.5181   633.6    3.120      66.104
2015    3        8     3  44    5.5162   633.6    3.119      66.101
2015    3        8     3  50    5.5143   633.5    3.119      66.099
2015    3        8     3  55    5.5124   633.5    3.118      66.097
2015    3        8     4   0    5.5105   633.5    3.117      66.095
2015    3        8     4   6    5.5086   633.5    3.117      66.094
2015    3        8     4  11    5.5067   633.5    3.116      66.093
2015    3        8     4  17    5.5048   633.4    3.116      66.091
2015    3        8     4  22    5.5029   633.4    3.116      66.091
2015    3        8     4  27    5.5011   633.4    3.115      66.090
2015    3        8     4  33    5.4992   633.4    3.115      66.089
2015    3        8     4  38    5.4973   633.4    3.114      66.088
2015    3        8     4  44    5.4954   633.4    3.114      66.087
2015    3        8     4  49    5.4935   633.3    3.113      66.087
2015    3        8     4  54    5.4916   633.3    3.113      66.086
2015    3        8     5   0    5.4897   633.3    3.112      66.085
2015    3        8     5   5    5.4879   633.3    3.112      66.084
2015    3        8     5  11    5.4860   633.3    3.112      66.083
2015    3        8     5  16    5.4841   633.3    3.111      66.082
2015    3        8     5  21    5.4822   633.2    3.111      66.080
2015    3        8     5  27    5.4803   633.2    3.110      66.078
2015    3        8     5  32    5.4784   633.2    3.110      66.077
2015    3        8     5  38    5.4765   633.2    3.110      66.075
2015    3        8     5  43    5.4747   633.2    3.109      66.072
2015    3        8     5  48    5.4727   633.2    3.109      66.070
2015    3        8     5  54    5.4708   633.1    3.108      66.067
2015    3        8     5  59    5.4689   633.1    3.107      66.064
2015    3        8     6   5    5.4670   633.1    3.107      66.060
2015    3        8     6  10    5.4651   633.1    3.106      66.057
2015    3        8     6  15    5.4632   633.1    3.106      66.052
2015    3        8     6  21    5.4612   633.1    3.105      66.048
2015    3        8     6  26    5.4593   633.0    3.104      66.043
2015    3        8     6  32    5.4573   633.0    3.104      66.038
2015    3        8     6  37    5.4554   633.0    3.103      66.032
2015    3        8     6  42    5.4535   633.0    3.102      66.026
2015    3        8     6  48    5.4515   633.0    3.102      66.020
2015    3        8     6  53    5.4495   632.9    3.101      66.013
2015    3        8     6  59    5.4475   632.9    3.100      66.006
2015    3        8     7   4    5.4456   632.9    3.099      65.998
2015    3        8     7   9    5.4436   632.9    3.099      65.991
2015    3        8     7  15    5.4416   632.9    3.098      65.983
2015    3        8     7  20    5.4396   632.9    3.097      65.974
2015    3        8     7  25    5.4376   632.8    3.096      65.966
2015    3        8     7  31    5.4355   632.8    3.095      65.957
2015    3        8     7  36    5.4335   632.8    3.095      65.948
2015    3        8     7  42    5.4315   632.8    3.094      65.939
2015    3        8     7  47    5.4294   632.8    3.093      65.929
2015    3        8     7  52    5.4274   632.7    3.092      65.919
2015    3        8     7  58    5.4253   632.7    3.091      65.909
2015    3        8     8   3    5.4232   632.7    3.090      65.899
2015    3        8     8   9    5.4212   632.7    3.089      65.888
2015    3        8     8  14    5.4191   632.6    3.088      65.877
2015    3        8     8  19    5.4170   632.6    3.087      65.866
2015    3        8     8  25    5.4149   632.6    3.086      65.854
2015    3        8     8  30    5.4128   632.6    3.085      65.843
2015    3        8     8  36    5.4107   632.5    3.084      65.831
2015    3        8     8  41    5.4085   632.5    3.084      65.818
2015    3        8     8  46    5.4064   632.5    3.083      65.806
2015    3        8     8  52    5.4042   632.5    3.082      65.793
2015    3        8     8  57    5.4021   632.4    3.081      65.780
2015    3        8     9   3    5.3999   632.4    3.080      65.767
2015    3        8     9   8    5.3978   632.4    3.079      65.753
2015    3        8     9  13    5.3956   632.3    3.078      65.740
2015    3        8     9  19    5.3934   632.3    3.077      65.727
2015    3        8     9  24    5.3913   632.3    3.076      65.714
2015    3        8     9  30    5.3891   632.2    3.075      65.701
2015    3        8     9  35    5.3869   632.2    3.075      65.688
2015    3        8     9  40    5.3848   632.1    3.074      65.675
2015    3        8     9  46    5.3826   632.1    3.073      65.663
2015    3        8     9  51    5.3805   632.1    3.072      65.652
2015    3        8     9  57    5.3784   632.0    3.072      65.640
2015    3        8    10   2    5.3762   632.0    3.071      65.630
2015    3        8    10   7    5.3741   631.9    3.071      65.620
2015    3        8    10  13    5.3720   631.9    3.070      65.610
2015    3        8    10  18    5.3700   631.9    3.070      65.601
2015    3        8    10  24    5.3679   631.8    3.069      65.593
2015    3        8    10  29    5.3659   631.8    3.069      65.585
2015    3        8    10  34    5.3638   631.7    3.069      65.579
2015    3        8    10  40    5.3618   631.7    3.068      65.573
2015    3        8    10  45    5.3598   631.7    3.068      65.567
2015    3        8    10  50    5.3578   631.6    3.068      65.563
2015    3        8    10  56    5.3558   631.6    3.068      65.559
2015    3        8    11   1    5.3538   631.5    3.068      65.555
2015    3        8    11   7    5.3518   631.5    3.068      65.552
2015    3        8    11  12    5.3498   631.5    3.067      65.550
2015    3        8    11  17    5.3478   631.4    3.067      65.547
2015    3        8    11  23    5.3458   631.4    3.067      65.545
2015    3        8    11  28    5.3438   631.4    3.067      65.542
2015    3        8    11  34    5.3419   631.3    3.067      65.540
2015    3        8    11  39    5.3399   631.3    3.066      65.538
2015    3        8    11  44    5.3379   631.2    3.066      65.535
2015    3        8    11  50    5.3359   631.2    3.066      65.532
2015    3        8    11  55    5.3339   631.2    3.065      65.529
2015    3        8    12   1    5.3319   631.1    3.065      65.526
2015    3        8    12   6    5.3299   631.1    3.065      65.522
2015    3        8    12  11    5.3279   631.1    3.064      65.517
2015    3        8    12  17    5.3259   631.0    3.064      65.513
2015    3        8    12  22    5.3239   631.0    3.063      65.508
2015    3        8    12  28    5.3219   631.0    3.063      65.502
2015    3        8    12  33    5.3198   630.9    3.062      65.496
2015    3        8    12  38    5.3178   630.9    3.062      65.490
2015    3        8    12  44    5.3158   630.9    3.061      65.484
2015    3        8    12  49    5.3138   630.8    3.061      65.476
2015    3        8    12  55    5.3118   630.8    3.060      65.469
2015    3        8    13   0    5.3098   630.8    3.060      65.461
2015    3        8    13   5    5.3078   630.7    3.059      65.453
2015    3        8    13  11    5.3058   630.7    3.059      65.445
2015    3        8    13  16    5.3038   630.6    3.058      65.436
2015    3        8    13  22    5.3019   630.6    3.057      65.427
2015    3        8    13  27    5.2999   630.6    3.057      65.418
2015    3        8    13  32    5.2979   630.5    3.056      65.409
2015    3        8    13  38    5.2959   630.5    3.056      65.400
2015    3        8    13  43    5.2939   630.5    3.055      65.390
2015    3        8    13  49    5.2919   630.4    3.054      65.380
2015    3        8    13  54    5.2899   630.4    3.054      65.371
2015    3        8    13  59    5.2878   630.4    3.053      65.361
2015    3        8    14   5    5.2858   630.3    3.053      65.351
2015    3        8    14  10    5.2838   630.3    3.052      65.341
2015    3        8    14  15    5.2817   630.3    3.052      65.331
2015    3        8    14  21    5.2796   630.2    3.051      65.321
2015    3        8    14  26    5.2775   630.2    3.050      65.311
2015    3        8    14  32    5.2754   630.1    3.050      65.301
2015    3        8    14  37    5.2732   630.1    3.049      65.290
2015    3        8    14  42    5.2710   630.1    3.049      65.280
2015    3        8    14  48    5.2689   630.0    3.048      65.269
2015    3        8    14  53    5.2667   630.0    3.048      65.258
2015    3        8    14  59    5.2645   630.0    3.047      65.246
2015    3        8    15   4    5.2623   629.9    3.047      65.234
2015    3        8    15   9    5.2601   629.9    3.046      65.222
2015    3        8    15  15    5.2578   629.9    3.045      65.210
2015    3        8    15  20    5.2556   629.8    3.045      65.197
2015    3        8    15  26    5.2533   629.8    3.044      65.184
2015    3        8    15  31    5.2511   629.7    3.044      65.171
2015    3        8    15  36    5.2487   629.7    3.043      65.157
2015    3        8    15  42    5.2464   629.6    3.042      65.143
2015    3        8    15  47    5.2441   629.6    3.042      65.129
2015    3        8    15  53    5.2418   629.5    3.041      65.114
2015    3        8    15  58    5.2395   629.5    3.040      65.100
2015    3        8    16   3    5.2371   629.5    3.040      65.084
2015    3        8    16   9    5.2347   629.4    3.039      65.069
2015    3        8    16  14    5.2324   629.4    3.038      65.053
2015    3        8    16  20    5.2300   629.3    3.038      65.037
2015    3        8    16  25    5.2276   629.3    3.037      65.021
2015    3        8    16  30    5.2252   629.2    3.036      65.004
2015    3        8    16  36    5.2227   629.2    3.035      64.987
2015    3        8    16  41    5.2203   629.1    3.035      64.970
2015    3        8    16  47    5.2178   629.1    3.034      64.953
2015    3        8    16  52    5.2154   629.0    3.033      64.936
2015    3        8    16  57    5.2129   628.9    3.032      64.918
2015    3        8    17   3    5.2105   628.9    3.032      64.901
2015    3        8    17   8    5.2080   628.8    3.031      64.883
2015    3        8    17  14    5.2055   628.8    3.030      64.866
2015    3        8    17  19    5.2030   628.7    3.029      64.848
2015    3        8    17  24    5.2006   628.6    3.028      64.830
2015    3        8    17  30    5.1981   628.6    3.028      64.812
2015    3        8    17  35    5.1956   628.5    3.027      64.795
2015    3        8    17  40    5.1931   628.5    3.026      64.777
2015    3        8    17  46    5.1906   628.4    3.025      64.760
2015    3        8    17  51    5.1882   628.3    3.024      64.742
2015    3        8    17  57    5.1857   628.3    3.024      64.725
2015    3        8    18   2    5.1833   628.2    3.023      64.708
2015    3        8    18   7    5.1808   628.1    3.022      64.691
2015    3        8    18  13    5.1783   628.1    3.021      64.674
2015    3        8    18  18    5.1759   628.0    3.021      64.657
2015    3        8    18  24    5.1734   627.9    3.020      64.641
2015    3        8    18  29    5.1710   627.9    3.019      64.624
2015    3        8    18  34    5.1686   627.8    3.018      64.608
2015    3        8    18  40    5.1662   627.7    3.018      64.591
2015    3        8    18  45    5.1637   627.7    3.017      64.575
2015    3        8    18  51    5.1613   627.6    3.016      64.559
2015    3        8    18  56    5.1589   627.5    3.015      64.543
2015    3        8    19   1    5.1565   627.5    3.015      64.526
2015    3        8    19   7    5.1541   627.4    3.014      64.510
2015    3        8    19  12    5.1517   627.3    3.013      64.494
2015    3        8    19  18    5.1493   627.3    3.013      64.478
2015    3        8    19  23    5.1470   627.2    3.012      64.462
2015    3        8    19  28    5.1446   627.1    3.011      64.445
2015    3        8    19  34    5.1423   627.0    3.011      64.429
2015    3        8    19  39    5.1399   627.0    3.010      64.413
2015    3        8    19  45    5.1376   626.9    3.009      64.396
2015    3        8    19  50    5.1353   626.8    3.009      64.380
2015    3        8    19  55    5.1330   626.7    3.008      64.363
2015    3        8    20   1    5.1307   626.7    3.008      64.347
2015    3        8    20   6    5.1284   626.6    3.007      64.331
2015    3        8    20  12    5.1261   626.5    3.006      64.314
2015    3        8    20  17    5.1239   626.5    3.006      64.297
2015    3        8    20  22    5.1216   626.4    3.005      64.281
2015    3        8    20  28    5.1193   626.3    3.005      64.264
2015    3        8    20  33    5.1171   626.2    3.004      64.248
2015    3        8    20  39    5.1148   626.2    3.004      64.231
2015    3        8    20  44    5.1125   626.1    3.004      64.214
2015    3        8    20  49    5.1102   626.0    3.003      64.197
2015    3        8    20  55    5.1079   625.9    3.003      64.180
2015    3        8    21   0    5.1056   625.9    3.002      64.162
2015    3        8    21   5    5.1032   625.8    3.002      64.145
2015    3        8    21  11    5.1009   625.7    3.002      64.127
2015    3        8    21  16    5.0985   625.6    3.001      64.108
2015    3        8    21  22    5.0961   625.5    3.001      64.090
2015    3        8    21  27    5.0937   625.5    3.001      64.071
2015    3        8    21  32    5.0913   625.4    3.000      64.052
2015    3        8    21  38    5.0889   625.3    3.000      64.033
2015    3        8    21  43    5.0865   625.2    3.000      64.014
2015    3        8    21  49    5.0841   625.1    2.999      63.995
2015    3        8    21  54    5.0816   625.1    2.999      63.976
2015    3        8    21  59    5.0792   625.0    2.999      63.958
2015    3        8    22   5    5.0768   624.9    2.999      63.940
2015    3        8    22  10    5.0743   624.8    2.998      63.922
2015    3        8    22  16    5.0718   624.7    2.998      63.905
2015    3        8    22  21    5.0694   624.7    2.998      63.888
2015    3        8    22  26    5.0669   624.6    2.998      63.872
2015    3        8    22  32    5.0644   624.5    2.998      63.856
2015    3        8    22  37    5.0619   624.4    2.998      63.840
2015    3        8    22  43    5.0594   624.3    2.997      63.825
2015    3        8    22  48    5.0568   624.3    2.997      63.809
2015    3        8    22  53    5.0543   624.2    2.997      63.794
2015    3        8    22  59    5.0517   624.1    2.997      63.778
2015    3        8    23   4    5.0491   624.0    2.997      63.762
2015    3        8    23  10    5.0465   623.9    2.997      63.746
2015    3        8    23  15    5.0439   623.9    2.997      63.730
2015    3        8    23  20    5.0412   623.8    2.996      63.713
2015    3        8    23  26    5.0386   623.7    2.996      63.696
2015    3        8    23  31    5.0359   623.6    2.996      63.679
2015    3        8    23  37    5.0332   623.5    2.995      63.661
2015    3        8    23  42    5.0304   623.5    2.995      63.642
2015    3        8    23  47    5.0277   623.4    2.995      63.623
2015    3        8    23  53    5.0249   623.3    2.994      63.603
2015    3        8    23  58    5.0222   623.2    2.994      63.583
2015    3        9     0   4    5.0194   623.1    2.993      63.562
2015    3        9     0   9    5.0166   623.0    2.992      63.540
2015    3        9     0  14    5.0138   622.9    2.992      63.518
2015    3        9     0  20    5.0110   622.9    2.991      63.495
2015    3        9     0  25    5.0081   622.8    2.990      63.471
2015    3        9     0  30    5.0053   622.7    2.989      63.446
2015    3        9     0  36    5.0025   622.6    2.989      63.421
2015    3        9     0  41    4.9996   622.5    2.988      63.395
2015    3        9     0  47    4.9968   622.4    2.987      63.369
2015    3        9     0  52    4.9939   622.3    2.986      63.342
2015    3        9     0  57    4.9910   622.2    2.985      63.314
2015    3        9     1   3    4.9882   622.1    2.984      63.285
2015    3        9     1   8    4.9853   622.0    2.983      63.256
2015    3        9     1  14    4.9824   621.9    2.981      63.226
2015    3        9     1  19    4.9795   621.8    2.980      63.196
2015    3        9     1  24    4.9766   621.7    2.979      63.164
2015    3        9     1  30    4.9737   621.6    2.978      63.133
2015    3        9     1  35    4.9708   621.5    2.977      63.100
2015    3        9     1  41    4.9679   621.4    2.975      63.067
2015    3        9     1  46    4.9650   621.3    2.974      63.033
2015    3        9     1  51    4.9621   621.1    2.973      62.999
2015    3        9     1  57    4.9592   621.0    2.971      62.964
2015    3        9     2   2    4.9562   620.9    2.970      62.929
2015    3        9     2   8    4.9533   620.8    2.969      62.893
2015    3        9     2  13    4.9504   620.7    2.967      62.857
2015    3        9     2  18    4.9475   620.6    2.966      62.820
2015    3        9     2  24    4.9446   620.4    2.965      62.783
2015    3        9     2  29    4.9417   620.3    2.963      62.746
2015    3        9     2  35    4.9388   620.2    2.962      62.708
2015    3        9     2  40    4.9359   620.1    2.961      62.671
2015    3        9     2  45    4.9330   620.0    2.959      62.633
2015    3        9     2  51    4.9301   619.8    2.958      62.596
2015    3        9     2  56    4.9272   619.7    2.957      62.559
2015    3        9     3   2    4.9244   619.6    2.956      62.522
2015    3        9     3   7    4.9216   619.4    2.955      62.485
2015    3        9     3  12    4.9188   619.3    2.954      62.449
2015    3        9     3  18    4.9159   619.2    2.953      62.413
2015    3        9     3  23    4.9132   619.0    2.952      62.378
2015    3        9     3  29    4.9104   618.9    2.951      62.343
2015    3        9     3  34    4.9076   618.8    2.950      62.309
2015    3        9     3  39    4.9049   618.6    2.949      62.276
2015    3        9     3  45    4.9021   618.5    2.949      62.243
2015    3        9     3  50    4.8994   618.4    2.948      62.211
2015    3        9     3  55    4.8968   618.2    2.948      62.180
2015    3        9     4   1    4.8941   618.1    2.947      62.149
2015    3        9     4   6    4.8914   618.0    2.947      62.119
2015    3        9     4  12    4.8887   617.8    2.947      62.090
2015    3        9     4  17    4.8860   617.7    2.946      62.061
2015    3        9     4  22    4.8832   617.6    2.946      62.032
2015    3        9     4  28    4.8805   617.4    2.946      62.004
2015    3        9     4  33    4.8778   617.3    2.946      61.977
2015    3        9     4  39    4.8751   617.2    2.946      61.949
2015    3        9     4  44    4.8723   617.0    2.946      61.922
2015    3        9     4  49    4.8695   616.9    2.946      61.895
2015    3        9     4  55    4.8668   616.8    2.946      61.868
2015    3        9     5   0    4.8640   616.6    2.946      61.841
2015    3        9     5   6    4.8613   616.5    2.947      61.815
2015    3        9     5  11    4.8585   616.3    2.947      61.788
2015    3        9     5  16    4.8556   616.2    2.947      61.761
2015    3        9     5  22    4.8528   616.1    2.947      61.734
2015    3        9     5  27    4.8500   615.9    2.947      61.707
2015    3        9     5  33    4.8472   615.8    2.948      61.681
2015    3        9     5  38    4.8444   615.6    2.948      61.655
2015    3        9     5  43    4.8415   615.5    2.948      61.629
2015    3        9     5  49    4.8387   615.4    2.948      61.603
2015    3        9     5  54    4.8359   615.2    2.949      61.577
2015    3        9     6   0    4.8331   615.1    2.949      61.552
2015    3        9     6   5    4.8302   614.9    2.949      61.527
2015    3        9     6  10    4.8274   614.8    2.950      61.503
2015    3        9     6  16    4.8246   614.6    2.950      61.479
2015    3        9     6  21    4.8218   614.5    2.950      61.456
2015    3        9     6  27    4.8190   614.3    2.951      61.433
2015    3        9     6  32    4.8161   614.2    2.951      61.410
2015    3        9     6  37    4.8133   614.1    2.951      61.387
2015    3        9     6  43    4.8104   613.9    2.952      61.364
2015    3        9     6  48    4.8076   613.8    2.952      61.341
2015    3        9     6  53    4.8047   613.6    2.952      61.317
2015    3        9     6  59    4.8018   613.5    2.952      61.293
2015    3        9     7   4    4.7988   613.4    2.952      61.269
2015    3        9     7  10    4.7959   613.2    2.952      61.243
2015    3        9     7  15    4.7930   613.1    2.952      61.217
2015    3        9     7  20    4.7900   613.0    2.952      61.190
2015    3        9     7  26    4.7870   612.8    2.952      61.162
2015    3        9     7  31    4.7840   612.7    2.952      61.133
2015    3        9     7  37    4.7810   612.5    2.951      61.102
2015    3        9     7  42    4.7780   612.4    2.951      61.071
2015    3        9     7  47    4.7750   612.2    2.951      61.039
2015    3        9     7  53    4.7720   612.1    2.950      61.006
2015    3        9     7  58    4.7689   612.0    2.950      60.972
2015    3        9     8   4    4.7658   611.8    2.950      60.937
2015    3        9     8   9    4.7628   611.7    2.949      60.901
2015    3        9     8  14    4.7597   611.5    2.949      60.864
2015    3        9     8  20    4.7566   611.3    2.948      60.827
2015    3        9     8  25    4.7536   611.2    2.948      60.789
2015    3        9     8  31    4.7505   611.0    2.947      60.750
2015    3        9     8  36    4.7474   610.9    2.946      60.711
2015    3        9     8  41    4.7443   610.7    2.946      60.670
2015    3        9     8  47    4.7413   610.6    2.945      60.630
2015    3        9     8  52    4.7382   610.4    2.944      60.588
2015    3        9     8  58    4.7351   610.2    2.944      60.546
2015    3        9     9   3    4.7320   610.1    2.943      60.504
2015    3        9     9   8    4.7290   609.9    2.942      60.461
2015    3        9     9  14    4.7260   609.7    2.941      60.419
2015    3        9     9  19    4.7229   609.6    2.941      60.375
2015    3        9     9  25    4.7198   609.4    2.940      60.332
2015    3        9     9  30    4.7168   609.2    2.939      60.289
2015    3        9     9  35    4.7137   609.1    2.938      60.245
2015    3        9     9  41    4.7107   608.9    2.937      60.201
2015    3        9     9  46    4.7077   608.7    2.936      60.156
2015    3        9     9  52    4.7046   608.5    2.935      60.111
2015    3        9     9  57    4.7016   608.4    2.934      60.066
2015    3        9    10   2    4.6986   608.2    2.933      60.020
2015    3        9    10   8    4.6955   608.0    2.932      59.974
2015    3        9    10  13    4.6925   607.8    2.931      59.928
2015    3        9    10  18    4.6894   607.7    2.930      59.881
2015    3        9    10  24    4.6864   607.5    2.929      59.833
2015    3        9    10  29    4.6834   607.3    2.928      59.786
2015    3        9    10  35    4.6803   607.1    2.927      59.738
2015    3        9    10  40    4.6773   606.9    2.926      59.690
2015    3        9    10  45    4.6743   606.8    2.925      59.641
2015    3        9    10  51    4.6713   606.6    2.924      59.593
2015    3        9    10  56    4.6683   606.4    2.923      59.545
2015    3        9    11   2    4.6653   606.2    2.922      59.497
2015    3        9    11   7    4.6622   606.0    2.921      59.449
2015    3        9    11  12    4.6592   605.9    2.920      59.401
2015    3        9    11  18    4.6562   605.7    2.919      59.353
2015    3        9    11  23    4.6533   605.5    2.918      59.306
2015    3        9    11  29    4.6503   605.3    2.918      59.259
2015    3        9    11  34    4.6473   605.1    2.917      59.213
2015    3        9    11  39    4.6443   604.9    2.916      59.167
2015    3        9    11  45    4.6414   604.8    2.916      59.121
2015    3        9    11  50    4.6384   604.6    2.915      59.075
2015    3        9    11  56    4.6354   604.4    2.914      59.030
2015    3        9    12   1    4.6324   604.2    2.914      58.986
2015    3        9    12   6    4.6295   604.0    2.913      58.941
2015    3        9    12  12    4.6265   603.8    2.913      58.897
2015    3        9    12  17    4.6235   603.7    2.912      58.853
2015    3        9    12  23    4.6204   603.5    2.912      58.810
2015    3        9    12  28    4.6174   603.3    2.912      58.767
2015    3        9    12  33    4.6144   603.1    2.911      58.724
2015    3        9    12  39    4.6114   602.9    2.911      58.681
2015    3        9    12  44    4.6084   602.7    2.911      58.639
2015    3        9    12  50    4.6053   602.5    2.911      58.597
2015    3        9    12  55    4.6023   602.3    2.911      58.555
2015    3        9    13   0    4.5992   602.1    2.910      58.513
2015    3        9    13   6    4.5961   601.9    2.910      58.472
2015    3        9    13  11    4.5931   601.7    2.910      58.431
2015    3        9    13  17    4.5900   601.5    2.910      58.390
2015    3        9    13  22    4.5869   601.3    2.911      58.349
2015    3        9    13  27    4.5839   601.1    2.911      58.309
2015    3        9    13  33    4.5808   600.9    2.911      58.270
2015    3        9    13  38    4.5778   600.7    2.911      58.231
2015    3        9    13  43    4.5748   600.5    2.912      58.193
2015    3        9    13  49    4.5717   600.3    2.912      58.155
2015    3        9    13  54    4.5687   600.1    2.913      58.118
2015    3        9    14   0    4.5656   599.9    2.913      58.081
2015    3        9    14   5    4.5626   599.7    2.913      58.045
2015    3        9    14  10    4.5596   599.5    2.914      58.008
2015    3        9    14  16    4.5565   599.3    2.915      57.971
2015    3        9    14  21    4.5535   599.1    2.915      57.934
2015    3        9    14  27    4.5505   598.9    2.916      57.898
2015    3        9    14  32    4.5474   598.7    2.916      57.861
2015    3        9    14  37    4.5443   598.5    2.917      57.823
2015    3        9    14  43    4.5413   598.2    2.918      57.785
2015    3        9    14  48    4.5382   598.0    2.918      57.746
2015    3        9    14  54    4.5351   597.8    2.919      57.708
2015    3        9    14  59    4.5321   597.6    2.919      57.668
2015    3        9    15   4    4.5291   597.4    2.920      57.629
2015    3        9    15  10    4.5260   597.2    2.921      57.589
2015    3        9    15  15    4.5230   596.9    2.921      57.549
2015    3        9    15  21    4.5200   596.7    2.922      57.508
2015    3        9    15  26    4.5170   596.5    2.923      57.469
2015    3        9    15  31    4.5140   596.3    2.924      57.430
2015    3        9    15  37    4.5111   596.1    2.924      57.391
2015    3        9    15  42    4.5081   595.9    2.925      57.354
2015    3        9    15  48    4.5052   595.6    2.926      57.317
2015    3        9    15  53    4.5023   595.4    2.927      57.280
2015    3        9    15  58    4.4995   595.2    2.928      57.245
2015    3        9    16   4    4.4966   595.0    2.929      57.210
2015    3        9    16   9    4.4937   594.8    2.929      57.175
2015    3        9    16  15    4.4909   594.6    2.930      57.141
2015    3        9    16  20    4.4880   594.4    2.931      57.107
2015    3        9    16  25    4.4852   594.2    2.932      57.074
2015    3        9    16  31    4.4823   594.0    2.932      57.040
2015    3        9    16  36    4.4794   593.7    2.933      57.005
2015    3        9    16  42    4.4765   593.5    2.933      56.971
2015    3        9    16  47    4.4737   593.3    2.934      56.935
2015    3        9    16  52    4.4708   593.1    2.934      56.899
2015    3        9    16  58    4.4679   592.9    2.934      56.863
2015    3        9    17   3    4.4650   592.7    2.935      56.825
2015    3        9    17   8    4.4620   592.5    2.935      56.786
2015    3        9    17  14    4.4591   592.3    2.935      56.747
2015    3        9    17  19    4.4561   592.1    2.935      56.706
2015    3        9    17  25    4.4532   591.9    2.935      56.665
2015    3        9    17  30    4.4502   591.7    2.935      56.623
2015    3        9    17  35    4.4472   591.5    2.935      56.579
2015    3        9    17  41    4.4442   591.3    2.935      56.535
2015    3        9    17  46    4.4412   591.1    2.935      56.489
2015    3        9    17  52    4.4382   590.9    2.935      56.443
2015    3        9    17  57    4.4352   590.6    2.934      56.395
2015    3        9    18   2    4.4322   590.4    2.934      56.347
2015    3        9    18   8    4.4291   590.2    2.934      56.298
2015    3        9    18  13    4.4261   590.0    2.933      56.248
2015    3        9    18  19    4.4230   589.8    2.933      56.197
2015    3        9    18  24    4.4200   589.6    2.932      56.146
2015    3        9    18  29    4.4170   589.4    2.932      56.094
2015    3        9    18  35    4.4139   589.1    2.931      56.041
2015    3        9    18  40    4.4108   588.9    2.931      55.987
2015    3        9    18  46    4.4078   588.7    2.930      55.933
2015    3        9    18  51    4.4048   588.5    2.929      55.878
2015    3        9    18  56    4.4017   588.3    2.929      55.823
2015    3        9    19   2    4.3987   588.0    2.928      55.768
2015    3        9    19   7    4.3957   587.8    2.927      55.712
2015    3        9    19  13    4.3927   587.6    2.927      55.656
2015    3        9    19  18    4.3897   587.3    2.926      55.600
2015    3        9    19  23    4.3867   587.1    2.925      55.544
2015    3        9    19  29    4.3836   586.9    2.925      55.487
2015    3        9    19  34    4.3806   586.7    2.924      55.431
2015    3        9    19  40    4.3777   586.4    2.923      55.373
2015    3        9    19  45    4.3746   586.2    2.922      55.316
2015    3        9    19  50    4.3716   586.0    2.922      55.259
2015    3        9    19  56    4.3686   585.7    2.921      55.202
2015    3        9    20   1    4.3656   585.5    2.920      55.145
2015    3        9    20   7    4.3625   585.3    2.919      55.087
2015    3        9    20  12    4.3595   585.0    2.919      55.029
2015    3        9    20  17    4.3565   584.8    2.918      54.972
2015    3        9    20  23    4.3535   584.5    2.917      54.914
2015    3        9    20  28    4.3504   584.3    2.917      54.856
2015    3        9    20  33    4.3475   584.1    2.916      54.799
2015    3        9    20  39    4.3444   583.8    2.916      54.741
2015    3        9    20  44    4.3414   583.6    2.915      54.684
2015    3        9    20  50    4.3384   583.3    2.915      54.626
2015    3        9    20  55    4.3354   583.1    2.914      54.569
2015    3        9    21   0    4.3324   582.8    2.914      54.512
2015    3        9    21   6    4.3293   582.6    2.914      54.455
2015    3        9    21  11    4.3264   582.3    2.913      54.398
2015    3        9    21  17    4.3234   582.1    2.913      54.342
2015    3        9    21  22    4.3203   581.8    2.913      54.286
2015    3        9    21  27    4.3174   581.6    2.913      54.230
2015    3        9    21  33    4.3144   581.3    2.913      54.174
2015    3        9    21  38    4.3114   581.1    2.913      54.118
2015    3        9    21  44    4.3084   580.8    2.913      54.063
2015    3        9    21  49    4.3055   580.5    2.913      54.008
2015    3        9    21  54    4.3025   580.3    2.913      53.954
2015    3        9    22   0    4.2996   580.0    2.914      53.900
2015    3        9    22   5    4.2966   579.7    2.914      53.846
2015    3        9    22  11    4.2937   579.5    2.914      53.793
2015    3        9    22  16    4.2908   579.2    2.915      53.741
2015    3        9    22  21    4.2879   578.9    2.916      53.689
2015    3        9    22  27    4.2850   578.7    2.916      53.638
2015    3        9    22  32    4.2822   578.4    2.917      53.587
2015    3        9    22  38    4.2793   578.1    2.918      53.538
2015    3        9    22  43    4.2765   577.9    2.919      53.491
2015    3        9    22  48    4.2737   577.6    2.920      53.444
2015    3        9    22  54    4.2709   577.3    2.921      53.399
2015    3        9    22  59    4.2681   577.0    2.922      53.354
2015    3        9    23   5    4.2653   576.8    2.923      53.311
2015    3        9    23  10    4.2626   576.5    2.924      53.268
2015    3        9    23  15    4.2598   576.2    2.925      53.225
2015    3        9    23  21    4.2570   576.0    2.926      53.183
2015    3        9    23  26    4.2543   575.7    2.927      53.141
2015    3        9    23  32    4.2515   575.4    2.928      53.100
2015    3        9    23  37    4.2487   575.2    2.930      53.059
2015    3        9    23  42    4.2459   574.9    2.931      53.017
2015    3        9    23  48    4.2431   574.6    2.932      52.976
2015    3        9    23  53    4.2402   574.4    2.933      52.934
2015    3        9    23  58    4.2374   574.1    2.934      52.891
2015    3       10     0   4    4.2345   573.8    2.935      52.848
2015    3       10     0   9    4.2317   573.6    2.936      52.805
2015    3       10     0  15    4.2288   573.3    2.938      52.761
2015    3       10     0  20    4.2260   573.0    2.939      52.718
2015    3       10     0  25    4.2231   572.8    2.940      52.673
2015    3       10     0  31    4.2202   572.5    2.941      52.629
2015    3       10     0  36    4.2173   572.2    2.942      52.585
2015    3       10     0  42    4.2145   572.0    2.943      52.540
2015    3       10     0  47    4.2117   571.7    2.944      52.496
2015    3       10     0  52    4.2088   571.4    2.945      52.451
2015    3       10     0  58    4.2060   571.1    2.946      52.407
2015    3       10     1   3    4.2032   570.8    2.948      52.362
2015    3       10     1   9    4.2005   570.6    2.949      52.318
2015    3       10     1  14    4.1977   570.3    2.950      52.274
2015    3       10     1  19    4.1950   570.0    2.951      52.230
2015    3       10     1  25    4.1923   569.7    2.953      52.186
2015    3       10     1  30    4.1896   569.4    2.954      52.143
2015    3       10     1  36    4.1870   569.2    2.955      52.100
2015    3       10     1  41    4.1844   568.9    2.957      52.058
2015    3       10     1  46    4.1818   568.6    2.958      52.016
2015    3       10     1  52    4.1792   568.3    2.959      51.974
2015    3       10     1  57    4.1767   568.0    2.961      51.933
2015    3       10     2   3    4.1741   567.8    2.962      51.892
2015    3       10     2   8    4.1716   567.5    2.964      51.851
2015    3       10     2  13    4.1691   567.2    2.965      51.811
2015    3       10     2  19    4.1666   566.9    2.966      51.770
2015    3       10     2  24    4.1642   566.7    2.968      51.729
2015    3       10     2  30    4.1617   566.4    2.969      51.688
2015    3       10     2  35    4.1592   566.1    2.970      51.647
2015    3       10     2  40    4.1567   565.9    2.971      51.605
2015    3       10     2  46    4.1542   565.6    2.973      51.563
2015    3       10     2  51    4.1517   565.3    2.974      51.521
2015    3       10     2  57    4.1492   565.1    2.975      51.477
2015    3       10     3   2    4.1467   564.8    2.976      51.434
2015    3       10     3   7    4.1441   564.5    2.977      51.389
2015    3       10     3  13    4.1415   564.3    2.977      51.343
2015    3       10     3  18    4.1390   564.0    2.978      51.298
2015    3       10     3  23    4.1364   563.7    2.979      51.251
2015    3       10     3  29    4.1338   563.5    2.980      51.204
2015    3       10     3  34    4.1312   563.2    2.980      51.156
2015    3       10     3  40    4.1286   562.9    2.981      51.108
2015    3       10     3  45    4.1260   562.7    2.981      51.059
2015    3       10     3  50    4.1235   562.4    2.982      51.009
2015    3       10     3  56    4.1208   562.1    2.982      50.959
2015    3       10     4   1    4.1181   561.9    2.982      50.908
2015    3       10     4   7    4.1155   561.6    2.983      50.856
2015    3       10     4  12    4.1128   561.3    2.983      50.804
2015    3       10     4  17    4.1102   561.1    2.983      50.751
2015    3       10     4  23    4.1075   560.8    2.983      50.698
2015    3       10     4  28    4.1048   560.5    2.983      50.644
2015    3       10     4  34    4.1022   560.2    2.983      50.589
2015    3       10     4  39    4.0995   560.0    2.983      50.534
2015    3       10     4  44    4.0968   559.7    2.983      50.478
2015    3       10     4  50    4.0940   559.4    2.983      50.422
2015    3       10     4  55    4.0914   559.1    2.984      50.366
2015    3       10     5   1    4.0887   558.8    2.984      50.309
2015    3       10     5   6    4.0860   558.6    2.984      50.252
2015    3       10     5  11    4.0833   558.3    2.984      50.195
2015    3       10     5  17    4.0806   558.0    2.984      50.138
2015    3       10     5  22    4.0780   557.7    2.984      50.081
2015    3       10     5  28    4.0753   557.4    2.984      50.023
2015    3       10     5  33    4.0727   557.1    2.984      49.966
2015    3       10     5  38    4.0700   556.9    2.984      49.908
2015    3       10     5  44    4.0673   556.6    2.984      49.851
2015    3       10     5  49    4.0647   556.3    2.984      49.793
2015    3       10     5  55    4.0620   556.0    2.984      49.736
2015    3       10     6   0    4.0595   555.7    2.984      49.679
2015    3       10     6   5    4.0568   555.4    2.985      49.622
2015    3       10     6  11    4.0542   555.1    2.985      49.565
2015    3       10     6  16    4.0515   554.9    2.985      49.508
2015    3       10     6  22    4.0489   554.6    2.985      49.451
2015    3       10     6  27    4.0463   554.3    2.986      49.393
2015    3       10     6  32    4.0436   554.0    2.986      49.336
2015    3       10     6  38    4.0410   553.7    2.986      49.279
2015    3       10     6  43    4.0384   553.4    2.987      49.221
2015    3       10     6  48    4.0357   553.1    2.987      49.164
2015    3       10     6  54    4.0331   552.8    2.987      49.106
2015    3       10     6  59    4.0305   552.5    2.988      49.048
2015    3       10     7   5    4.0278   552.2    2.988      48.990
2015    3       10     7  10    4.0253   551.9    2.989      48.932
2015    3       10     7  15    4.0226   551.6    2.989      48.874
2015    3       10     7  21    4.0200   551.2    2.990      48.816
2015    3       10     7  26    4.0174   550.9    2.991      48.758
2015    3       10     7  32    4.0148   550.6    2.991      48.701
2015    3       10     7  37    4.0122   550.3    2.992      48.644
2015    3       10     7  42    4.0097   550.0    2.993      48.587
2015    3       10     7  48    4.0072   549.6    2.994      48.531
2015    3       10     7  53    4.0047   549.3    2.995      48.475
2015    3       10     7  59    4.0022   549.0    2.996      48.420
2015    3       10     8   4    3.9998   548.7    2.997      48.366
2015    3       10     8   9    3.9975   548.3    2.998      48.313
2015    3       10     8  15    3.9951   548.0    3.000      48.261
2015    3       10     8  20    3.9928   547.7    3.001      48.210
2015    3       10     8  26    3.9906   547.3    3.003      48.160
2015    3       10     8  31    3.9884   547.0    3.004      48.111
2015    3       10     8  36    3.9862   546.7    3.006      48.063
2015    3       10     8  42    3.9841   546.3    3.008      48.016
2015    3       10     8  47    3.9820   546.0    3.010      47.970
2015    3       10     8  53    3.9800   545.7    3.012      47.925
2015    3       10     8  58    3.9780   545.4    3.014      47.882
2015    3       10     9   3    3.9760   545.0    3.017      47.839
2015    3       10     9   9    3.9741   544.7    3.019      47.798
2015    3       10     9  14    3.9721   544.4    3.021      47.757
2015    3       10     9  20    3.9702   544.0    3.024      47.716
2015    3       10     9  25    3.9683   543.7    3.026      47.676
2015    3       10     9  30    3.9664   543.4    3.029      47.636
2015    3       10     9  36    3.9646   543.1    3.032      47.597
2015    3       10     9  41    3.9627   542.7    3.034      47.558
2015    3       10     9  47    3.9608   542.4    3.037      47.518
2015    3       10     9  52    3.9590   542.1    3.039      47.479
2015    3       10     9  57    3.9571   541.8    3.042      47.440
2015    3       10    10   3    3.9552   541.4    3.044      47.401
2015    3       10    10   8    3.9533   541.1    3.047      47.362
2015    3       10    10  13    3.9514   540.8    3.049      47.322
2015    3       10    10  19    3.9495   540.5    3.052      47.282
2015    3       10    10  24    3.9476   540.1    3.054      47.242
2015    3       10    10  30    3.9457   539.8    3.057      47.202
2015    3       10    10  35    3.9438   539.5    3.059      47.162
2015    3       10    10  40    3.9419   539.2    3.061      47.121
2015    3       10    10  46    3.9400   538.9    3.064      47.081
2015    3       10    10  51    3.9380   538.5    3.066      47.040
2015    3       10    10  57    3.9361   538.2    3.068      47.000
2015    3       10    11   2    3.9342   537.9    3.071      46.959
2015    3       10    11   7    3.9323   537.6    3.073      46.918
2015    3       10    11  13    3.9304   537.3    3.075      46.877
2015    3       10    11  18    3.9284   537.0    3.077      46.835
2015    3       10    11  24    3.9265   536.6    3.079      46.794
2015    3       10    11  29    3.9246   536.3    3.081      46.752
2015    3       10    11  34    3.9226   536.0    3.083      46.710
2015    3       10    11  40    3.9207   535.7    3.085      46.667
2015    3       10    11  45    3.9187   535.4    3.087      46.625
2015    3       10    11  51    3.9167   535.1    3.089      46.582
2015    3       10    11  56    3.9147   534.8    3.091      46.538
2015    3       10    12   1    3.9127   534.4    3.093      46.495
2015    3       10    12   7    3.9107   534.1    3.094      46.451
2015    3       10    12  12    3.9087   533.8    3.096      46.407
2015    3       10    12  18    3.9067   533.5    3.098      46.362
2015    3       10    12  23    3.9046   533.2    3.100      46.318
2015    3       10    12  28    3.9026   532.9    3.101      46.273
2015    3       10    12  34    3.9006   532.6    3.103      46.227
2015    3       10    12  39    3.8985   532.3    3.104      46.181
2015    3       10    12  45    3.8965   531.9    3.106      46.135
2015    3       10    12  50    3.8944   531.6    3.107      46.089
2015    3       10    12  55    3.8924   531.3    3.109      46.042
2015    3       10    13   1    3.8904   531.0    3.110      45.996
2015    3       10    13   6    3.8883   530.7    3.112      45.949
2015    3       10    13  12    3.8863   530.4    3.113      45.901
2015    3       10    13  17    3.8842   530.1    3.114      45.853
2015    3       10    13  22    3.8821   529.8    3.116      45.806
2015    3       10    13  28    3.8801   529.5    3.117      45.758
2015    3       10    13  33    3.8781   529.1    3.118      45.709
2015    3       10    13  38    3.8760   528.8    3.119      45.661
2015    3       10    13  44    3.8739   528.5    3.121      45.612
2015    3       10    13  49    3.8719   528.2    3.122      45.563
2015    3       10    13  55    3.8698   527.9    3.123      45.514
2015    3       10    14   0    3.8678   527.6    3.124      45.465
2015    3       10    14   5    3.8657   527.3    3.125      45.416
2015    3       10    14  11    3.8637   526.9    3.126      45.366
2015    3       10    14  16    3.8617   526.6    3.128      45.316
2015    3       10    14  22    3.8596   526.3    3.129      45.267
2015    3       10    14  27    3.8576   526.0    3.130      45.217
2015    3       10    14  32    3.8556   525.7    3.131      45.167
2015    3       10    14  38    3.8537   525.3    3.132      45.118
2015    3       10    14  43    3.8517   525.0    3.134      45.068
2015    3       10    14  49    3.8497   524.7    3.135      45.018
2015    3       10    14  54    3.8477   524.4    3.136      44.969
2015    3       10    14  59    3.8459   524.0    3.137      44.920
2015    3       10    15   5    3.8439   523.7    3.139      44.871
2015    3       10    15  10    3.8420   523.4    3.140      44.822
2015    3       10    15  16    3.8402   523.0    3.142      44.774
2015    3       10    15  21    3.8383   522.7    3.143      44.726
2015    3       10    15  26    3.8365   522.4    3.145      44.679
2015    3       10    15  32    3.8347   522.0    3.146      44.632
2015    3       10    15  37    3.8329   521.7    3.148      44.585
2015    3       10    15  43    3.8313   521.4    3.150      44.539
2015    3       10    15  48    3.8296   521.0    3.152      44.493
2015    3       10    15  53    3.8279   520.7    3.154      44.448
2015    3       10    15  59    3.8262   520.4    3.156      44.403
2015    3       10    16   4    3.8246   520.0    3.158      44.359
2015    3       10    16  10    3.8231   519.7    3.160      44.315
2015    3       10    16  15    3.8215   519.3    3.162      44.271
2015    3       10    16  20    3.8199   519.0    3.164      44.228
2015    3       10    16  26    3.8184   518.7    3.167      44.184
2015    3       10    16  31    3.8169   518.3    3.169      44.142
2015    3       10    16  36    3.8154   518.0    3.171      44.099
2015    3       10    16  42    3.8140   517.7    3.174      44.056
2015    3       10    16  47    3.8125   517.3    3.176      44.013
2015    3       10    16  53    3.8110   517.0    3.179      43.971
2015    3       10    16  58    3.8096   516.6    3.181      43.928
2015    3       10    17   3    3.8081   516.3    3.184      43.886
2015    3       10    17   9    3.8067   516.0    3.187      43.843
2015    3       10    17  14    3.8053   515.6    3.189      43.801
2015    3       10    17  20    3.8039   515.3    3.192      43.758
2015    3       10    17  25    3.8025   514.9    3.194      43.716
2015    3       10    17  30    3.8011   514.6    3.197      43.674
2015    3       10    17  36    3.7997   514.2    3.200      43.631
2015    3       10    17  41    3.7984   513.9    3.203      43.589
2015    3       10    17  47    3.7970   513.6    3.205      43.547
2015    3       10    17  52    3.7957   513.2    3.208      43.505
2015    3       10    17  57    3.7944   512.9    3.211      43.463
2015    3       10    18   3    3.7930   512.5    3.213      43.421
2015    3       10    18   8    3.7918   512.2    3.216      43.379
2015    3       10    18  14    3.7904   511.8    3.219      43.338
2015    3       10    18  19    3.7891   511.5    3.222      43.296
2015    3       10    18  24    3.7879   511.1    3.224      43.255
2015    3       10    18  30    3.7866   510.8    3.227      43.213
2015    3       10    18  35    3.7853   510.5    3.230      43.172
2015    3       10    18  41    3.7841   510.1    3.233      43.130
2015    3       10    18  46    3.7828   509.8    3.236      43.089
2015    3       10    18  51    3.7816   509.4    3.238      43.048
2015    3       10    18  57    3.7803   509.1    3.241      43.007
2015    3       10    19   2    3.7791   508.8    3.244      42.965
2015    3       10    19   8    3.7778   508.4    3.247      42.924
2015    3       10    19  13    3.7766   508.1    3.249      42.883
2015    3       10    19  18    3.7753   507.7    3.252      42.842
2015    3       10    19  24    3.7741   507.4    3.255      42.801
2015    3       10    19  29    3.7729   507.1    3.258      42.760
2015    3       10    19  35    3.7716   506.7    3.261      42.718
2015    3       10    19  40    3.7704   506.4    3.263      42.677
2015    3       10    19  45    3.7692   506.1    3.266      42.636
2015    3       10    19  51    3.7680   505.7    3.269      42.595
2015    3       10    19  56    3.7667   505.4    3.272      42.554
2015    3       10    20   1    3.7655   505.1    3.274      42.512
2015    3       10    20   7    3.7643   504.7    3.277      42.471
2015    3       10    20  12    3.7631   504.4    3.280      42.430
2015    3       10    20  18    3.7619   504.1    3.282      42.389
2015    3       10    20  23    3.7606   503.7    3.285      42.348
2015    3       10    20  28    3.7594   503.4    3.288      42.306
2015    3       10    20  34    3.7582   503.1    3.291      42.265
2015    3       10    20  39    3.7570   502.7    3.293      42.224
2015    3       10    20  45    3.7558   502.4    3.296      42.183
2015    3       10    20  50    3.7546   502.1    3.299      42.142
2015    3       10    20  55    3.7535   501.7    3.301      42.101
2015    3       10    21   1    3.7523   501.4    3.304      42.060
2015    3       10    21   6    3.7511   501.1    3.307      42.019
2015    3       10    21  12    3.7500   500.7    3.310      41.978
2015    3       10    21  17    3.7489   500.4    3.312      41.938
2015    3       10    21  22    3.7477   500.1    3.315      41.898
2015    3       10    21  28    3.7466   499.7    3.318      41.857
2015    3       10    21  33    3.7455   499.4    3.321      41.817
2015    3       10    21  39    3.7444   499.1    3.324      41.778
2015    3       10    21  44    3.7433   498.8    3.326      41.738
2015    3       10    21  49    3.7423   498.4    3.329      41.699
2015    3       10    21  55    3.7412   498.1    3.332      41.660
2015    3       10    22   0    3.7402   497.8    3.335      41.621
2015    3       10    22   6    3.7392   497.4    3.338      41.583
2015    3       10    22  11    3.7382   497.1    3.341      41.544
2015    3       10    22  16    3.7372   496.8    3.344      41.506
2015    3       10    22  22    3.7362   496.5    3.347      41.469
2015    3       10    22  27    3.7353   496.1    3.350      41.431
2015    3       10    22  33    3.7344   495.8    3.353      41.394
2015    3       10    22  38    3.7334   495.5    3.356      41.356
2015    3       10    22  43    3.7326   495.1    3.359      41.319
2015    3       10    22  49    3.7317   494.8    3.362      41.282
2015    3       10    22  54    3.7308   494.5    3.365      41.246
2015    3       10    23   0    3.7299   494.2    3.368      41.209
2015    3       10    23   5    3.7291   493.8    3.371      41.172
2015    3       10    23  10    3.7282   493.5    3.374      41.136
2015    3       10    23  16    3.7274   493.2    3.378      41.099
2015    3       10    23  21    3.7266   492.9    3.381      41.062
2015    3       10    23  26    3.7258   492.5    3.384      41.026
2015    3       10    23  32    3.7250   492.2    3.387      40.989
2015    3       10    23  37    3.7242   491.9    3.390      40.952
2015    3       10    23  43    3.7234   491.6    3.393      40.915
2015    3       10    23  48    3.7227   491.2    3.396      40.878
2015    3       10    23  53    3.7219   490.9    3.399      40.840
2015    3       10    23  59    3.7212   490.6    3.402      40.803
2015    3       11     0   4    3.7203   490.2    3.405      40.766
2015    3       11     0  10    3.7196   489.9    3.408      40.728
2015    3       11     0  15    3.7188   489.6    3.411      40.690
2015    3       11     0  20    3.7181   489.3    3.414      40.653
2015    3       11     0  26    3.7174   488.9    3.417      40.615
2015    3       11     0  31    3.7166   488.6    3.420      40.577
2015    3       11     0  37    3.7159   488.3    3.423      40.538
2015    3       11     0  42    3.7153   487.9    3.426      40.500
2015    3       11     0  47    3.7145   487.6    3.429      40.462
2015    3       11     0  53    3.7139   487.3    3.432      40.423
2015    3       11     0  58    3.7132   486.9    3.435      40.385
2015    3       11     1   4    3.7125   486.6    3.438      40.346
2015    3       11     1   9    3.7119   486.3    3.441      40.308
2015    3       11     1  14    3.7111   485.9    3.444      40.270
2015    3       11     1  20    3.7105   485.6    3.447      40.231
2015    3       11     1  25    3.7099   485.3    3.450      40.193
2015    3       11     1  31    3.7093   485.0    3.453      40.154
2015    3       11     1  36    3.7087   484.6    3.456      40.116
2015    3       11     1  41    3.7081   484.3    3.459      40.078
2015    3       11     1  47    3.7075   484.0    3.462      40.039
2015    3       11     1  52    3.7070   483.6    3.465      40.001
2015    3       11     1  58    3.7065   483.3    3.468      39.963
2015    3       11     2   3    3.7059   483.0    3.471      39.925
2015    3       11     2   8    3.7053   482.7    3.475      39.888
2015    3       11     2  14    3.7049   482.3    3.478      39.850
2015    3       11     2  19    3.7043   482.0    3.481      39.812
2015    3       11     2  25    3.7039   481.7    3.484      39.775
2015    3       11     2  30    3.7034   481.3    3.487      39.738
2015    3       11     2  35    3.7029   481.0    3.491      39.701
2015    3       11     2  41    3.7025   480.7    3.494      39.664
2015    3       11     2  46    3.7020   480.4    3.497      39.627
2015    3       11     2  51    3.7017   480.0    3.501      39.590
2015    3       11     2  57    3.7013   479.7    3.504      39.553
2015    3       11     3   2    3.7008   479.4    3.508      39.517
2015    3       11     3   8    3.7005   479.1    3.511      39.481
2015    3       11     3  13    3.7001   478.7    3.515      39.444
2015    3       11     3  18    3.6997   478.4    3.518      39.408
2015    3       11     3  24    3.6993   478.1    3.522      39.373
2015    3       11     3  29    3.6991   477.8    3.525      39.337
2015    3       11     3  35    3.6986   477.4    3.529      39.301
2015    3       11     3  40    3.6983   477.1    3.532      39.266
2015    3       11     3  45    3.6980   476.8    3.536      39.230
2015    3       11     3  51    3.6978   476.5    3.540      39.195
2015    3       11     3  56    3.6974   476.2    3.543      39.160
2015    3       11     4   2    3.6972   475.8    3.547      39.125
2015    3       11     4   7    3.6970   475.5    3.551      39.090
2015    3       11     4  12    3.6966   475.2    3.554      39.055
2015    3       11     4  18    3.6964   474.9    3.558      39.020
2015    3       11     4  23    3.6963   474.5    3.562      38.986
2015    3       11     4  29    3.6961   474.2    3.566      38.952
2015    3       11     4  34    3.6958   473.9    3.569      38.917
2015    3       11     4  39    3.6956   473.6    3.573      38.883
2015    3       11     4  45    3.6954   473.3    3.577      38.849
2015    3       11     4  50    3.6953   472.9    3.581      38.815
2015    3       11     4  56    3.6951   472.6    3.585      38.781
2015    3       11     5   1    3.6951   472.3    3.588      38.748
2015    3       11     5   6    3.6949   472.0    3.592      38.714
2015    3       11     5  12    3.6948   471.7    3.596      38.681
2015    3       11     5  17    3.6947   471.3    3.600      38.647
2015    3       11     5  23    3.6947   471.0    3.604      38.614
2015    3       11     5  28    3.6946   470.7    3.608      38.581
2015    3       11     5  33    3.6946   470.4    3.611      38.548
2015    3       11     5  39    3.6945   470.1    3.615      38.515
2015    3       11     5  44    3.6945   469.8    3.619      38.482
2015    3       11     5  50    3.6945   469.5    3.623      38.449
2015    3       11     5  55    3.6946   469.1    3.627      38.416
2015    3       11     6   0    3.6946   468.8    3.631      38.383
2015    3       11     6   6    3.6946   468.5    3.635      38.351
2015    3       11     6  11    3.6947   468.2    3.639      38.318
2015    3       11     6  16    3.6947   467.9    3.643      38.285
2015    3       11     6  22    3.6948   467.6    3.646      38.253
2015    3       11     6  27    3.6949   467.3    3.650      38.220
2015    3       11     6  33    3.6950   466.9    3.654      38.188
2015    3       11     6  38    3.6951   466.6    3.658      38.155
2015    3       11     6  43    3.6953   466.3    3.662      38.123
2015    3       11     6  49    3.6954   466.0    3.666      38.091
2015    3       11     6  54    3.6955   465.7    3.670      38.058
2015    3       11     7   0    3.6957   465.4    3.674      38.026
2015    3       11     7   5    3.6959   465.1    3.678      37.994
2015    3       11     7  10    3.6960   464.8    3.681      37.962
2015    3       11     7  16    3.6962   464.5    3.685      37.929
2015    3       11     7  21    3.6964   464.2    3.689      37.897
2015    3       11     7  27    3.6966   463.8    3.693      37.865
2015    3       11     7  32    3.6969   463.5    3.697      37.833
2015    3       11     7  37    3.6971   463.2    3.701      37.801
2015    3       11     7  43    3.6973   462.9    3.705      37.769
2015    3       11     7  48    3.6975   462.6    3.709      37.737
2015    3       11     7  54    3.6978   462.3    3.713      37.706
2015    3       11     7  59    3.6981   462.0    3.716      37.674
2015    3       11     8   4    3.6984   461.7    3.720      37.642
2015    3       11     8  10    3.6987   461.4    3.724      37.611
2015    3       11     8  15    3.6989   461.1    3.728      37.580
2015    3       11     8  21    3.6993   460.8    3.732      37.548
2015    3       11     8  26    3.6996   460.5    3.736      37.517
2015    3       11     8  31    3.6999   460.2    3.740      37.486
2015    3       11     8  37    3.7003   459.8    3.744      37.455
2015    3       11     8  42    3.7007   459.5    3.748      37.424
2015    3       11     8  48    3.7010   459.2    3.752      37.393
2015    3       11     8  53    3.7014   458.9    3.756      37.363
2015    3       11     8  58    3.7020   458.6    3.760      37.332
2015    3       11     9   4    3.7024   458.3    3.764      37.302
2015    3       11     9   9    3.7027   458.0    3.768      37.272
2015    3       11     9  15    3.7033   457.7    3.773      37.242
2015    3       11     9  20    3.7036   457.4    3.777      37.212
2015    3       11     9  25    3.7042   457.1    3.781      37.182
2015    3       11     9  31    3.7046   456.8    3.785      37.153
2015    3       11     9  36    3.7052   456.5    3.789      37.123
2015    3       11     9  41    3.7056   456.2    3.794      37.094
2015    3       11     9  47    3.7063   455.9    3.798      37.065
2015    3       11     9  52    3.7068   455.6    3.802      37.035
2015    3       11     9  58    3.7074   455.3    3.806      37.007
2015    3       11    10   3    3.7080   455.0    3.811      36.978
2015    3       11    10   8    3.7086   454.7    3.815      36.949
2015    3       11    10  14    3.7092   454.4    3.820      36.921
2015    3       11    10  19    3.7098   454.1    3.824      36.892
2015    3       11    10  25    3.7104   453.8    3.829      36.864
2015    3       11    10  30    3.7110   453.5    3.833      36.836
2015    3       11    10  35    3.7117   453.2    3.838      36.808
2015    3       11    10  41    3.7123   452.9    3.842      36.780
2015    3       11    10  46    3.7130   452.6    3.847      36.752
2015    3       11    10  52    3.7137   452.3    3.851      36.725
2015    3       11    10  57    3.7144   452.0    3.856      36.697
2015    3       11    11   2    3.7151   451.7    3.860      36.670
2015    3       11    11   8    3.7159   451.4    3.865      36.643
2015    3       11    11  13    3.7167   451.1    3.870      36.615
2015    3       11    11  19    3.7174   450.8    3.874      36.589
2015    3       11    11  24    3.7181   450.5    3.879      36.562
2015    3       11    11  29    3.7189   450.2    3.884      36.535
2015    3       11    11  35    3.7197   449.9    3.889      36.508
2015    3       11    11  40    3.7205   449.6    3.893      36.481
2015    3       11    11  46    3.7214   449.4    3.898      36.455
2015    3       11    11  51    3.7222   449.1    3.903      36.429
2015    3       11    11  56    3.7230   448.8    3.908      36.402
2015    3       11    12   2    3.7238   448.5    3.912      36.376
2015    3       11    12   7    3.7247   448.2    3.917      36.350
2015    3       11    12  13    3.7256   447.9    3.922      36.324
2015    3       11    12  18    3.7264   447.6    3.927      36.298
2015    3       11    12  23    3.7273   447.3    3.932      36.273
2015    3       11    12  29    3.7282   447.0    3.937      36.247
2015    3       11    12  34    3.7291   446.7    3.942      36.221
2015    3       11    12  40    3.7300   446.4    3.947      36.196
2015    3       11    12  45    3.7310   446.2    3.951      36.171
2015    3       11    12  50    3.7319   445.9    3.956      36.146
2015    3       11    12  56    3.7329   445.6    3.961      36.121
2015    3       11    13   1    3.7339   445.3    3.966      36.096
2015    3       11    13   6    3.7349   445.0    3.971      36.071
2015    3       11    13  12    3.7359   444.7    3.976      36.046
2015    3       11    13  17    3.7370   444.4    3.981      36.021
2015    3       11    13  23    3.7379   444.1    3.986      35.997
2015    3       11    13  28    3.7390   443.9    3.991      35.972
2015    3       11    13  33    3.7400   443.6    3.996      35.948
2015    3       11    13  39    3.7411   443.3    4.001      35.924
2015    3       11    13  44    3.7422   443.0    4.006      35.900
2015    3       11    13  50    3.7433   442.7    4.011      35.876
2015    3       11    13  55    3.7444   442.4    4.017      35.852
2015    3       11    14   0    3.7455   442.1    4.022      35.829
2015    3       11    14   6    3.7467   441.9    4.027      35.805
2015    3       11    14  11    3.7478   441.6    4.032      35.782
2015    3       11    14  17    3.7491   441.3    4.037      35.759
2015    3       11    14  22    3.7503   441.0    4.042      35.736
2015    3       11    14  27    3.7515   440.7    4.047      35.713
2015    3       11    14  33    3.7528   440.5    4.052      35.690
2015    3       11    14  38    3.7540   440.2    4.058      35.667
2015    3       11    14  44    3.7552   439.9    4.063      35.645
2015    3       11    14  49    3.7565   439.6    4.068      35.622
2015    3       11    14  54    3.7580   439.3    4.073      35.600
2015    3       11    15   0    3.7593   439.1    4.079      35.578
2015    3       11    15   5    3.7607   438.8    4.084      35.556
2015    3       11    15  11    3.7620   438.5    4.089      35.534
2015    3       11    15  16    3.7634   438.2    4.095      35.513
2015    3       11    15  21    3.7649   438.0    4.100      35.491
2015    3       11    15  27    3.7662   437.7    4.105      35.470
2015    3       11    15  32    3.7678   437.4    4.111      35.449
2015    3       11    15  38    3.7692   437.1    4.116      35.428
2015    3       11    15  43    3.7708   436.9    4.122      35.407
2015    3       11    15  48    3.7722   436.6    4.127      35.387
2015    3       11    15  54    3.7739   436.3    4.133      35.366
2015    3       11    15  59    3.7754   436.0    4.138      35.346
2015    3       11    16   5    3.7771   435.8    4.144      35.326
2015    3       11    16  10    3.7786   435.5    4.149      35.306
2015    3       11    16  15    3.7802   435.2    4.155      35.286
2015    3       11    16  21    3.7820   435.0    4.161      35.266
2015    3       11    16  26    3.7835   434.7    4.166      35.247
2015    3       11    16  32    3.7853   434.4    4.172      35.227
2015    3       11    16  37    3.7870   434.2    4.178      35.208
2015    3       11    16  42    3.7888   433.9    4.183      35.189
2015    3       11    16  48    3.7905   433.6    4.189      35.170
2015    3       11    16  53    3.7922   433.4    4.195      35.152
2015    3       11    16  58    3.7940   433.1    4.201      35.133
2015    3       11    17   4    3.7958   432.8    4.206      35.114
2015    3       11    17   9    3.7976   432.6    4.212      35.096
2015    3       11    17  15    3.7995   432.3    4.218      35.078
2015    3       11    17  20    3.8013   432.1    4.224      35.060
2015    3       11    17  25    3.8033   431.8    4.230      35.042
2015    3       11    17  31    3.8051   431.5    4.236      35.024
2015    3       11    17  36    3.8070   431.3    4.242      35.007
2015    3       11    17  42    3.8089   431.0    4.248      34.989
2015    3       11    17  47    3.8108   430.8    4.254      34.972
2015    3       11    17  52    3.8128   430.5    4.260      34.954
2015    3       11    17  58    3.8147   430.2    4.266      34.937
2015    3       11    18   3    3.8166   430.0    4.272      34.920
2015    3       11    18   9    3.8185   429.7    4.278      34.903
2015    3       11    18  14    3.8206   429.5    4.284      34.886
2015    3       11    18  19    3.8225   429.2    4.290      34.870
2015    3       11    18  25    3.8246   429.0    4.296      34.853
2015    3       11    18  30    3.8266   428.7    4.302      34.836
2015    3       11    18  36    3.8286   428.5    4.309      34.820
2015    3       11    18  41    3.8306   428.2    4.315      34.804
2015    3       11    18  46    3.8327   428.0    4.321      34.788
2015    3       11    18  52    3.8347   427.7    4.327      34.772
2015    3       11    18  57    3.8367   427.4    4.333      34.756
2015    3       11    19   3    3.8388   427.2    4.339      34.740
2015    3       11    19   8    3.8409   426.9    4.346      34.724
2015    3       11    19  13    3.8430   426.7    4.352      34.708
2015    3       11    19  19    3.8450   426.5    4.358      34.693
2015    3       11    19  24    3.8471   426.2    4.365      34.678
2015    3       11    19  30    3.8491   426.0    4.371      34.662
2015    3       11    19  35    3.8512   425.7    4.377      34.647
2015    3       11    19  40    3.8535   425.5    4.383      34.632
2015    3       11    19  46    3.8556   425.2    4.390      34.617
2015    3       11    19  51    3.8578   425.0    4.396      34.602
2015    3       11    19  57    3.8598   424.7    4.403      34.587
2015    3       11    20   2    3.8620   424.5    4.409      34.573
2015    3       11    20   7    3.8642   424.2    4.415      34.558
2015    3       11    20  13    3.8665   424.0    4.422      34.544
2015    3       11    20  18    3.8687   423.7    4.428      34.530
2015    3       11    20  23    3.8708   423.5    4.435      34.516
2015    3       11    20  29    3.8732   423.3    4.441      34.502
2015    3       11    20  34    3.8753   423.0    4.448      34.488
2015    3       11    20  40    3.8777   422.8    4.454      34.474
2015    3       11    20  45    3.8800   422.5    4.461      34.460
2015    3       11    20  50    3.8823   422.3    4.467      34.447
2015    3       11    20  56    3.8846   422.1    4.474      34.434
2015    3       11    21   1    3.8869   421.8    4.480      34.420
2015    3       11    21   7    3.8892   421.6    4.487      34.407
2015    3       11    21  12    3.8916   421.3    4.493      34.394
2015    3       11    21  17    3.8941   421.1    4.500      34.381
2015    3       11    21  23    3.8964   420.9    4.507      34.369
2015    3       11    21  28    3.8988   420.6    4.513      34.356
2015    3       11    21  34    3.9014   420.4    4.520      34.344
2015    3       11    21  39    3.9038   420.2    4.527      34.331
2015    3       11    21  44    3.9063   419.9    4.534      34.319
2015    3       11    21  50    3.9089   419.7    4.541      34.307
2015    3       11    21  55    3.9114   419.5    4.547      34.296
2015    3       11    22   1    3.9139   419.2    4.554      34.284
2015    3       11    22   6    3.9165   419.0    4.561      34.273
2015    3       11    22  11    3.9191   418.8    4.568      34.261
2015    3       11    22  17    3.9218   418.5    4.575      34.250
2015    3       11    22  22    3.9245   418.3    4.582      34.239
2015    3       11    22  28    3.9271   418.1    4.589      34.229
2015    3       11    22  33    3.9298   417.9    4.596      34.218
2015    3       11    22  38    3.9327   417.6    4.603      34.208
2015    3       11    22  44    3.9353   417.4    4.610      34.198
2015    3       11    22  49    3.9381   417.2    4.617      34.188
2015    3       11    22  55    3.9409   417.0    4.625      34.178
2015    3       11    23   0    3.9438   416.7    4.632      34.168
2015    3       11    23   5    3.9467   416.5    4.639      34.159
2015    3       11    23  11    3.9496   416.3    4.646      34.150
2015    3       11    23  16    3.9526   416.1    4.654      34.141
2015    3       11    23  21    3.9556   415.8    4.661      34.132
2015    3       11    23  27    3.9586   415.6    4.668      34.124
2015    3       11    23  32    3.9615   415.4    4.676      34.115
2015    3       11    23  38    3.9646   415.2    4.683      34.107
2015    3       11    23  43    3.9678   415.0    4.691      34.099
2015    3       11    23  48    3.9709   414.8    4.698      34.091
2015    3       11    23  54    3.9740   414.5    4.706      34.084
2015    3       11    23  59    3.9770   414.3    4.714      34.076
2015    3       12     0   5    3.9803   414.1    4.721      34.069
