year    month   day   hour  minute  B_enl V_enl   n_enl       T_enl
[year] [month] [day] [hour][minute] [nT]  [km/s]  [cm-3]      [kK]
2015    3       28     0   0    3.6738   571.4    3.220      50.517
2015    3       28     0   6    3.6704   571.1    3.220      50.442
2015    3       28     0  12    3.6671   570.9    3.219      50.368
2015    3       28     0  18    3.6637   570.6    3.219      50.294
2015    3       28     0  23    3.6605   570.3    3.218      50.219
2015    3       28     0  29    3.6572   570.0    3.218      50.145
2015    3       28     0  35    3.6539   569.7    3.217      50.071
2015    3       28     0  41    3.6507   569.5    3.217      49.997
2015    3       28     0  47    3.6475   569.2    3.216      49.923
2015    3       28     0  53    3.6443   568.9    3.216      49.849
2015    3       28     0  59    3.6412   568.6    3.216      49.775
2015    3       28     1   5    3.6381   568.3    3.215      49.701
2015    3       28     1  11    3.6350   568.0    3.215      49.628
2015    3       28     1  16    3.6319   567.7    3.215      49.555
2015    3       28     1  22    3.6288   567.4    3.215      49.482
2015    3       28     1  28    3.6258   567.1    3.214      49.410
2015    3       28     1  34    3.6228   566.8    3.214      49.338
2015    3       28     1  40    3.6198   566.5    3.214      49.267
2015    3       28     1  46    3.6168   566.2    3.214      49.195
2015    3       28     1  52    3.6138   565.9    3.214      49.125
2015    3       28     1  58    3.6108   565.6    3.215      49.054
2015    3       28     2   4    3.6079   565.3    3.215      48.984
2015    3       28     2   9    3.6050   565.0    3.215      48.914
2015    3       28     2  15    3.6021   564.7    3.215      48.845
2015    3       28     2  21    3.5992   564.4    3.216      48.776
2015    3       28     2  27    3.5963   564.1    3.216      48.706
2015    3       28     2  33    3.5934   563.8    3.216      48.637
2015    3       28     2  39    3.5905   563.5    3.216      48.568
2015    3       28     2  45    3.5877   563.2    3.217      48.498
2015    3       28     2  51    3.5848   562.9    3.217      48.428
2015    3       28     2  57    3.5820   562.6    3.217      48.357
2015    3       28     3   2    3.5791   562.3    3.217      48.285
2015    3       28     3   8    3.5763   562.0    3.217      48.214
2015    3       28     3  14    3.5734   561.7    3.217      48.141
2015    3       28     3  20    3.5705   561.4    3.217      48.068
2015    3       28     3  26    3.5676   561.1    3.217      47.994
2015    3       28     3  32    3.5648   560.9    3.217      47.920
2015    3       28     3  38    3.5619   560.6    3.216      47.845
2015    3       28     3  44    3.5590   560.3    3.216      47.770
2015    3       28     3  50    3.5561   560.0    3.216      47.695
2015    3       28     3  55    3.5533   559.7    3.215      47.619
2015    3       28     4   1    3.5504   559.4    3.215      47.542
2015    3       28     4   7    3.5475   559.1    3.214      47.466
2015    3       28     4  13    3.5446   558.8    3.214      47.389
2015    3       28     4  19    3.5418   558.5    3.213      47.311
2015    3       28     4  25    3.5389   558.2    3.212      47.234
2015    3       28     4  31    3.5361   557.9    3.211      47.156
2015    3       28     4  37    3.5332   557.7    3.211      47.077
2015    3       28     4  43    3.5304   557.4    3.210      46.999
2015    3       28     4  48    3.5276   557.1    3.209      46.920
2015    3       28     4  54    3.5247   556.8    3.208      46.840
2015    3       28     5   0    3.5219   556.5    3.207      46.761
2015    3       28     5   6    3.5191   556.2    3.206      46.681
2015    3       28     5  12    3.5163   555.9    3.205      46.601
2015    3       28     5  18    3.5135   555.6    3.204      46.521
2015    3       28     5  24    3.5107   555.3    3.203      46.440
2015    3       28     5  30    3.5079   555.0    3.202      46.359
2015    3       28     5  36    3.5051   554.7    3.201      46.278
2015    3       28     5  41    3.5024   554.4    3.200      46.197
2015    3       28     5  47    3.4996   554.1    3.199      46.115
2015    3       28     5  53    3.4969   553.8    3.198      46.033
2015    3       28     5  59    3.4942   553.5    3.196      45.951
2015    3       28     6   5    3.4915   553.2    3.195      45.869
2015    3       28     6  11    3.4888   552.9    3.194      45.786
2015    3       28     6  17    3.4861   552.6    3.193      45.704
2015    3       28     6  23    3.4834   552.3    3.192      45.622
2015    3       28     6  29    3.4807   552.0    3.191      45.539
2015    3       28     6  34    3.4781   551.7    3.190      45.457
2015    3       28     6  40    3.4754   551.4    3.189      45.374
2015    3       28     6  46    3.4728   551.1    3.188      45.292
2015    3       28     6  52    3.4702   550.8    3.187      45.209
2015    3       28     6  58    3.4676   550.5    3.186      45.127
2015    3       28     7   4    3.4650   550.1    3.185      45.045
2015    3       28     7  10    3.4624   549.8    3.184      44.963
2015    3       28     7  16    3.4599   549.5    3.183      44.881
2015    3       28     7  22    3.4573   549.2    3.182      44.799
2015    3       28     7  27    3.4548   548.9    3.181      44.718
2015    3       28     7  33    3.4523   548.6    3.180      44.636
2015    3       28     7  39    3.4498   548.2    3.179      44.556
2015    3       28     7  45    3.4473   547.9    3.179      44.475
2015    3       28     7  51    3.4448   547.6    3.178      44.394
2015    3       28     7  57    3.4424   547.3    3.177      44.314
2015    3       28     8   3    3.4400   546.9    3.177      44.235
2015    3       28     8   9    3.4375   546.6    3.176      44.156
2015    3       28     8  15    3.4352   546.3    3.176      44.077
2015    3       28     8  20    3.4328   545.9    3.175      43.999
2015    3       28     8  26    3.4304   545.6    3.175      43.922
2015    3       28     8  32    3.4281   545.3    3.174      43.845
2015    3       28     8  38    3.4258   544.9    3.174      43.769
2015    3       28     8  44    3.4235   544.6    3.174      43.694
2015    3       28     8  50    3.4213   544.3    3.174      43.620
2015    3       28     8  56    3.4190   543.9    3.174      43.546
2015    3       28     9   2    3.4168   543.6    3.174      43.474
2015    3       28     9   8    3.4146   543.3    3.174      43.402
2015    3       28     9  13    3.4125   542.9    3.174      43.331
2015    3       28     9  19    3.4103   542.6    3.175      43.261
2015    3       28     9  25    3.4082   542.2    3.175      43.192
2015    3       28     9  31    3.4061   541.9    3.175      43.123
2015    3       28     9  37    3.4040   541.6    3.176      43.056
2015    3       28     9  43    3.4020   541.2    3.176      42.989
2015    3       28     9  49    3.3999   540.9    3.177      42.922
2015    3       28     9  55    3.3979   540.5    3.178      42.855
2015    3       28    10   1    3.3959   540.2    3.179      42.789
2015    3       28    10   6    3.3939   539.9    3.179      42.723
2015    3       28    10  12    3.3919   539.5    3.180      42.656
2015    3       28    10  18    3.3899   539.2    3.181      42.589
2015    3       28    10  24    3.3879   538.8    3.181      42.522
2015    3       28    10  30    3.3859   538.5    3.182      42.455
2015    3       28    10  36    3.3839   538.1    3.183      42.388
2015    3       28    10  42    3.3819   537.8    3.184      42.320
2015    3       28    10  48    3.3799   537.5    3.184      42.253
2015    3       28    10  54    3.3779   537.1    3.185      42.186
2015    3       28    10  59    3.3760   536.8    3.186      42.118
2015    3       28    11   5    3.3740   536.4    3.187      42.051
2015    3       28    11  11    3.3720   536.1    3.187      41.984
2015    3       28    11  17    3.3701   535.7    3.188      41.917
2015    3       28    11  23    3.3681   535.4    3.189      41.850
2015    3       28    11  29    3.3662   535.0    3.190      41.783
2015    3       28    11  35    3.3643   534.7    3.191      41.717
2015    3       28    11  41    3.3624   534.3    3.192      41.650
2015    3       28    11  47    3.3605   534.0    3.193      41.584
2015    3       28    11  52    3.3586   533.6    3.194      41.518
2015    3       28    11  58    3.3567   533.3    3.196      41.452
2015    3       28    12   4    3.3549   532.9    3.197      41.386
2015    3       28    12  10    3.3531   532.6    3.198      41.321
2015    3       28    12  16    3.3512   532.2    3.199      41.256
2015    3       28    12  22    3.3494   531.9    3.200      41.191
2015    3       28    12  28    3.3476   531.5    3.202      41.126
2015    3       28    12  34    3.3458   531.1    3.203      41.060
2015    3       28    12  40    3.3440   530.8    3.204      40.996
2015    3       28    12  45    3.3422   530.4    3.206      40.931
2015    3       28    12  51    3.3404   530.1    3.207      40.866
2015    3       28    12  57    3.3387   529.7    3.208      40.801
2015    3       28    13   3    3.3369   529.4    3.210      40.736
2015    3       28    13   9    3.3351   529.0    3.211      40.672
2015    3       28    13  15    3.3334   528.6    3.212      40.607
2015    3       28    13  21    3.3316   528.3    3.214      40.542
2015    3       28    13  27    3.3299   527.9    3.215      40.477
2015    3       28    13  33    3.3282   527.6    3.216      40.411
2015    3       28    13  38    3.3264   527.2    3.218      40.346
2015    3       28    13  44    3.3247   526.8    3.219      40.281
2015    3       28    13  50    3.3230   526.5    3.220      40.216
2015    3       28    13  56    3.3213   526.1    3.221      40.150
2015    3       28    14   2    3.3196   525.7    3.223      40.085
2015    3       28    14   8    3.3179   525.4    3.224      40.020
2015    3       28    14  14    3.3162   525.0    3.225      39.954
2015    3       28    14  20    3.3145   524.6    3.226      39.889
2015    3       28    14  26    3.3129   524.3    3.228      39.823
2015    3       28    14  31    3.3112   523.9    3.229      39.758
2015    3       28    14  37    3.3096   523.5    3.230      39.693
2015    3       28    14  43    3.3080   523.2    3.231      39.628
2015    3       28    14  49    3.3063   522.8    3.232      39.562
2015    3       28    14  55    3.3047   522.4    3.233      39.497
2015    3       28    15   1    3.3032   522.0    3.235      39.432
2015    3       28    15   7    3.3016   521.7    3.236      39.367
2015    3       28    15  13    3.3000   521.3    3.237      39.301
2015    3       28    15  19    3.2984   520.9    3.238      39.236
2015    3       28    15  24    3.2969   520.6    3.239      39.170
2015    3       28    15  30    3.2953   520.2    3.240      39.104
2015    3       28    15  36    3.2937   519.8    3.241      39.038
2015    3       28    15  42    3.2921   519.5    3.243      38.970
2015    3       28    15  48    3.2906   519.1    3.244      38.903
2015    3       28    15  54    3.2890   518.7    3.245      38.835
2015    3       28    16   0    3.2875   518.3    3.246      38.766
2015    3       28    16   6    3.2859   518.0    3.247      38.697
2015    3       28    16  12    3.2844   517.6    3.248      38.629
2015    3       28    16  17    3.2828   517.2    3.249      38.559
2015    3       28    16  23    3.2813   516.8    3.250      38.490
2015    3       28    16  29    3.2798   516.4    3.251      38.421
2015    3       28    16  35    3.2783   516.1    3.252      38.351
2015    3       28    16  41    3.2768   515.7    3.252      38.282
2015    3       28    16  47    3.2753   515.3    3.253      38.213
2015    3       28    16  53    3.2738   514.9    3.254      38.143
2015    3       28    16  59    3.2724   514.5    3.255      38.074
2015    3       28    17   5    3.2710   514.1    3.256      38.005
2015    3       28    17  10    3.2695   513.7    3.257      37.936
2015    3       28    17  16    3.2681   513.3    3.258      37.867
2015    3       28    17  22    3.2667   513.0    3.259      37.798
2015    3       28    17  28    3.2653   512.6    3.260      37.730
2015    3       28    17  34    3.2640   512.2    3.261      37.661
2015    3       28    17  40    3.2626   511.8    3.262      37.593
2015    3       28    17  46    3.2613   511.4    3.263      37.525
2015    3       28    17  52    3.2600   511.0    3.265      37.458
2015    3       28    17  58    3.2587   510.6    3.266      37.391
2015    3       28    18   3    3.2575   510.2    3.267      37.324
2015    3       28    18   9    3.2563   509.8    3.269      37.258
2015    3       28    18  15    3.2551   509.4    3.270      37.193
2015    3       28    18  21    3.2539   509.0    3.272      37.127
2015    3       28    18  27    3.2527   508.5    3.273      37.063
2015    3       28    18  33    3.2516   508.1    3.275      36.999
2015    3       28    18  39    3.2506   507.7    3.277      36.935
2015    3       28    18  45    3.2495   507.3    3.279      36.873
2015    3       28    18  51    3.2485   506.9    3.281      36.811
2015    3       28    18  56    3.2475   506.5    3.283      36.749
2015    3       28    19   2    3.2465   506.1    3.285      36.689
2015    3       28    19   8    3.2456   505.7    3.287      36.629
2015    3       28    19  14    3.2447   505.2    3.290      36.570
2015    3       28    19  20    3.2439   504.8    3.293      36.512
2015    3       28    19  26    3.2430   504.4    3.295      36.454
2015    3       28    19  32    3.2422   504.0    3.298      36.397
2015    3       28    19  38    3.2415   503.6    3.301      36.341
2015    3       28    19  44    3.2408   503.2    3.304      36.286
2015    3       28    19  49    3.2401   502.7    3.308      36.232
2015    3       28    19  55    3.2395   502.3    3.311      36.178
2015    3       28    20   1    3.2388   501.9    3.315      36.125
2015    3       28    20   7    3.2383   501.5    3.318      36.073
2015    3       28    20  13    3.2377   501.0    3.322      36.021
2015    3       28    20  19    3.2372   500.6    3.326      35.971
2015    3       28    20  25    3.2367   500.2    3.330      35.920
2015    3       28    20  31    3.2363   499.8    3.334      35.871
2015    3       28    20  37    3.2359   499.3    3.338      35.822
2015    3       28    20  42    3.2355   498.9    3.343      35.773
2015    3       28    20  48    3.2351   498.5    3.347      35.725
2015    3       28    20  54    3.2348   498.1    3.351      35.678
2015    3       28    21   0    3.2345   497.6    3.356      35.631
2015    3       28    21   6    3.2342   497.2    3.361      35.584
2015    3       28    21  12    3.2340   496.8    3.366      35.538
2015    3       28    21  18    3.2338   496.3    3.371      35.493
2015    3       28    21  24    3.2336   495.9    3.375      35.447
2015    3       28    21  30    3.2334   495.5    3.381      35.403
2015    3       28    21  35    3.2333   495.0    3.386      35.358
2015    3       28    21  41    3.2332   494.6    3.391      35.314
2015    3       28    21  47    3.2332   494.2    3.396      35.271
2015    3       28    21  53    3.2331   493.7    3.402      35.228
2015    3       28    21  59    3.2332   493.3    3.407      35.185
2015    3       28    22   5    3.2332   492.9    3.412      35.143
2015    3       28    22  11    3.2332   492.5    3.418      35.100
2015    3       28    22  17    3.2333   492.0    3.424      35.058
2015    3       28    22  23    3.2334   491.6    3.429      35.017
2015    3       28    22  28    3.2336   491.2    3.435      34.975
2015    3       28    22  34    3.2337   490.7    3.441      34.934
2015    3       28    22  40    3.2339   490.3    3.447      34.892
2015    3       28    22  46    3.2341   489.9    3.452      34.851
2015    3       28    22  52    3.2343   489.5    3.458      34.809
2015    3       28    22  58    3.2345   489.0    3.464      34.766
2015    3       28    23   4    3.2348   488.6    3.470      34.723
2015    3       28    23  10    3.2351   488.2    3.476      34.680
2015    3       28    23  16    3.2353   487.8    3.482      34.636
2015    3       28    23  21    3.2357   487.4    3.488      34.592
2015    3       28    23  27    3.2360   486.9    3.494      34.548
2015    3       28    23  33    3.2364   486.5    3.500      34.504
2015    3       28    23  39    3.2367   486.1    3.506      34.460
2015    3       28    23  45    3.2372   485.7    3.512      34.416
2015    3       28    23  51    3.2376   485.2    3.518      34.371
2015    3       28    23  57    3.2381   484.8    3.525      34.327
2015    3       29     0   3    3.2386   484.4    3.531      34.283
2015    3       29     0   9    3.2392   484.0    3.537      34.238
2015    3       29     0  15    3.2398   483.5    3.543      34.194
2015    3       29     0  20    3.2404   483.1    3.549      34.150
2015    3       29     0  26    3.2410   482.7    3.556      34.106
2015    3       29     0  32    3.2418   482.3    3.562      34.062
2015    3       29     0  38    3.2425   481.9    3.568      34.019
2015    3       29     0  44    3.2433   481.4    3.575      33.975
2015    3       29     0  50    3.2441   481.0    3.581      33.931
2015    3       29     0  56    3.2449   480.6    3.587      33.888
2015    3       29     1   2    3.2458   480.2    3.594      33.845
2015    3       29     1   7    3.2468   479.8    3.600      33.802
2015    3       29     1  13    3.2477   479.4    3.607      33.760
2015    3       29     1  19    3.2487   479.0    3.614      33.718
2015    3       29     1  25    3.2498   478.5    3.620      33.676
2015    3       29     1  31    3.2509   478.1    3.627      33.634
2015    3       29     1  37    3.2520   477.7    3.634      33.592
2015    3       29     1  43    3.2532   477.3    3.641      33.551
2015    3       29     1  49    3.2544   476.9    3.648      33.510
2015    3       29     1  55    3.2557   476.5    3.655      33.470
2015    3       29     2   1    3.2569   476.1    3.662      33.429
2015    3       29     2   6    3.2583   475.7    3.669      33.390
2015    3       29     2  12    3.2597   475.3    3.677      33.350
2015    3       29     2  18    3.2611   474.8    3.684      33.311
2015    3       29     2  24    3.2625   474.4    3.691      33.272
2015    3       29     2  30    3.2640   474.0    3.699      33.234
2015    3       29     2  36    3.2656   473.6    3.707      33.196
2015    3       29     2  42    3.2672   473.2    3.714      33.159
2015    3       29     2  48    3.2688   472.8    3.722      33.122
2015    3       29     2  53    3.2704   472.4    3.730      33.086
2015    3       29     2  59    3.2721   472.0    3.738      33.050
2015    3       29     3   5    3.2739   471.6    3.746      33.015
2015    3       29     3  11    3.2757   471.2    3.754      32.980
2015    3       29     3  17    3.2775   470.8    3.763      32.946
2015    3       29     3  23    3.2794   470.4    3.771      32.913
2015    3       29     3  29    3.2814   470.0    3.780      32.880
2015    3       29     3  35    3.2833   469.6    3.789      32.847
2015    3       29     3  41    3.2854   469.2    3.798      32.816
2015    3       29     3  46    3.2874   468.8    3.807      32.785
2015    3       29     3  52    3.2895   468.4    3.816      32.754
2015    3       29     3  58    3.2917   468.0    3.825      32.724
2015    3       29     4   4    3.2939   467.7    3.834      32.695
2015    3       29     4  10    3.2961   467.3    3.844      32.666
2015    3       29     4  16    3.2984   466.9    3.854      32.638
2015    3       29     4  22    3.3008   466.5    3.863      32.611
2015    3       29     4  28    3.3032   466.1    3.873      32.584
2015    3       29     4  34    3.3056   465.7    3.884      32.557
2015    3       29     4  39    3.3081   465.3    3.894      32.532
2015    3       29     4  45    3.3106   464.9    3.904      32.506
2015    3       29     4  51    3.3132   464.6    3.915      32.482
2015    3       29     4  57    3.3158   464.2    3.925      32.458
2015    3       29     5   3    3.3185   463.8    3.936      32.434
2015    3       29     5   9    3.3212   463.4    3.947      32.411
2015    3       29     5  15    3.3240   463.0    3.958      32.389
2015    3       29     5  21    3.3268   462.7    3.970      32.367
2015    3       29     5  27    3.3297   462.3    3.981      32.346
2015    3       29     5  32    3.3326   461.9    3.992      32.325
2015    3       29     5  38    3.3356   461.5    4.004      32.304
2015    3       29     5  44    3.3386   461.2    4.016      32.285
2015    3       29     5  50    3.3416   460.8    4.028      32.265
2015    3       29     5  56    3.3447   460.4    4.040      32.247
2015    3       29     6   2    3.3479   460.1    4.052      32.228
2015    3       29     6   8    3.3511   459.7    4.065      32.211
2015    3       29     6  14    3.3544   459.4    4.077      32.193
2015    3       29     6  20    3.3577   459.0    4.090      32.177
2015    3       29     6  26    3.3611   458.6    4.102      32.160
2015    3       29     6  31    3.3645   458.3    4.115      32.145
2015    3       29     6  37    3.3680   457.9    4.128      32.129
2015    3       29     6  43    3.3715   457.6    4.142      32.114
2015    3       29     6  49    3.3751   457.2    4.155      32.100
2015    3       29     6  55    3.3788   456.9    4.168      32.086
2015    3       29     7   1    3.3825   456.5    4.182      32.073
2015    3       29     7   7    3.3862   456.2    4.195      32.060
2015    3       29     7  13    3.3901   455.9    4.209      32.048
2015    3       29     7  19    3.3939   455.5    4.223      32.036
2015    3       29     7  24    3.3979   455.2    4.237      32.025
2015    3       29     7  30    3.4018   454.9    4.251      32.015
2015    3       29     7  36    3.4059   454.6    4.265      32.005
2015    3       29     7  42    3.4100   454.2    4.280      31.995
2015    3       29     7  48    3.4141   453.9    4.294      31.987
2015    3       29     7  54    3.4183   453.6    4.308      31.979
2015    3       29     8   0    3.4226   453.3    4.323      31.971
2015    3       29     8   6    3.4268   453.0    4.337      31.964
2015    3       29     8  12    3.4312   452.7    4.352      31.959
2015    3       29     8  17    3.4355   452.4    4.366      31.953
2015    3       29     8  23    3.4400   452.1    4.381      31.949
2015    3       29     8  29    3.4444   451.8    4.395      31.945
2015    3       29     8  35    3.4489   451.5    4.410      31.942
2015    3       29     8  41    3.4534   451.2    4.424      31.939
2015    3       29     8  47    3.4580   450.9    4.439      31.937
2015    3       29     8  53    3.4626   450.7    4.453      31.935
2015    3       29     8  59    3.4672   450.4    4.468      31.934
2015    3       29     9   4    3.4719   450.1    4.482      31.932
2015    3       29     9  10    3.4766   449.8    4.497      31.931
2015    3       29     9  16    3.4813   449.6    4.511      31.930
2015    3       29     9  22    3.4861   449.3    4.526      31.930
2015    3       29     9  28    3.4909   449.0    4.540      31.930
2015    3       29     9  34    3.4957   448.8    4.555      31.929
2015    3       29     9  40    3.5005   448.5    4.569      31.929
2015    3       29     9  46    3.5054   448.3    4.584      31.929
2015    3       29     9  52    3.5103   448.0    4.598      31.929
2015    3       29     9  57    3.5153   447.8    4.613      31.929
2015    3       29    10   3    3.5202   447.5    4.627      31.929
2015    3       29    10   9    3.5252   447.3    4.642      31.929
2015    3       29    10  15    3.5302   447.0    4.656      31.930
2015    3       29    10  21    3.5353   446.8    4.671      31.930
2015    3       29    10  27    3.5403   446.5    4.685      31.930
2015    3       29    10  33    3.5454   446.3    4.700      31.931
2015    3       29    10  39    3.5505   446.0    4.714      31.931
2015    3       29    10  45    3.5557   445.8    4.729      31.932
2015    3       29    10  50    3.5608   445.6    4.743      31.932
2015    3       29    10  56    3.5660   445.3    4.758      31.933
2015    3       29    11   2    3.5713   445.1    4.773      31.934
2015    3       29    11   8    3.5765   444.9    4.787      31.934
2015    3       29    11  14    3.5818   444.7    4.802      31.936
2015    3       29    11  20    3.5871   444.4    4.817      31.937
2015    3       29    11  26    3.5924   444.2    4.831      31.938
2015    3       29    11  32    3.5978   444.0    4.846      31.939
2015    3       29    11  37    3.6031   443.8    4.861      31.941
2015    3       29    11  43    3.6086   443.5    4.876      31.943
2015    3       29    11  49    3.6140   443.3    4.891      31.945
2015    3       29    11  55    3.6195   443.1    4.906      31.947
2015    3       29    12   1    3.6250   442.9    4.921      31.950
2015    3       29    12   7    3.6306   442.7    4.936      31.953
2015    3       29    12  13    3.6362   442.5    4.952      31.956
2015    3       29    12  19    3.6418   442.2    4.967      31.960
2015    3       29    12  25    3.6475   442.0    4.983      31.964
2015    3       29    12  30    3.6532   441.8    4.998      31.969
2015    3       29    12  36    3.6590   441.6    5.014      31.974
2015    3       29    12  42    3.6648   441.4    5.030      31.980
2015    3       29    12  48    3.6707   441.2    5.047      31.986
2015    3       29    12  54    3.6766   441.0    5.063      31.993
2015    3       29    13   0    3.6825   440.8    5.080      32.001
2015    3       29    13   6    3.6885   440.6    5.096      32.010
2015    3       29    13  12    3.6946   440.4    5.113      32.019
2015    3       29    13  18    3.7007   440.2    5.131      32.029
2015    3       29    13  23    3.7069   440.0    5.148      32.039
2015    3       29    13  29    3.7131   439.8    5.166      32.051
2015    3       29    13  35    3.7193   439.7    5.184      32.064
2015    3       29    13  41    3.7257   439.5    5.202      32.078
2015    3       29    13  47    3.7321   439.3    5.220      32.093
2015    3       29    13  53    3.7385   439.1    5.239      32.109
2015    3       29    13  59    3.7450   438.9    5.258      32.127
2015    3       29    14   5    3.7516   438.8    5.277      32.145
2015    3       29    14  11    3.7582   438.6    5.296      32.165
2015    3       29    14  16    3.7649   438.4    5.316      32.187
2015    3       29    14  22    3.7716   438.3    5.335      32.210
2015    3       29    14  28    3.7784   438.1    5.354      32.234
2015    3       29    14  34    3.7852   438.0    5.374      32.261
2015    3       29    14  40    3.7920   437.9    5.393      32.289
2015    3       29    14  46    3.7988   437.7    5.412      32.318
2015    3       29    14  52    3.8056   437.6    5.431      32.348
2015    3       29    14  58    3.8124   437.5    5.450      32.379
2015    3       29    15   4    3.8193   437.3    5.469      32.410
2015    3       29    15   9    3.8261   437.2    5.487      32.441
2015    3       29    15  15    3.8329   437.1    5.506      32.471
2015    3       29    15  21    3.8398   437.0    5.524      32.501
2015    3       29    15  27    3.8466   436.9    5.542      32.531
2015    3       29    15  33    3.8535   436.8    5.560      32.561
2015    3       29    15  39    3.8603   436.7    5.578      32.590
2015    3       29    15  45    3.8672   436.5    5.595      32.620
2015    3       29    15  51    3.8740   436.4    5.613      32.649
2015    3       29    15  57    3.8809   436.3    5.630      32.678
2015    3       29    16   2    3.8878   436.2    5.647      32.706
2015    3       29    16   8    3.8946   436.1    5.664      32.734
2015    3       29    16  14    3.9015   436.0    5.681      32.762
2015    3       29    16  20    3.9084   435.9    5.697      32.789
2015    3       29    16  26    3.9153   435.8    5.714      32.816
2015    3       29    16  32    3.9222   435.7    5.730      32.843
2015    3       29    16  38    3.9291   435.6    5.747      32.869
2015    3       29    16  44    3.9360   435.5    5.763      32.895
2015    3       29    16  50    3.9429   435.4    5.779      32.921
2015    3       29    16  55    3.9499   435.4    5.795      32.946
2015    3       29    17   1    3.9568   435.3    5.811      32.971
2015    3       29    17   7    3.9638   435.2    5.827      32.996
2015    3       29    17  13    3.9707   435.1    5.843      33.021
2015    3       29    17  19    3.9777   435.0    5.859      33.045
2015    3       29    17  25    3.9847   434.9    5.875      33.070
2015    3       29    17  31    3.9917   434.8    5.890      33.094
2015    3       29    17  37    3.9987   434.7    5.906      33.118
2015    3       29    17  42    4.0057   434.7    5.922      33.142
2015    3       29    17  48    4.0127   434.6    5.937      33.166
2015    3       29    17  54    4.0198   434.5    5.952      33.190
2015    3       29    18   0    4.0269   434.4    5.968      33.213
2015    3       29    18   6    4.0340   434.3    5.983      33.237
2015    3       29    18  12    4.0411   434.3    5.998      33.261
2015    3       29    18  18    4.0482   434.2    6.013      33.285
2015    3       29    18  24    4.0554   434.1    6.029      33.309
2015    3       29    18  30    4.0626   434.0    6.044      33.333
2015    3       29    18  35    4.0698   434.0    6.059      33.357
2015    3       29    18  41    4.0770   433.9    6.075      33.382
2015    3       29    18  47    4.0843   433.8    6.090      33.406
2015    3       29    18  53    4.0916   433.7    6.105      33.431
2015    3       29    18  59    4.0989   433.7    6.121      33.456
2015    3       29    19   5    4.1063   433.6    6.137      33.482
2015    3       29    19  11    4.1137   433.5    6.152      33.508
2015    3       29    19  17    4.1212   433.5    6.168      33.535
2015    3       29    19  23    4.1287   433.4    6.184      33.563
2015    3       29    19  28    4.1363   433.3    6.200      33.592
2015    3       29    19  34    4.1438   433.3    6.217      33.622
2015    3       29    19  40    4.1514   433.2    6.233      33.652
2015    3       29    19  46    4.1591   433.2    6.249      33.684
2015    3       29    19  52    4.1667   433.1    6.266      33.716
2015    3       29    19  58    4.1744   433.1    6.282      33.751
2015    3       29    20   4    4.1820   433.0    6.298      33.787
2015    3       29    20  10    4.1897   433.0    6.314      33.824
2015    3       29    20  16    4.1973   433.0    6.331      33.863
2015    3       29    20  21    4.2050   432.9    6.347      33.903
2015    3       29    20  27    4.2126   432.9    6.363      33.943
2015    3       29    20  33    4.2203   432.9    6.379      33.983
2015    3       29    20  39    4.2279   432.8    6.395      34.022
2015    3       29    20  45    4.2356   432.8    6.411      34.062
2015    3       29    20  51    4.2433   432.8    6.427      34.102
2015    3       29    20  57    4.2509   432.8    6.442      34.142
2015    3       29    21   3    4.2586   432.8    6.458      34.181
2015    3       29    21   8    4.2663   432.7    6.474      34.222
2015    3       29    21  14    4.2740   432.7    6.490      34.262
2015    3       29    21  20    4.2817   432.7    6.506      34.302
2015    3       29    21  26    4.2895   432.7    6.521      34.343
2015    3       29    21  32    4.2972   432.7    6.537      34.385
2015    3       29    21  38    4.3049   432.7    6.552      34.427
2015    3       29    21  44    4.3127   432.7    6.568      34.470
2015    3       29    21  50    4.3204   432.7    6.583      34.514
2015    3       29    21  56    4.3281   432.7    6.597      34.558
2015    3       29    22   1    4.3357   432.7    6.612      34.603
2015    3       29    22   7    4.3434   432.7    6.626      34.649
2015    3       29    22  13    4.3510   432.7    6.640      34.694
2015    3       29    22  19    4.3587   432.7    6.654      34.738
2015    3       29    22  25    4.3663   432.7    6.668      34.782
2015    3       29    22  31    4.3739   432.7    6.681      34.825
2015    3       29    22  37    4.3814   432.7    6.694      34.867
2015    3       29    22  43    4.3890   432.7    6.707      34.909
2015    3       29    22  49    4.3966   432.7    6.720      34.950
2015    3       29    22  54    4.4041   432.7    6.733      34.990
2015    3       29    23   0    4.4117   432.8    6.745      35.030
2015    3       29    23   6    4.4192   432.8    6.758      35.069
2015    3       29    23  12    4.4267   432.8    6.770      35.108
2015    3       29    23  18    4.4343   432.8    6.782      35.146
2015    3       29    23  24    4.4418   432.8    6.794      35.184
2015    3       29    23  30    4.4493   432.8    6.806      35.222
2015    3       29    23  36    4.4569   432.9    6.818      35.259
2015    3       29    23  41    4.4644   432.9    6.830      35.296
2015    3       29    23  47    4.4719   432.9    6.842      35.332
2015    3       29    23  53    4.4794   432.9    6.854      35.369
2015    3       29    23  59    4.4870   432.9    6.865      35.405
2015    3       30     0   5    4.4945   433.0    6.877      35.441
2015    3       30     0  11    4.5020   433.0    6.889      35.477
2015    3       30     0  17    4.5095   433.0    6.900      35.514
2015    3       30     0  23    4.5171   433.0    6.912      35.550
2015    3       30     0  29    4.5246   433.1    6.923      35.586
2015    3       30     0  34    4.5321   433.1    6.934      35.623
2015    3       30     0  40    4.5396   433.1    6.946      35.659
2015    3       30     0  46    4.5471   433.1    6.957      35.696
2015    3       30     0  52    4.5547   433.2    6.968      35.732
2015    3       30     0  58    4.5622   433.2    6.980      35.769
2015    3       30     1   4    4.5697   433.2    6.991      35.806
2015    3       30     1  10    4.5773   433.2    7.002      35.843
2015    3       30     1  16    4.5849   433.3    7.014      35.881
2015    3       30     1  21    4.5924   433.3    7.025      35.919
2015    3       30     1  27    4.6000   433.3    7.036      35.957
2015    3       30     1  33    4.6077   433.3    7.048      35.996
2015    3       30     1  39    4.6153   433.4    7.060      36.035
2015    3       30     1  45    4.6230   433.4    7.072      36.075
2015    3       30     1  51    4.6307   433.4    7.084      36.116
2015    3       30     1  57    4.6385   433.5    7.096      36.158
2015    3       30     2   3    4.6462   433.5    7.108      36.200
2015    3       30     2   9    4.6541   433.5    7.121      36.244
2015    3       30     2  14    4.6619   433.6    7.133      36.289
2015    3       30     2  20    4.6699   433.6    7.146      36.334
2015    3       30     2  26    4.6779   433.7    7.159      36.381
2015    3       30     2  32    4.6859   433.7    7.173      36.429
2015    3       30     2  38    4.6940   433.7    7.186      36.479
2015    3       30     2  44    4.7020   433.8    7.200      36.530
2015    3       30     2  50    4.7102   433.9    7.213      36.583
2015    3       30     2  56    4.7183   433.9    7.227      36.636
2015    3       30     3   2    4.7264   434.0    7.241      36.692
2015    3       30     3   7    4.7345   434.1    7.254      36.749
2015    3       30     3  13    4.7426   434.2    7.267      36.808
2015    3       30     3  19    4.7506   434.2    7.279      36.867
2015    3       30     3  25    4.7586   434.3    7.292      36.927
2015    3       30     3  31    4.7665   434.4    7.304      36.987
2015    3       30     3  37    4.7744   434.5    7.316      37.046
2015    3       30     3  43    4.7822   434.6    7.327      37.105
2015    3       30     3  49    4.7900   434.7    7.338      37.163
2015    3       30     3  54    4.7977   434.8    7.349      37.220
2015    3       30     4   0    4.8054   434.9    7.359      37.276
2015    3       30     4   6    4.8130   435.0    7.370      37.331
2015    3       30     4  12    4.8206   435.1    7.380      37.385
2015    3       30     4  18    4.8282   435.2    7.389      37.439
2015    3       30     4  24    4.8357   435.3    7.399      37.492
2015    3       30     4  30    4.8432   435.4    7.408      37.544
2015    3       30     4  36    4.8507   435.5    7.417      37.596
2015    3       30     4  42    4.8581   435.6    7.426      37.647
2015    3       30     4  47    4.8656   435.7    7.435      37.698
2015    3       30     4  53    4.8730   435.8    7.444      37.749
2015    3       30     4  59    4.8804   435.9    7.452      37.800
2015    3       30     5   5    4.8878   436.0    7.461      37.850
2015    3       30     5  11    4.8952   436.1    7.469      37.901
2015    3       30     5  17    4.9025   436.2    7.477      37.951
2015    3       30     5  23    4.9099   436.3    7.485      38.001
2015    3       30     5  29    4.9172   436.4    7.492      38.051
2015    3       30     5  35    4.9245   436.5    7.500      38.101
2015    3       30     5  40    4.9318   436.6    7.507      38.151
2015    3       30     5  46    4.9391   436.7    7.515      38.201
2015    3       30     5  52    4.9464   436.8    7.522      38.251
2015    3       30     5  58    4.9537   436.9    7.529      38.301
2015    3       30     6   4    4.9609   437.1    7.535      38.351
2015    3       30     6  10    4.9681   437.2    7.542      38.401
2015    3       30     6  16    4.9753   437.3    7.548      38.450
2015    3       30     6  22    4.9825   437.4    7.554      38.499
2015    3       30     6  27    4.9897   437.5    7.560      38.548
2015    3       30     6  33    4.9968   437.6    7.566      38.596
2015    3       30     6  39    5.0039   437.8    7.572      38.644
2015    3       30     6  45    5.0110   437.9    7.577      38.692
2015    3       30     6  51    5.0181   438.0    7.583      38.739
2015    3       30     6  57    5.0252   438.1    7.588      38.786
2015    3       30     7   3    5.0323   438.2    7.593      38.832
2015    3       30     7   9    5.0393   438.4    7.598      38.879
2015    3       30     7  15    5.0463   438.5    7.602      38.925
2015    3       30     7  20    5.0533   438.6    7.607      38.971
2015    3       30     7  26    5.0603   438.7    7.611      39.016
2015    3       30     7  32    5.0673   438.8    7.616      39.062
2015    3       30     7  38    5.0742   439.0    7.620      39.108
2015    3       30     7  44    5.0812   439.1    7.624      39.153
2015    3       30     7  50    5.0881   439.2    7.628      39.199
2015    3       30     7  56    5.0950   439.3    7.632      39.244
2015    3       30     8   2    5.1019   439.4    7.636      39.289
2015    3       30     8   7    5.1088   439.6    7.640      39.334
2015    3       30     8  13    5.1157   439.7    7.644      39.379
2015    3       30     8  19    5.1226   439.8    7.648      39.424
2015    3       30     8  25    5.1295   439.9    7.651      39.468
2015    3       30     8  31    5.1364   440.0    7.655      39.513
2015    3       30     8  37    5.1433   440.1    7.659      39.558
2015    3       30     8  43    5.1502   440.3    7.663      39.603
2015    3       30     8  49    5.1571   440.4    7.667      39.648
2015    3       30     8  55    5.1640   440.5    7.671      39.693
2015    3       30     9   0    5.1709   440.6    7.675      39.739
2015    3       30     9   6    5.1778   440.7    7.679      39.784
2015    3       30     9  12    5.1848   440.9    7.684      39.830
2015    3       30     9  18    5.1917   441.0    7.688      39.877
2015    3       30     9  24    5.1987   441.1    7.693      39.924
2015    3       30     9  30    5.2057   441.2    7.697      39.972
2015    3       30     9  36    5.2127   441.4    7.702      40.021
2015    3       30     9  42    5.2198   441.5    7.707      40.069
2015    3       30     9  48    5.2268   441.6    7.712      40.118
2015    3       30     9  53    5.2339   441.7    7.717      40.168
2015    3       30     9  59    5.2410   441.9    7.722      40.219
2015    3       30    10   5    5.2481   442.0    7.727      40.271
2015    3       30    10  11    5.2552   442.1    7.732      40.323
2015    3       30    10  17    5.2623   442.3    7.737      40.376
2015    3       30    10  23    5.2694   442.4    7.742      40.430
2015    3       30    10  29    5.2765   442.6    7.747      40.484
2015    3       30    10  35    5.2835   442.7    7.752      40.539
2015    3       30    10  40    5.2905   442.9    7.756      40.592
2015    3       30    10  46    5.2976   443.0    7.761      40.645
2015    3       30    10  52    5.3045   443.2    7.765      40.698
2015    3       30    10  58    5.3115   443.3    7.770      40.750
2015    3       30    11   4    5.3184   443.5    7.774      40.802
2015    3       30    11  10    5.3253   443.6    7.778      40.854
2015    3       30    11  16    5.3322   443.8    7.782      40.905
2015    3       30    11  22    5.3391   443.9    7.787      40.956
2015    3       30    11  28    5.3460   444.1    7.791      41.008
2015    3       30    11  33    5.3528   444.2    7.795      41.059
2015    3       30    11  39    5.3597   444.4    7.799      41.111
2015    3       30    11  45    5.3665   444.5    7.804      41.163
2015    3       30    11  51    5.3734   444.7    7.808      41.215
2015    3       30    11  57    5.3803   444.9    7.813      41.267
2015    3       30    12   3    5.3872   445.0    7.817      41.320
2015    3       30    12   9    5.3940   445.2    7.822      41.374
2015    3       30    12  15    5.4009   445.3    7.827      41.428
2015    3       30    12  21    5.4078   445.5    7.832      41.484
2015    3       30    12  26    5.4148   445.6    7.838      41.540
2015    3       30    12  32    5.4217   445.8    7.843      41.597
2015    3       30    12  38    5.4287   446.0    7.849      41.655
2015    3       30    12  44    5.4357   446.1    7.855      41.714
2015    3       30    12  50    5.4427   446.3    7.861      41.776
2015    3       30    12  56    5.4497   446.5    7.867      41.839
2015    3       30    13   2    5.4567   446.6    7.874      41.904
2015    3       30    13   8    5.4638   446.8    7.880      41.970
2015    3       30    13  14    5.4708   447.0    7.887      42.038
2015    3       30    13  19    5.4779   447.2    7.893      42.107
2015    3       30    13  25    5.4850   447.3    7.900      42.179
2015    3       30    13  31    5.4920   447.5    7.906      42.252
2015    3       30    13  37    5.4991   447.7    7.912      42.327
2015    3       30    13  43    5.5061   447.9    7.918      42.403
2015    3       30    13  49    5.5131   448.1    7.924      42.480
2015    3       30    13  55    5.5200   448.3    7.929      42.559
2015    3       30    14   1    5.5268   448.5    7.933      42.638
2015    3       30    14   6    5.5336   448.7    7.937      42.715
2015    3       30    14  12    5.5403   448.9    7.941      42.791
2015    3       30    14  18    5.5469   449.1    7.944      42.866
2015    3       30    14  24    5.5535   449.3    7.947      42.939
2015    3       30    14  30    5.5600   449.5    7.949      43.011
2015    3       30    14  36    5.5665   449.7    7.951      43.081
2015    3       30    14  42    5.5728   450.0    7.953      43.151
2015    3       30    14  48    5.5792   450.2    7.954      43.219
2015    3       30    14  54    5.5854   450.4    7.955      43.286
2015    3       30    14  59    5.5917   450.6    7.955      43.351
2015    3       30    15   5    5.5978   450.8    7.956      43.416
2015    3       30    15  11    5.6040   451.0    7.955      43.480
2015    3       30    15  17    5.6101   451.2    7.955      43.542
2015    3       30    15  23    5.6162   451.4    7.954      43.604
2015    3       30    15  29    5.6222   451.7    7.953      43.665
2015    3       30    15  35    5.6282   451.9    7.952      43.724
2015    3       30    15  41    5.6341   452.1    7.951      43.783
2015    3       30    15  47    5.6401   452.3    7.949      43.842
2015    3       30    15  52    5.6460   452.5    7.947      43.899
2015    3       30    15  58    5.6519   452.8    7.945      43.955
2015    3       30    16   4    5.6577   453.0    7.943      44.011
2015    3       30    16  10    5.6635   453.2    7.941      44.066
2015    3       30    16  16    5.6693   453.4    7.938      44.120
2015    3       30    16  22    5.6751   453.7    7.935      44.173
2015    3       30    16  28    5.6808   453.9    7.932      44.226
2015    3       30    16  34    5.6865   454.1    7.930      44.278
2015    3       30    16  39    5.6922   454.3    7.926      44.329
2015    3       30    16  45    5.6979   454.6    7.923      44.380
2015    3       30    16  51    5.7035   454.8    7.920      44.431
2015    3       30    16  57    5.7092   455.0    7.917      44.481
2015    3       30    17   3    5.7148   455.2    7.914      44.531
2015    3       30    17   9    5.7204   455.5    7.910      44.580
2015    3       30    17  15    5.7260   455.7    7.907      44.630
2015    3       30    17  21    5.7317   455.9    7.904      44.679
2015    3       30    17  27    5.7372   456.1    7.901      44.728
2015    3       30    17  32    5.7428   456.4    7.897      44.777
2015    3       30    17  38    5.7484   456.6    7.894      44.826
2015    3       30    17  44    5.7540   456.8    7.891      44.875
2015    3       30    17  50    5.7595   457.0    7.888      44.924
2015    3       30    17  56    5.7651   457.3    7.885      44.973
2015    3       30    18   2    5.7707   457.5    7.883      45.023
2015    3       30    18   8    5.7762   457.7    7.880      45.073
2015    3       30    18  14    5.7818   458.0    7.877      45.124
2015    3       30    18  20    5.7873   458.2    7.875      45.175
2015    3       30    18  25    5.7928   458.4    7.873      45.227
2015    3       30    18  31    5.7984   458.7    7.870      45.279
2015    3       30    18  37    5.8039   458.9    7.868      45.332
2015    3       30    18  43    5.8094   459.1    7.866      45.386
2015    3       30    18  49    5.8149   459.4    7.864      45.440
2015    3       30    18  55    5.8204   459.6    7.863      45.495
2015    3       30    19   1    5.8259   459.8    7.861      45.551
2015    3       30    19   7    5.8315   460.1    7.860      45.607
2015    3       30    19  13    5.8370   460.3    7.859      45.665
2015    3       30    19  18    5.8426   460.5    7.859      45.724
2015    3       30    19  24    5.8482   460.8    7.858      45.785
2015    3       30    19  30    5.8538   461.0    7.858      45.847
2015    3       30    19  36    5.8595   461.2    7.859      45.911
2015    3       30    19  42    5.8652   461.5    7.859      45.977
2015    3       30    19  48    5.8710   461.7    7.860      46.045
2015    3       30    19  54    5.8768   462.0    7.861      46.115
2015    3       30    20   0    5.8826   462.2    7.863      46.189
2015    3       30    20   5    5.8885   462.5    7.864      46.265
2015    3       30    20  11    5.8944   462.7    7.866      46.345
2015    3       30    20  17    5.9003   463.0    7.868      46.427
2015    3       30    20  23    5.9061   463.2    7.870      46.511
2015    3       30    20  29    5.9120   463.5    7.872      46.597
2015    3       30    20  35    5.9179   463.7    7.874      46.683
2015    3       30    20  41    5.9237   464.0    7.875      46.771
2015    3       30    20  47    5.9296   464.3    7.877      46.860
2015    3       30    20  53    5.9353   464.6    7.878      46.950
2015    3       30    20  58    5.9410   464.8    7.880      47.041
2015    3       30    21   4    5.9467   465.1    7.880      47.133
2015    3       30    21  10    5.9523   465.4    7.880      47.226
2015    3       30    21  16    5.9578   465.7    7.880      47.319
2015    3       30    21  22    5.9633   466.0    7.879      47.411
2015    3       30    21  28    5.9686   466.3    7.878      47.501
2015    3       30    21  34    5.9739   466.6    7.876      47.590
2015    3       30    21  40    5.9790   466.9    7.874      47.676
2015    3       30    21  46    5.9841   467.2    7.871      47.762
2015    3       30    21  51    5.9892   467.6    7.868      47.846
2015    3       30    21  57    5.9941   467.9    7.865      47.928
2015    3       30    22   3    5.9989   468.2    7.861      48.010
2015    3       30    22   9    6.0037   468.5    7.856      48.089
2015    3       30    22  15    6.0084   468.9    7.851      48.167
2015    3       30    22  21    6.0131   469.2    7.846      48.244
2015    3       30    22  27    6.0176   469.5    7.840      48.320
2015    3       30    22  33    6.0221   469.8    7.834      48.394
2015    3       30    22  39    6.0266   470.2    7.828      48.467
2015    3       30    22  44    6.0309   470.5    7.821      48.538
2015    3       30    22  50    6.0353   470.8    7.815      48.609
2015    3       30    22  56    6.0395   471.2    7.808      48.678
2015    3       30    23   2    6.0438   471.5    7.800      48.746
2015    3       30    23   8    6.0479   471.9    7.793      48.813
2015    3       30    23  14    6.0521   472.2    7.785      48.879
2015    3       30    23  20    6.0562   472.5    7.777      48.945
2015    3       30    23  26    6.0602   472.9    7.769      49.009
2015    3       30    23  31    6.0643   473.2    7.761      49.073
2015    3       30    23  37    6.0682   473.5    7.752      49.136
2015    3       30    23  43    6.0722   473.9    7.744      49.199
2015    3       30    23  49    6.0761   474.2    7.735      49.260
2015    3       30    23  55    6.0800   474.6    7.726      49.322
2015    3       31     0   1    6.0838   474.9    7.717      49.382
2015    3       31     0   7    6.0876   475.2    7.708      49.443
2015    3       31     0  13    6.0913   475.6    7.699      49.502
2015    3       31     0  19    6.0950   475.9    7.690      49.562
2015    3       31     0  24    6.0987   476.3    7.680      49.621
2015    3       31     0  30    6.1023   476.6    7.671      49.680
2015    3       31     0  36    6.1058   477.0    7.661      49.738
2015    3       31     0  42    6.1093   477.3    7.651      49.795
2015    3       31     0  48    6.1128   477.6    7.641      49.852
2015    3       31     0  54    6.1162   478.0    7.631      49.908
2015    3       31     1   0    6.1195   478.3    7.621      49.963
2015    3       31     1   6    6.1228   478.7    7.611      50.018
2015    3       31     1  12    6.1261   479.0    7.600      50.071
2015    3       31     1  17    6.1293   479.4    7.590      50.124
2015    3       31     1  23    6.1324   479.7    7.579      50.176
2015    3       31     1  29    6.1355   480.0    7.568      50.227
2015    3       31     1  35    6.1386   480.4    7.557      50.277
2015    3       31     1  41    6.1416   480.8    7.546      50.326
2015    3       31     1  47    6.1445   481.1    7.534      50.375
2015    3       31     1  53    6.1474   481.5    7.523      50.424
2015    3       31     1  59    6.1502   481.8    7.511      50.472
2015    3       31     2   5    6.1530   482.2    7.500      50.519
2015    3       31     2  10    6.1557   482.5    7.489      50.565
2015    3       31     2  16    6.1585   482.9    7.478      50.610
2015    3       31     2  22    6.1612   483.2    7.468      50.654
2015    3       31     2  28    6.1641   483.5    7.458      50.699
2015    3       31     2  34    6.1670   483.8    7.449      50.746
2015    3       31     2  40    6.1700   484.1    7.440      50.796
2015    3       31     2  46    6.1731   484.4    7.432      50.850
2015    3       31     2  52    6.1763   484.7    7.424      50.909
2015    3       31     2  58    6.1796   485.0    7.416      50.972
2015    3       31     3   3    6.1830   485.3    7.409      51.040
2015    3       31     3   9    6.1865   485.7    7.402      51.116
2015    3       31     3  15    6.1901   486.1    7.394      51.198
2015    3       31     3  21    6.1936   486.5    7.387      51.285
2015    3       31     3  27    6.1972   486.9    7.380      51.377
2015    3       31     3  33    6.2007   487.3    7.372      51.471
2015    3       31     3  39    6.2042   487.7    7.364      51.567
2015    3       31     3  45    6.2074   488.1    7.356      51.661
2015    3       31     3  50    6.2106   488.5    7.348      51.750
2015    3       31     3  56    6.2135   488.9    7.339      51.836
2015    3       31     4   2    6.2164   489.2    7.330      51.919
2015    3       31     4   8    6.2191   489.6    7.320      52.001
2015    3       31     4  14    6.2218   490.0    7.310      52.080
2015    3       31     4  20    6.2243   490.4    7.300      52.158
2015    3       31     4  26    6.2267   490.8    7.289      52.236
2015    3       31     4  32    6.2290   491.2    7.277      52.312
2015    3       31     4  38    6.2313   491.6    7.266      52.387
2015    3       31     4  43    6.2335   492.0    7.254      52.462
2015    3       31     4  49    6.2356   492.4    7.242      52.534
2015    3       31     4  55    6.2377   492.8    7.229      52.605
2015    3       31     5   1    6.2396   493.3    7.216      52.673
2015    3       31     5   7    6.2415   493.7    7.203      52.741
2015    3       31     5  13    6.2432   494.2    7.189      52.807
2015    3       31     5  19    6.2448   494.6    7.175      52.870
2015    3       31     5  25    6.2463   495.0    7.161      52.932
2015    3       31     5  31    6.2477   495.5    7.147      52.992
2015    3       31     5  36    6.2490   495.9    7.133      53.048
2015    3       31     5  42    6.2502   496.3    7.119      53.103
2015    3       31     5  48    6.2514   496.7    7.105      53.156
2015    3       31     5  54    6.2526   497.1    7.091      53.207
2015    3       31     6   0    6.2538   497.4    7.077      53.257
2015    3       31     6   6    6.2551   497.8    7.064      53.307
2015    3       31     6  12    6.2563   498.2    7.050      53.357
2015    3       31     6  18    6.2576   498.6    7.037      53.407
2015    3       31     6  24    6.2588   499.0    7.024      53.459
2015    3       31     6  29    6.2601   499.4    7.010      53.513
2015    3       31     6  35    6.2613   499.7    6.997      53.568
2015    3       31     6  41    6.2625   500.1    6.984      53.626
2015    3       31     6  47    6.2637   500.5    6.971      53.685
2015    3       31     6  53    6.2648   500.9    6.958      53.745
2015    3       31     6  59    6.2659   501.3    6.945      53.805
2015    3       31     7   5    6.2670   501.7    6.932      53.865
2015    3       31     7  11    6.2681   502.2    6.919      53.925
2015    3       31     7  16    6.2692   502.6    6.906      53.985
2015    3       31     7  22    6.2703   503.0    6.893      54.044
2015    3       31     7  28    6.2714   503.4    6.880      54.101
2015    3       31     7  34    6.2724   503.8    6.867      54.157
2015    3       31     7  40    6.2734   504.1    6.854      54.214
2015    3       31     7  46    6.2743   504.5    6.841      54.271
2015    3       31     7  52    6.2752   504.9    6.828      54.329
2015    3       31     7  58    6.2761   505.4    6.814      54.389
2015    3       31     8   4    6.2769   505.8    6.801      54.448
2015    3       31     8   9    6.2777   506.2    6.787      54.508
2015    3       31     8  15    6.2785   506.6    6.773      54.567
2015    3       31     8  21    6.2792   507.1    6.759      54.626
2015    3       31     8  27    6.2799   507.5    6.745      54.683
2015    3       31     8  33    6.2805   507.9    6.730      54.739
2015    3       31     8  39    6.2810   508.4    6.716      54.792
2015    3       31     8  45    6.2815   508.8    6.701      54.842
2015    3       31     8  51    6.2819   509.3    6.685      54.891
2015    3       31     8  57    6.2823   509.7    6.670      54.937
2015    3       31     9   2    6.2825   510.2    6.654      54.980
2015    3       31     9   8    6.2827   510.6    6.639      55.021
2015    3       31     9  14    6.2828   511.0    6.623      55.057
2015    3       31     9  20    6.2828   511.4    6.608      55.091
2015    3       31     9  26    6.2829   511.8    6.593      55.122
2015    3       31     9  32    6.2831   512.1    6.579      55.150
2015    3       31     9  38    6.2834   512.5    6.565      55.180
2015    3       31     9  44    6.2838   512.8    6.552      55.211
2015    3       31     9  50    6.2844   513.1    6.539      55.244
2015    3       31     9  55    6.2852   513.4    6.527      55.283
2015    3       31    10   1    6.2861   513.7    6.516      55.326
2015    3       31    10   7    6.2873   514.1    6.504      55.377
2015    3       31    10  13    6.2885   514.5    6.493      55.436
2015    3       31    10  19    6.2899   514.9    6.483      55.502
2015    3       31    10  25    6.2913   515.4    6.472      55.574
2015    3       31    10  31    6.2928   515.8    6.462      55.652
2015    3       31    10  37    6.2943   516.3    6.452      55.734
2015    3       31    10  43    6.2957   516.8    6.442      55.816
2015    3       31    10  48    6.2969   517.3    6.432      55.895
2015    3       31    10  54    6.2981   517.7    6.421      55.971
2015    3       31    11   0    6.2990   518.2    6.410      56.044
2015    3       31    11   6    6.2997   518.6    6.399      56.112
2015    3       31    11  12    6.3003   519.1    6.387      56.176
2015    3       31    11  18    6.3008   519.5    6.375      56.236
2015    3       31    11  24    6.3012   519.9    6.363      56.295
2015    3       31    11  30    6.3014   520.4    6.350      56.352
2015    3       31    11  36    6.3016   520.8    6.337      56.407
2015    3       31    11  41    6.3016   521.3    6.323      56.461
2015    3       31    11  47    6.3016   521.7    6.310      56.514
2015    3       31    11  53    6.3016   522.2    6.296      56.566
2015    3       31    11  59    6.3015   522.6    6.282      56.617
2015    3       31    12   5    6.3014   523.1    6.269      56.666
2015    3       31    12  11    6.3013   523.5    6.255      56.714
2015    3       31    12  17    6.3012   523.9    6.242      56.759
2015    3       31    12  23    6.3011   524.3    6.229      56.804
2015    3       31    12  29    6.3011   524.7    6.217      56.848
2015    3       31    12  34    6.3012   525.0    6.205      56.893
2015    3       31    12  40    6.3014   525.4    6.193      56.939
2015    3       31    12  46    6.3017   525.8    6.182      56.988
2015    3       31    12  52    6.3021   526.2    6.172      57.040
2015    3       31    12  58    6.3025   526.5    6.161      57.095
2015    3       31    13   4    6.3030   527.0    6.151      57.156
2015    3       31    13  10    6.3037   527.4    6.141      57.221
2015    3       31    13  16    6.3044   527.8    6.131      57.290
2015    3       31    13  21    6.3052   528.3    6.122      57.362
2015    3       31    13  27    6.3060   528.8    6.112      57.434
2015    3       31    13  33    6.3068   529.2    6.103      57.507
2015    3       31    13  39    6.3075   529.7    6.094      57.579
2015    3       31    13  45    6.3082   530.2    6.084      57.648
2015    3       31    13  51    6.3087   530.6    6.075      57.712
2015    3       31    13  57    6.3092   531.1    6.065      57.775
2015    3       31    14   3    6.3096   531.5    6.055      57.836
2015    3       31    14   9    6.3099   531.9    6.045      57.896
2015    3       31    14  14    6.3102   532.4    6.035      57.955
2015    3       31    14  20    6.3103   532.8    6.024      58.013
2015    3       31    14  26    6.3105   533.3    6.013      58.072
2015    3       31    14  32    6.3105   533.7    6.003      58.130
2015    3       31    14  38    6.3106   534.2    5.991      58.189
2015    3       31    14  44    6.3106   534.6    5.980      58.247
2015    3       31    14  50    6.3105   535.1    5.969      58.304
2015    3       31    14  56    6.3103   535.5    5.958      58.360
2015    3       31    15   2    6.3101   536.0    5.946      58.414
2015    3       31    15   7    6.3098   536.4    5.935      58.467
2015    3       31    15  13    6.3095   536.8    5.924      58.520
2015    3       31    15  19    6.3091   537.2    5.913      58.571
2015    3       31    15  25    6.3087   537.6    5.902      58.622
2015    3       31    15  31    6.3082   538.1    5.891      58.673
2015    3       31    15  37    6.3077   538.5    5.880      58.725
2015    3       31    15  43    6.3072   538.9    5.869      58.777
2015    3       31    15  49    6.3067   539.3    5.859      58.830
2015    3       31    15  55    6.3061   539.7    5.848      58.885
2015    3       31    16   0    6.3055   540.2    5.837      58.940
2015    3       31    16   6    6.3048   540.6    5.826      58.996
2015    3       31    16  12    6.3041   541.1    5.815      59.052
2015    3       31    16  18    6.3033   541.5    5.804      59.109
2015    3       31    16  24    6.3024   542.0    5.793      59.164
2015    3       31    16  30    6.3014   542.4    5.782      59.217
2015    3       31    16  36    6.3003   542.9    5.771      59.268
2015    3       31    16  42    6.2991   543.3    5.759      59.316
2015    3       31    16  48    6.2978   543.7    5.748      59.363
2015    3       31    16  53    6.2964   544.1    5.736      59.408
2015    3       31    16  59    6.2950   544.6    5.724      59.452
2015    3       31    17   5    6.2934   545.0    5.712      59.495
2015    3       31    17  11    6.2917   545.5    5.700      59.537
2015    3       31    17  17    6.2899   545.9    5.687      59.579
2015    3       31    17  23    6.2880   546.3    5.675      59.619
2015    3       31    17  29    6.2859   546.8    5.662      59.658
2015    3       31    17  35    6.2838   547.2    5.650      59.694
2015    3       31    17  41    6.2816   547.6    5.637      59.730
2015    3       31    17  46    6.2793   548.0    5.625      59.764
2015    3       31    17  52    6.2769   548.4    5.613      59.798
2015    3       31    17  58    6.2745   548.8    5.600      59.830
2015    3       31    18   4    6.2720   549.2    5.588      59.861
2015    3       31    18  10    6.2695   549.6    5.576      59.892
2015    3       31    18  16    6.2670   550.0    5.564      59.923
2015    3       31    18  22    6.2645   550.4    5.552      59.953
2015    3       31    18  28    6.2619   550.8    5.540      59.984
2015    3       31    18  34    6.2594   551.2    5.529      60.016
2015    3       31    18  39    6.2568   551.6    5.518      60.050
2015    3       31    18  45    6.2543   552.0    5.506      60.086
2015    3       31    18  51    6.2517   552.4    5.495      60.123
2015    3       31    18  57    6.2492   552.8    5.485      60.161
2015    3       31    19   3    6.2467   553.2    5.474      60.201
2015    3       31    19   9    6.2442   553.6    5.463      60.242
2015    3       31    19  15    6.2416   554.0    5.453      60.282
2015    3       31    19  21    6.2389   554.4    5.442      60.323
2015    3       31    19  27    6.2363   554.8    5.431      60.365
2015    3       31    19  32    6.2335   555.2    5.421      60.409
2015    3       31    19  38    6.2308   555.6    5.410      60.453
2015    3       31    19  44    6.2280   556.0    5.400      60.499
2015    3       31    19  50    6.2252   556.4    5.389      60.545
2015    3       31    19  56    6.2224   556.8    5.379      60.591
2015    3       31    20   2    6.2196   557.2    5.369      60.639
2015    3       31    20   8    6.2168   557.6    5.358      60.687
2015    3       31    20  14    6.2140   558.0    5.348      60.736
2015    3       31    20  20    6.2111   558.4    5.338      60.786
2015    3       31    20  25    6.2082   558.8    5.327      60.836
2015    3       31    20  31    6.2053   559.2    5.317      60.888
2015    3       31    20  37    6.2023   559.6    5.307      60.941
2015    3       31    20  43    6.1993   560.1    5.297      60.994
2015    3       31    20  49    6.1963   560.5    5.287      61.049
2015    3       31    20  55    6.1933   560.9    5.277      61.105
2015    3       31    21   1    6.1902   561.3    5.267      61.161
2015    3       31    21   7    6.1871   561.8    5.257      61.218
2015    3       31    21  12    6.1839   562.2    5.247      61.274
2015    3       31    21  18    6.1807   562.6    5.237      61.330
2015    3       31    21  24    6.1775   563.0    5.227      61.385
2015    3       31    21  30    6.1743   563.5    5.216      61.438
2015    3       31    21  36    6.1710   563.9    5.206      61.491
2015    3       31    21  42    6.1676   564.3    5.195      61.544
2015    3       31    21  48    6.1642   564.7    5.185      61.595
2015    3       31    21  54    6.1607   565.2    5.174      61.646
2015    3       31    22   0    6.1572   565.6    5.163      61.697
2015    3       31    22   5    6.1537   566.0    5.152      61.746
2015    3       31    22  11    6.1501   566.4    5.141      61.795
2015    3       31    22  17    6.1465   566.9    5.130      61.842
2015    3       31    22  23    6.1429   567.3    5.120      61.888
2015    3       31    22  29    6.1393   567.7    5.109      61.933
2015    3       31    22  35    6.1357   568.1    5.098      61.977
2015    3       31    22  41    6.1321   568.5    5.087      62.020
2015    3       31    22  47    6.1285   568.9    5.076      62.063
2015    3       31    22  53    6.1249   569.3    5.066      62.106
2015    3       31    22  58    6.1214   569.7    5.055      62.150
2015    3       31    23   4    6.1178   570.1    5.044      62.194
2015    3       31    23  10    6.1143   570.5    5.034      62.239
2015    3       31    23  16    6.1108   571.0    5.023      62.285
2015    3       31    23  22    6.1072   571.4    5.013      62.331
2015    3       31    23  28    6.1037   571.8    5.002      62.378
2015    3       31    23  34    6.1002   572.2    4.992      62.424
2015    3       31    23  40    6.0967   572.7    4.982      62.470
2015    3       31    23  46    6.0932   573.1    4.972      62.514
2015    3       31    23  51    6.0896   573.5    4.962      62.558
2015    3       31    23  57    6.0861   573.9    4.952      62.601
2015    4        1     0   3    6.0824   574.3    4.942      62.644
2015    4        1     0   9    6.0788   574.8    4.932      62.687
2015    4        1     0  15    6.0750   575.2    4.923      62.730
2015    4        1     0  21    6.0713   575.6    4.913      62.774
2015    4        1     0  27    6.0675   576.0    4.904      62.819
2015    4        1     0  33    6.0636   576.5    4.894      62.864
2015    4        1     0  39    6.0598   576.9    4.885      62.909
2015    4        1     0  44    6.0559   577.4    4.876      62.955
2015    4        1     0  50    6.0520   577.8    4.867      63.001
2015    4        1     0  56    6.0481   578.2    4.858      63.047
2015    4        1     1   2    6.0442   578.7    4.850      63.093
2015    4        1     1   8    6.0402   579.1    4.841      63.138
2015    4        1     1  14    6.0362   579.6    4.833      63.184
2015    4        1     1  20    6.0321   580.0    4.825      63.228
2015    4        1     1  26    6.0280   580.4    4.817      63.273
2015    4        1     1  32    6.0239   580.9    4.809      63.318
2015    4        1     1  37    6.0197   581.3    4.801      63.363
2015    4        1     1  43    6.0154   581.7    4.793      63.408
2015    4        1     1  49    6.0111   582.2    4.786      63.453
2015    4        1     1  55    6.0068   582.6    4.779      63.499
2015    4        1     2   1    6.0025   583.0    4.771      63.545
2015    4        1     2   7    5.9981   583.5    4.764      63.591
2015    4        1     2  13    5.9938   583.9    4.757      63.637
2015    4        1     2  19    5.9894   584.3    4.751      63.684
2015    4        1     2  25    5.9850   584.7    4.744      63.731
2015    4        1     2  30    5.9806   585.2    4.737      63.779
2015    4        1     2  36    5.9763   585.6    4.731      63.826
2015    4        1     2  42    5.9719   586.0    4.724      63.873
2015    4        1     2  48    5.9675   586.4    4.717      63.919
2015    4        1     2  54    5.9631   586.8    4.711      63.965
2015    4        1     3   0    5.9587   587.3    4.704      64.010
2015    4        1     3   6    5.9543   587.7    4.698      64.054
2015    4        1     3  12    5.9500   588.1    4.691      64.097
2015    4        1     3  18    5.9456   588.5    4.684      64.141
2015    4        1     3  23    5.9412   588.9    4.678      64.184
2015    4        1     3  29    5.9369   589.3    4.671      64.227
2015    4        1     3  35    5.9325   589.7    4.664      64.270
2015    4        1     3  41    5.9282   590.1    4.658      64.313
2015    4        1     3  47    5.9238   590.5    4.651      64.355
2015    4        1     3  53    5.9195   590.9    4.644      64.397
2015    4        1     3  59    5.9151   591.3    4.637      64.440
2015    4        1     4   5    5.9108   591.8    4.631      64.483
2015    4        1     4  11    5.9065   592.2    4.624      64.525
2015    4        1     4  16    5.9022   592.6    4.617      64.568
2015    4        1     4  22    5.8979   593.0    4.610      64.611
2015    4        1     4  28    5.8936   593.4    4.602      64.654
2015    4        1     4  34    5.8893   593.8    4.595      64.696
2015    4        1     4  40    5.8850   594.2    4.588      64.737
2015    4        1     4  46    5.8808   594.6    4.580      64.778
2015    4        1     4  52    5.8766   595.0    4.573      64.818
2015    4        1     4  58    5.8724   595.4    4.565      64.858
2015    4        1     5   4    5.8682   595.8    4.557      64.897
2015    4        1     5   9    5.8640   596.2    4.550      64.936
2015    4        1     5  15    5.8598   596.6    4.542      64.975
2015    4        1     5  21    5.8557   597.0    4.534      65.013
2015    4        1     5  27    5.8516   597.4    4.526      65.050
2015    4        1     5  33    5.8475   597.8    4.518      65.088
2015    4        1     5  39    5.8433   598.2    4.510      65.125
2015    4        1     5  45    5.8393   598.6    4.502      65.162
2015    4        1     5  51    5.8352   599.0    4.494      65.198
2015    4        1     5  57    5.8311   599.4    4.486      65.235
2015    4        1     6   2    5.8271   599.9    4.477      65.271
2015    4        1     6   8    5.8230   600.3    4.469      65.307
2015    4        1     6  14    5.8190   600.7    4.461      65.343
2015    4        1     6  20    5.8150   601.1    4.452      65.378
2015    4        1     6  26    5.8110   601.5    4.444      65.413
2015    4        1     6  32    5.8070   601.9    4.436      65.449
2015    4        1     6  38    5.8031   602.3    4.427      65.484
2015    4        1     6  44    5.7991   602.7    4.419      65.519
2015    4        1     6  50    5.7952   603.1    4.410      65.553
2015    4        1     6  55    5.7913   603.5    4.402      65.588
2015    4        1     7   1    5.7873   603.9    4.393      65.622
2015    4        1     7   7    5.7834   604.3    4.385      65.657
2015    4        1     7  13    5.7795   604.7    4.376      65.690
2015    4        1     7  19    5.7756   605.1    4.367      65.724
2015    4        1     7  25    5.7718   605.5    4.359      65.757
2015    4        1     7  31    5.7679   605.9    4.350      65.790
2015    4        1     7  37    5.7641   606.3    4.341      65.823
2015    4        1     7  43    5.7602   606.7    4.333      65.855
2015    4        1     7  48    5.7564   607.1    4.324      65.888
2015    4        1     7  54    5.7526   607.4    4.315      65.920
2015    4        1     8   0    5.7488   607.8    4.307      65.951
2015    4        1     8   6    5.7450   608.2    4.298      65.983
2015    4        1     8  12    5.7412   608.6    4.289      66.014
2015    4        1     8  18    5.7375   609.0    4.281      66.045
2015    4        1     8  24    5.7337   609.4    4.272      66.076
2015    4        1     8  30    5.7300   609.8    4.263      66.106
2015    4        1     8  36    5.7263   610.2    4.255      66.137
2015    4        1     8  41    5.7226   610.6    4.246      66.167
2015    4        1     8  47    5.7189   611.0    4.238      66.197
2015    4        1     8  53    5.7153   611.4    4.229      66.226
2015    4        1     8  59    5.7116   611.7    4.221      66.255
2015    4        1     9   5    5.7080   612.1    4.213      66.285
2015    4        1     9  11    5.7043   612.5    4.204      66.314
2015    4        1     9  17    5.7007   612.9    4.196      66.342
2015    4        1     9  23    5.6971   613.3    4.188      66.371
2015    4        1     9  29    5.6936   613.7    4.180      66.399
2015    4        1     9  34    5.6900   614.0    4.172      66.427
2015    4        1     9  40    5.6865   614.4    4.164      66.454
2015    4        1     9  46    5.6830   614.8    4.157      66.482
2015    4        1     9  52    5.6796   615.2    4.149      66.509
2015    4        1     9  58    5.6761   615.5    4.141      66.536
2015    4        1    10   4    5.6728   615.9    4.134      66.563
2015    4        1    10  10    5.6694   616.3    4.126      66.590
2015    4        1    10  16    5.6661   616.6    4.119      66.617
2015    4        1    10  21    5.6628   617.0    4.112      66.643
2015    4        1    10  27    5.6596   617.4    4.104      66.669
2015    4        1    10  33    5.6564   617.8    4.097      66.695
2015    4        1    10  39    5.6533   618.1    4.090      66.721
2015    4        1    10  45    5.6502   618.5    4.083      66.746
2015    4        1    10  51    5.6471   618.9    4.076      66.772
2015    4        1    10  57    5.6441   619.2    4.069      66.796
2015    4        1    11   3    5.6411   619.6    4.061      66.821
2015    4        1    11   9    5.6382   619.9    4.054      66.845
2015    4        1    11  14    5.6352   620.3    4.047      66.869
2015    4        1    11  20    5.6324   620.7    4.040      66.892
2015    4        1    11  26    5.6295   621.0    4.033      66.915
2015    4        1    11  32    5.6267   621.4    4.026      66.937
2015    4        1    11  38    5.6239   621.7    4.018      66.959
2015    4        1    11  44    5.6212   622.1    4.011      66.980
2015    4        1    11  50    5.6184   622.4    4.004      67.001
2015    4        1    11  56    5.6157   622.8    3.997      67.022
2015    4        1    12   2    5.6130   623.1    3.990      67.043
2015    4        1    12   7    5.6104   623.5    3.983      67.064
2015    4        1    12  13    5.6077   623.9    3.976      67.085
2015    4        1    12  19    5.6051   624.2    3.968      67.106
2015    4        1    12  25    5.6025   624.6    3.961      67.127
2015    4        1    12  31    5.5999   624.9    3.954      67.148
2015    4        1    12  37    5.5973   625.2    3.947      67.170
2015    4        1    12  43    5.5948   625.6    3.940      67.191
2015    4        1    12  49    5.5922   625.9    3.933      67.213
2015    4        1    12  55    5.5897   626.3    3.926      67.236
2015    4        1    13   0    5.5872   626.6    3.919      67.258
2015    4        1    13   6    5.5846   627.0    3.913      67.282
2015    4        1    13  12    5.5821   627.3    3.906      67.306
2015    4        1    13  18    5.5796   627.7    3.899      67.330
2015    4        1    13  24    5.5770   628.0    3.892      67.355
2015    4        1    13  30    5.5745   628.3    3.886      67.381
2015    4        1    13  36    5.5719   628.7    3.879      67.407
2015    4        1    13  42    5.5693   629.0    3.873      67.434
2015    4        1    13  48    5.5667   629.3    3.866      67.462
2015    4        1    13  53    5.5641   629.7    3.860      67.490
2015    4        1    13  59    5.5614   630.0    3.854      67.520
2015    4        1    14   5    5.5588   630.4    3.847      67.549
2015    4        1    14  11    5.5561   630.7    3.841      67.580
2015    4        1    14  17    5.5534   631.0    3.835      67.611
2015    4        1    14  23    5.5507   631.4    3.829      67.643
2015    4        1    14  29    5.5480   631.7    3.823      67.675
2015    4        1    14  35    5.5453   632.0    3.818      67.709
2015    4        1    14  41    5.5425   632.3    3.812      67.742
2015    4        1    14  46    5.5398   632.7    3.806      67.776
2015    4        1    14  52    5.5370   633.0    3.801      67.810
2015    4        1    14  58    5.5342   633.3    3.795      67.845
2015    4        1    15   4    5.5314   633.7    3.790      67.880
2015    4        1    15  10    5.5286   634.0    3.784      67.915
2015    4        1    15  16    5.5258   634.3    3.779      67.951
2015    4        1    15  22    5.5230   634.6    3.774      67.986
2015    4        1    15  28    5.5202   635.0    3.768      68.021
2015    4        1    15  34    5.5173   635.3    3.763      68.057
2015    4        1    15  39    5.5145   635.6    3.758      68.092
2015    4        1    15  45    5.5116   635.9    3.753      68.127
2015    4        1    15  51    5.5087   636.2    3.748      68.162
2015    4        1    15  57    5.5059   636.6    3.743      68.197
2015    4        1    16   3    5.5030   636.9    3.738      68.231
2015    4        1    16   9    5.5001   637.2    3.733      68.266
2015    4        1    16  15    5.4973   637.5    3.728      68.300
2015    4        1    16  21    5.4944   637.8    3.723      68.335
2015    4        1    16  27    5.4915   638.1    3.718      68.369
2015    4        1    16  32    5.4886   638.4    3.713      68.404
2015    4        1    16  38    5.4857   638.7    3.708      68.438
2015    4        1    16  44    5.4828   639.0    3.703      68.472
2015    4        1    16  50    5.4799   639.4    3.698      68.507
2015    4        1    16  56    5.4770   639.7    3.693      68.541
2015    4        1    17   2    5.4742   640.0    3.689      68.576
2015    4        1    17   8    5.4713   640.3    3.684      68.610
2015    4        1    17  14    5.4684   640.6    3.679      68.644
2015    4        1    17  20    5.4655   640.9    3.674      68.677
2015    4        1    17  25    5.4626   641.2    3.670      68.711
2015    4        1    17  31    5.4598   641.4    3.665      68.743
2015    4        1    17  37    5.4569   641.7    3.660      68.776
2015    4        1    17  43    5.4540   642.0    3.656      68.808
2015    4        1    17  49    5.4511   642.3    3.651      68.839
2015    4        1    17  55    5.4482   642.6    3.646      68.869
2015    4        1    18   1    5.4453   642.9    3.642      68.898
2015    4        1    18   7    5.4424   643.2    3.637      68.927
2015    4        1    18  13    5.4395   643.5    3.632      68.954
2015    4        1    18  18    5.4365   643.8    3.627      68.981
2015    4        1    18  24    5.4336   644.1    3.623      69.006
2015    4        1    18  30    5.4306   644.3    3.618      69.031
2015    4        1    18  36    5.4276   644.6    3.613      69.055
2015    4        1    18  42    5.4246   644.9    3.608      69.079
2015    4        1    18  48    5.4216   645.2    3.604      69.102
2015    4        1    18  54    5.4186   645.5    3.599      69.124
2015    4        1    19   0    5.4155   645.8    3.594      69.146
2015    4        1    19   6    5.4124   646.0    3.589      69.167
2015    4        1    19  11    5.4093   646.3    3.584      69.188
2015    4        1    19  17    5.4062   646.6    3.579      69.208
2015    4        1    19  23    5.4031   646.9    3.574      69.228
2015    4        1    19  29    5.4000   647.2    3.570      69.247
2015    4        1    19  35    5.3968   647.4    3.565      69.266
2015    4        1    19  41    5.3937   647.7    3.560      69.285
2015    4        1    19  47    5.3905   648.0    3.555      69.303
2015    4        1    19  53    5.3873   648.3    3.550      69.321
2015    4        1    19  59    5.3841   648.5    3.545      69.339
2015    4        1    20   4    5.3809   648.8    3.541      69.356
2015    4        1    20  10    5.3777   649.1    3.536      69.373
2015    4        1    20  16    5.3744   649.4    3.531      69.390
2015    4        1    20  22    5.3712   649.6    3.526      69.407
2015    4        1    20  28    5.3680   649.9    3.521      69.423
2015    4        1    20  34    5.3647   650.1    3.517      69.440
2015    4        1    20  40    5.3615   650.4    3.512      69.456
2015    4        1    20  46    5.3582   650.7    3.507      69.473
2015    4        1    20  52    5.3550   650.9    3.503      69.489
2015    4        1    20  57    5.3518   651.2    3.498      69.506
2015    4        1    21   3    5.3485   651.5    3.494      69.523
2015    4        1    21   9    5.3453   651.7    3.489      69.540
2015    4        1    21  15    5.3421   652.0    3.485      69.558
2015    4        1    21  21    5.3388   652.2    3.481      69.576
2015    4        1    21  27    5.3356   652.5    3.476      69.594
2015    4        1    21  33    5.3324   652.7    3.472      69.612
2015    4        1    21  39    5.3292   653.0    3.468      69.631
2015    4        1    21  45    5.3259   653.2    3.464      69.650
2015    4        1    21  50    5.3227   653.5    3.460      69.670
2015    4        1    21  56    5.3195   653.8    3.456      69.689
2015    4        1    22   2    5.3163   654.0    3.451      69.709
2015    4        1    22   8    5.3131   654.3    3.447      69.728
2015    4        1    22  14    5.3099   654.5    3.443      69.748
2015    4        1    22  20    5.3067   654.8    3.439      69.767
2015    4        1    22  26    5.3034   655.0    3.435      69.786
2015    4        1    22  32    5.3002   655.3    3.431      69.805
2015    4        1    22  38    5.2970   655.5    3.427      69.824
2015    4        1    22  43    5.2938   655.8    3.422      69.841
2015    4        1    22  49    5.2906   656.0    3.418      69.858
2015    4        1    22  55    5.2874   656.2    3.414      69.875
2015    4        1    23   1    5.2842   656.5    3.410      69.891
2015    4        1    23   7    5.2811   656.7    3.406      69.906
2015    4        1    23  13    5.2779   657.0    3.402      69.921
2015    4        1    23  19    5.2747   657.2    3.397      69.935
2015    4        1    23  25    5.2716   657.4    3.393      69.948
2015    4        1    23  31    5.2684   657.7    3.389      69.961
2015    4        1    23  36    5.2652   657.9    3.385      69.974
2015    4        1    23  42    5.2621   658.1    3.381      69.986
2015    4        1    23  48    5.2590   658.4    3.377      69.998
2015    4        1    23  54    5.2558   658.6    3.373      70.009
2015    4        2     0   0    5.2527   658.8    3.369      70.020
2015    4        2     0   6    5.2496   659.1    3.364      70.030
2015    4        2     0  12    5.2465   659.3    3.360      70.040
2015    4        2     0  18    5.2434   659.5    3.356      70.050
2015    4        2     0  24    5.2404   659.7    3.352      70.060
2015    4        2     0  29    5.2373   660.0    3.348      70.070
2015    4        2     0  35    5.2342   660.2    3.344      70.079
2015    4        2     0  41    5.2312   660.4    3.341      70.088
2015    4        2     0  47    5.2281   660.6    3.337      70.098
2015    4        2     0  53    5.2251   660.8    3.333      70.108
2015    4        2     0  59    5.2221   661.1    3.329      70.117
2015    4        2     1   5    5.2190   661.3    3.325      70.127
2015    4        2     1  11    5.2160   661.5    3.322      70.136
2015    4        2     1  16    5.2130   661.7    3.318      70.146
2015    4        2     1  22    5.2100   661.9    3.314      70.156
2015    4        2     1  28    5.2070   662.1    3.311      70.166
2015    4        2     1  34    5.2040   662.3    3.307      70.177
2015    4        2     1  40    5.2010   662.5    3.303      70.187
2015    4        2     1  46    5.1981   662.7    3.300      70.198
2015    4        2     1  52    5.1951   662.9    3.296      70.208
2015    4        2     1  58    5.1921   663.1    3.293      70.219
2015    4        2     2   4    5.1891   663.3    3.289      70.230
2015    4        2     2   9    5.1861   663.5    3.286      70.240
2015    4        2     2  15    5.1831   663.7    3.282      70.251
2015    4        2     2  21    5.1802   663.9    3.279      70.262
2015    4        2     2  27    5.1772   664.1    3.275      70.273
2015    4        2     2  33    5.1742   664.3    3.272      70.283
2015    4        2     2  39    5.1712   664.5    3.268      70.294
2015    4        2     2  45    5.1682   664.7    3.265      70.304
2015    4        2     2  51    5.1652   664.9    3.262      70.314
2015    4        2     2  57    5.1622   665.1    3.258      70.325
2015    4        2     3   2    5.1592   665.3    3.255      70.335
2015    4        2     3   8    5.1562   665.5    3.251      70.344
2015    4        2     3  14    5.1532   665.7    3.248      70.354
2015    4        2     3  20    5.1502   665.9    3.244      70.363
2015    4        2     3  26    5.1472   666.0    3.241      70.372
2015    4        2     3  32    5.1442   666.2    3.238      70.381
2015    4        2     3  38    5.1412   666.4    3.234      70.389
2015    4        2     3  44    5.1383   666.6    3.231      70.397
2015    4        2     3  50    5.1353   666.8    3.228      70.406
2015    4        2     3  55    5.1323   667.0    3.224      70.413
2015    4        2     4   1    5.1294   667.1    3.221      70.421
2015    4        2     4   7    5.1264   667.3    3.218      70.428
2015    4        2     4  13    5.1235   667.5    3.214      70.436
2015    4        2     4  19    5.1206   667.7    3.211      70.443
2015    4        2     4  25    5.1177   667.9    3.208      70.450
2015    4        2     4  31    5.1148   668.0    3.205      70.457
2015    4        2     4  37    5.1119   668.2    3.201      70.464
2015    4        2     4  43    5.1090   668.4    3.198      70.470
2015    4        2     4  48    5.1062   668.5    3.195      70.477
2015    4        2     4  54    5.1033   668.7    3.192      70.483
2015    4        2     5   0    5.1005   668.9    3.189      70.490
2015    4        2     5   6    5.0977   669.0    3.186      70.496
2015    4        2     5  12    5.0949   669.2    3.183      70.502
2015    4        2     5  18    5.0922   669.4    3.180      70.508
2015    4        2     5  24    5.0894   669.5    3.177      70.514
2015    4        2     5  30    5.0866   669.7    3.174      70.520
2015    4        2     5  36    5.0839   669.9    3.171      70.526
2015    4        2     5  41    5.0812   670.0    3.168      70.532
2015    4        2     5  47    5.0785   670.2    3.165      70.537
2015    4        2     5  53    5.0758   670.3    3.162      70.543
2015    4        2     5  59    5.0731   670.5    3.160      70.548
2015    4        2     6   5    5.0705   670.7    3.157      70.554
2015    4        2     6  11    5.0678   670.8    3.154      70.559
2015    4        2     6  17    5.0652   671.0    3.151      70.564
2015    4        2     6  23    5.0626   671.1    3.148      70.570
2015    4        2     6  29    5.0599   671.3    3.146      70.575
2015    4        2     6  34    5.0573   671.4    3.143      70.580
2015    4        2     6  40    5.0548   671.6    3.140      70.585
2015    4        2     6  46    5.0522   671.7    3.138      70.591
2015    4        2     6  52    5.0496   671.9    3.135      70.596
2015    4        2     6  58    5.0470   672.0    3.132      70.601
2015    4        2     7   4    5.0445   672.2    3.129      70.607
2015    4        2     7  10    5.0419   672.3    3.127      70.613
2015    4        2     7  16    5.0394   672.5    3.124      70.619
2015    4        2     7  22    5.0369   672.6    3.122      70.625
2015    4        2     7  27    5.0344   672.8    3.119      70.632
2015    4        2     7  33    5.0319   672.9    3.116      70.638
2015    4        2     7  39    5.0294   673.1    3.114      70.645
2015    4        2     7  45    5.0269   673.2    3.111      70.653
2015    4        2     7  51    5.0244   673.3    3.109      70.660
2015    4        2     7  57    5.0219   673.5    3.106      70.668
2015    4        2     8   3    5.0194   673.6    3.104      70.677
2015    4        2     8   9    5.0169   673.8    3.101      70.685
2015    4        2     8  15    5.0144   673.9    3.099      70.694
2015    4        2     8  20    5.0119   674.0    3.096      70.703
2015    4        2     8  26    5.0095   674.2    3.094      70.713
2015    4        2     8  32    5.0070   674.3    3.091      70.722
2015    4        2     8  38    5.0045   674.5    3.089      70.732
2015    4        2     8  44    5.0020   674.6    3.087      70.742
2015    4        2     8  50    4.9996   674.7    3.084      70.752
2015    4        2     8  56    4.9971   674.9    3.082      70.762
2015    4        2     9   2    4.9946   675.0    3.080      70.772
2015    4        2     9   8    4.9922   675.1    3.077      70.782
2015    4        2     9  13    4.9897   675.3    3.075      70.792
2015    4        2     9  19    4.9872   675.4    3.073      70.802
2015    4        2     9  25    4.9848   675.5    3.070      70.812
2015    4        2     9  31    4.9823   675.6    3.068      70.822
2015    4        2     9  37    4.9798   675.8    3.066      70.831
2015    4        2     9  43    4.9774   675.9    3.063      70.840
2015    4        2     9  49    4.9749   676.0    3.061      70.849
2015    4        2     9  55    4.9725   676.1    3.059      70.858
2015    4        2    10   1    4.9700   676.2    3.056      70.866
2015    4        2    10   6    4.9676   676.4    3.054      70.874
2015    4        2    10  12    4.9651   676.5    3.052      70.881
2015    4        2    10  18    4.9627   676.6    3.050      70.888
2015    4        2    10  24    4.9602   676.7    3.047      70.894
2015    4        2    10  30    4.9578   676.8    3.045      70.901
2015    4        2    10  36    4.9554   677.0    3.043      70.906
2015    4        2    10  42    4.9530   677.1    3.041      70.911
2015    4        2    10  48    4.9506   677.2    3.039      70.916
2015    4        2    10  54    4.9482   677.3    3.036      70.920
2015    4        2    10  59    4.9458   677.4    3.034      70.924
2015    4        2    11   5    4.9434   677.5    3.032      70.927
2015    4        2    11  11    4.9411   677.6    3.030      70.930
2015    4        2    11  17    4.9387   677.7    3.028      70.933
2015    4        2    11  23    4.9364   677.8    3.025      70.935
2015    4        2    11  29    4.9340   677.9    3.023      70.936
2015    4        2    11  35    4.9317   678.0    3.021      70.938
2015    4        2    11  41    4.9294   678.1    3.019      70.938
2015    4        2    11  47    4.9271   678.2    3.017      70.939
2015    4        2    11  52    4.9248   678.3    3.015      70.939
2015    4        2    11  58    4.9226   678.4    3.013      70.939
2015    4        2    12   4    4.9203   678.5    3.011      70.939
2015    4        2    12  10    4.9181   678.6    3.009      70.938
2015    4        2    12  16    4.9158   678.7    3.007      70.937
2015    4        2    12  22    4.9136   678.8    3.004      70.936
2015    4        2    12  28    4.9114   678.9    3.002      70.935
2015    4        2    12  34    4.9092   679.0    3.000      70.934
2015    4        2    12  40    4.9070   679.1    2.998      70.933
2015    4        2    12  45    4.9049   679.2    2.996      70.931
2015    4        2    12  51    4.9027   679.3    2.995      70.930
2015    4        2    12  57    4.9006   679.4    2.993      70.929
2015    4        2    13   3    4.8984   679.5    2.991      70.927
2015    4        2    13   9    4.8963   679.5    2.989      70.926
2015    4        2    13  15    4.8942   679.6    2.987      70.925
2015    4        2    13  21    4.8921   679.7    2.985      70.925
2015    4        2    13  27    4.8901   679.8    2.983      70.924
2015    4        2    13  33    4.8880   679.9    2.981      70.924
2015    4        2    13  38    4.8860   680.0    2.979      70.924
2015    4        2    13  44    4.8839   680.1    2.978      70.925
2015    4        2    13  50    4.8819   680.2    2.976      70.925
2015    4        2    13  56    4.8799   680.2    2.974      70.927
2015    4        2    14   2    4.8779   680.3    2.972      70.928
2015    4        2    14   8    4.8759   680.4    2.971      70.930
2015    4        2    14  14    4.8739   680.5    2.969      70.933
2015    4        2    14  20    4.8720   680.6    2.967      70.936
2015    4        2    14  26    4.8700   680.7    2.965      70.939
2015    4        2    14  31    4.8680   680.7    2.964      70.943
2015    4        2    14  37    4.8661   680.8    2.962      70.948
2015    4        2    14  43    4.8642   680.9    2.961      70.953
2015    4        2    14  49    4.8622   681.0    2.959      70.958
2015    4        2    14  55    4.8603   681.1    2.957      70.964
2015    4        2    15   1    4.8584   681.1    2.956      70.970
2015    4        2    15   7    4.8564   681.2    2.954      70.977
2015    4        2    15  13    4.8545   681.3    2.953      70.983
2015    4        2    15  19    4.8526   681.4    2.951      70.991
2015    4        2    15  24    4.8507   681.5    2.950      70.998
2015    4        2    15  30    4.8488   681.5    2.948      71.006
2015    4        2    15  36    4.8468   681.6    2.947      71.014
2015    4        2    15  42    4.8449   681.7    2.945      71.023
2015    4        2    15  48    4.8430   681.8    2.944      71.031
2015    4        2    15  54    4.8411   681.8    2.942      71.040
2015    4        2    16   0    4.8392   681.9    2.941      71.049
2015    4        2    16   6    4.8373   682.0    2.939      71.058
2015    4        2    16  12    4.8354   682.1    2.938      71.067
2015    4        2    16  17    4.8335   682.1    2.936      71.076
2015    4        2    16  23    4.8316   682.2    2.935      71.084
2015    4        2    16  29    4.8296   682.3    2.933      71.093
2015    4        2    16  35    4.8277   682.4    2.932      71.101
2015    4        2    16  41    4.8258   682.4    2.931      71.110
2015    4        2    16  47    4.8239   682.5    2.929      71.118
2015    4        2    16  53    4.8220   682.6    2.928      71.125
2015    4        2    16  59    4.8201   682.6    2.926      71.133
2015    4        2    17   4    4.8182   682.7    2.925      71.140
2015    4        2    17  10    4.8163   682.8    2.923      71.146
2015    4        2    17  16    4.8144   682.9    2.922      71.152
2015    4        2    17  22    4.8125   682.9    2.920      71.158
2015    4        2    17  28    4.8106   683.0    2.919      71.163
2015    4        2    17  34    4.8087   683.0    2.917      71.168
2015    4        2    17  40    4.8068   683.1    2.916      71.172
2015    4        2    17  46    4.8049   683.2    2.915      71.176
2015    4        2    17  52    4.8031   683.2    2.913      71.179
2015    4        2    17  57    4.8012   683.3    2.912      71.182
2015    4        2    18   3    4.7993   683.4    2.910      71.184
2015    4        2    18   9    4.7975   683.4    2.909      71.185
2015    4        2    18  15    4.7956   683.5    2.907      71.186
2015    4        2    18  21    4.7938   683.5    2.906      71.187
2015    4        2    18  27    4.7919   683.6    2.904      71.186
2015    4        2    18  33    4.7901   683.6    2.903      71.186
2015    4        2    18  39    4.7882   683.7    2.901      71.185
2015    4        2    18  45    4.7864   683.7    2.900      71.183
2015    4        2    18  50    4.7846   683.8    2.899      71.181
2015    4        2    18  56    4.7828   683.9    2.897      71.179
2015    4        2    19   2    4.7810   683.9    2.896      71.176
2015    4        2    19   8    4.7793   684.0    2.894      71.173
2015    4        2    19  14    4.7775   684.0    2.893      71.170
2015    4        2    19  20    4.7757   684.0    2.891      71.166
2015    4        2    19  26    4.7740   684.1    2.890      71.162
2015    4        2    19  32    4.7723   684.1    2.888      71.158
2015    4        2    19  38    4.7705   684.2    2.887      71.153
2015    4        2    19  43    4.7688   684.2    2.886      71.149
2015    4        2    19  49    4.7671   684.3    2.884      71.144
2015    4        2    19  55    4.7655   684.3    2.883      71.140
2015    4        2    20   1    4.7638   684.4    2.881      71.135
2015    4        2    20   7    4.7621   684.4    2.880      71.130
2015    4        2    20  13    4.7605   684.4    2.879      71.126
2015    4        2    20  19    4.7588   684.5    2.877      71.121
2015    4        2    20  25    4.7572   684.5    2.876      71.117
2015    4        2    20  31    4.7556   684.6    2.875      71.113
2015    4        2    20  37    4.7540   684.6    2.873      71.109
2015    4        2    20  42    4.7524   684.7    2.872      71.106
2015    4        2    20  48    4.7509   684.7    2.871      71.103
2015    4        2    20  54    4.7493   684.7    2.869      71.100
2015    4        2    21   0    4.7478   684.8    2.868      71.098
2015    4        2    21   6    4.7462   684.8    2.867      71.096
2015    4        2    21  12    4.7447   684.9    2.866      71.094
2015    4        2    21  18    4.7432   684.9    2.864      71.093
2015    4        2    21  24    4.7417   684.9    2.863      71.093
2015    4        2    21  29    4.7402   685.0    2.862      71.093
2015    4        2    21  35    4.7387   685.0    2.861      71.093
2015    4        2    21  41    4.7373   685.1    2.860      71.094
2015    4        2    21  47    4.7358   685.1    2.858      71.096
2015    4        2    21  53    4.7343   685.1    2.857      71.098
2015    4        2    21  59    4.7329   685.2    2.856      71.100
2015    4        2    22   5    4.7314   685.2    2.855      71.103
2015    4        2    22  11    4.7299   685.2    2.854      71.106
2015    4        2    22  17    4.7285   685.3    2.853      71.110
2015    4        2    22  22    4.7270   685.3    2.852      71.114
2015    4        2    22  28    4.7256   685.4    2.851      71.119
2015    4        2    22  34    4.7241   685.4    2.850      71.124
2015    4        2    22  40    4.7227   685.4    2.849      71.129
2015    4        2    22  46    4.7212   685.5    2.848      71.134
2015    4        2    22  52    4.7198   685.5    2.847      71.140
2015    4        2    22  58    4.7183   685.6    2.846      71.146
2015    4        2    23   4    4.7168   685.6    2.845      71.152
2015    4        2    23  10    4.7154   685.6    2.844      71.158
2015    4        2    23  15    4.7139   685.7    2.843      71.164
2015    4        2    23  21    4.7124   685.7    2.842      71.170
2015    4        2    23  27    4.7110   685.7    2.841      71.177
2015    4        2    23  33    4.7095   685.8    2.840      71.183
2015    4        2    23  39    4.7081   685.8    2.839      71.189
2015    4        2    23  45    4.7066   685.8    2.838      71.195
2015    4        2    23  51    4.7051   685.9    2.837      71.201
2015    4        2    23  57    4.7036   685.9    2.836      71.207
2015    4        3     0   3    4.7022   686.0    2.835      71.213
2015    4        3     0   8    4.7007   686.0    2.834      71.218
2015    4        3     0  14    4.6992   686.0    2.833      71.224
2015    4        3     0  20    4.6978   686.1    2.832      71.229
2015    4        3     0  26    4.6963   686.1    2.831      71.234
2015    4        3     0  32    4.6948   686.1    2.830      71.238
2015    4        3     0  38    4.6934   686.2    2.830      71.242
2015    4        3     0  44    4.6919   686.2    2.829      71.246
2015    4        3     0  50    4.6905   686.2    2.828      71.250
2015    4        3     0  56    4.6890   686.2    2.827      71.253
2015    4        3     1   1    4.6875   686.3    2.826      71.256
2015    4        3     1   7    4.6861   686.3    2.825      71.258
2015    4        3     1  13    4.6846   686.3    2.824      71.261
2015    4        3     1  19    4.6832   686.4    2.823      71.262
2015    4        3     1  25    4.6817   686.4    2.822      71.263
2015    4        3     1  31    4.6803   686.4    2.821      71.264
2015    4        3     1  37    4.6788   686.5    2.821      71.265
2015    4        3     1  43    4.6773   686.5    2.820      71.265
2015    4        3     1  49    4.6759   686.5    2.819      71.264
2015    4        3     1  54    4.6745   686.5    2.818      71.263
2015    4        3     2   0    4.6730   686.6    2.817      71.262
2015    4        3     2   6    4.6716   686.6    2.816      71.260
2015    4        3     2  12    4.6702   686.6    2.815      71.258
2015    4        3     2  18    4.6687   686.6    2.814      71.255
2015    4        3     2  24    4.6673   686.6    2.813      71.252
2015    4        3     2  30    4.6659   686.7    2.812      71.248
2015    4        3     2  36    4.6645   686.7    2.811      71.245
2015    4        3     2  42    4.6631   686.7    2.810      71.240
2015    4        3     2  47    4.6617   686.7    2.809      71.236
2015    4        3     2  53    4.6603   686.7    2.808      71.231
2015    4        3     2  59    4.6589   686.8    2.807      71.226
2015    4        3     3   5    4.6576   686.8    2.806      71.221
2015    4        3     3  11    4.6562   686.8    2.805      71.216
2015    4        3     3  17    4.6549   686.8    2.804      71.211
2015    4        3     3  23    4.6536   686.8    2.803      71.206
2015    4        3     3  29    4.6523   686.8    2.802      71.201
2015    4        3     3  35    4.6509   686.8    2.801      71.196
2015    4        3     3  40    4.6497   686.9    2.800      71.191
2015    4        3     3  46    4.6484   686.9    2.799      71.186
2015    4        3     3  52    4.6471   686.9    2.798      71.182
2015    4        3     3  58    4.6459   686.9    2.797      71.177
2015    4        3     4   4    4.6446   686.9    2.796      71.173
2015    4        3     4  10    4.6434   686.9    2.795      71.170
2015    4        3     4  16    4.6421   686.9    2.794      71.166
2015    4        3     4  22    4.6409   687.0    2.793      71.163
2015    4        3     4  28    4.6397   687.0    2.792      71.160
2015    4        3     4  33    4.6385   687.0    2.791      71.158
2015    4        3     4  39    4.6373   687.0    2.790      71.156
2015    4        3     4  45    4.6362   687.0    2.789      71.154
2015    4        3     4  51    4.6350   687.0    2.788      71.153
2015    4        3     4  57    4.6338   687.0    2.788      71.151
2015    4        3     5   3    4.6326   687.0    2.787      71.151
2015    4        3     5   9    4.6315   687.1    2.786      71.150
2015    4        3     5  15    4.6303   687.1    2.785      71.150
2015    4        3     5  21    4.6291   687.1    2.784      71.150
2015    4        3     5  26    4.6280   687.1    2.783      71.150
2015    4        3     5  32    4.6268   687.1    2.783      71.150
2015    4        3     5  38    4.6256   687.1    2.782      71.150
2015    4        3     5  44    4.6244   687.1    2.781      71.151
2015    4        3     5  50    4.6232   687.1    2.780      71.151
2015    4        3     5  56    4.6221   687.2    2.779      71.152
2015    4        3     6   2    4.6209   687.2    2.779      71.153
2015    4        3     6   8    4.6197   687.2    2.778      71.153
2015    4        3     6  14    4.6185   687.2    2.777      71.154
2015    4        3     6  19    4.6173   687.2    2.776      71.155
2015    4        3     6  25    4.6161   687.2    2.775      71.155
2015    4        3     6  31    4.6149   687.2    2.775      71.156
2015    4        3     6  37    4.6137   687.2    2.774      71.156
2015    4        3     6  43    4.6125   687.2    2.773      71.157
2015    4        3     6  49    4.6113   687.3    2.772      71.158
2015    4        3     6  55    4.6101   687.3    2.772      71.159
2015    4        3     7   1    4.6089   687.3    2.771      71.159
2015    4        3     7   7    4.6077   687.3    2.770      71.160
2015    4        3     7  12    4.6065   687.3    2.770      71.161
2015    4        3     7  18    4.6053   687.3    2.769      71.162
2015    4        3     7  24    4.6041   687.3    2.768      71.162
2015    4        3     7  30    4.6029   687.3    2.768      71.163
2015    4        3     7  36    4.6018   687.3    2.767      71.165
2015    4        3     7  42    4.6006   687.3    2.767      71.166
2015    4        3     7  48    4.5994   687.3    2.766      71.167
2015    4        3     7  54    4.5982   687.4    2.766      71.168
2015    4        3     8   0    4.5971   687.4    2.765      71.170
2015    4        3     8   5    4.5959   687.4    2.765      71.171
2015    4        3     8  11    4.5947   687.4    2.764      71.173
2015    4        3     8  17    4.5936   687.4    2.764      71.175
2015    4        3     8  23    4.5924   687.4    2.763      71.176
2015    4        3     8  29    4.5912   687.4    2.763      71.178
2015    4        3     8  35    4.5901   687.4    2.763      71.179
2015    4        3     8  41    4.5889   687.4    2.762      71.181
2015    4        3     8  47    4.5877   687.4    2.762      71.182
2015    4        3     8  53    4.5866   687.4    2.761      71.183
2015    4        3     8  58    4.5854   687.5    2.761      71.184
2015    4        3     9   4    4.5842   687.5    2.760      71.184
2015    4        3     9  10    4.5831   687.5    2.760      71.185
2015    4        3     9  16    4.5819   687.5    2.760      71.184
2015    4        3     9  22    4.5807   687.5    2.759      71.184
2015    4        3     9  28    4.5795   687.5    2.759      71.183
2015    4        3     9  34    4.5783   687.5    2.758      71.182
2015    4        3     9  40    4.5771   687.5    2.758      71.180
2015    4        3     9  46    4.5759   687.5    2.757      71.178
2015    4        3     9  51    4.5748   687.5    2.756      71.176
2015    4        3     9  57    4.5736   687.5    2.756      71.173
2015    4        3    10   3    4.5724   687.5    2.755      71.170
2015    4        3    10   9    4.5712   687.5    2.754      71.166
2015    4        3    10  15    4.5701   687.5    2.754      71.162
2015    4        3    10  21    4.5689   687.5    2.753      71.158
2015    4        3    10  27    4.5677   687.5    2.752      71.153
2015    4        3    10  33    4.5666   687.5    2.752      71.148
2015    4        3    10  39    4.5654   687.5    2.751      71.143
2015    4        3    10  44    4.5643   687.5    2.750      71.138
2015    4        3    10  50    4.5632   687.5    2.749      71.132
2015    4        3    10  56    4.5620   687.5    2.748      71.127
2015    4        3    11   2    4.5609   687.5    2.748      71.121
2015    4        3    11   8    4.5598   687.5    2.747      71.116
2015    4        3    11  14    4.5587   687.5    2.746      71.110
2015    4        3    11  20    4.5576   687.5    2.745      71.105
2015    4        3    11  26    4.5565   687.5    2.744      71.100
2015    4        3    11  32    4.5554   687.5    2.743      71.094
2015    4        3    11  37    4.5543   687.5    2.743      71.089
2015    4        3    11  43    4.5533   687.5    2.742      71.084
2015    4        3    11  49    4.5522   687.5    2.741      71.079
2015    4        3    11  55    4.5511   687.5    2.740      71.074
2015    4        3    12   1    4.5500   687.5    2.739      71.070
2015    4        3    12   7    4.5490   687.5    2.739      71.065
2015    4        3    12  13    4.5479   687.5    2.738      71.060
2015    4        3    12  19    4.5468   687.5    2.737      71.056
2015    4        3    12  24    4.5457   687.5    2.736      71.051
2015    4        3    12  30    4.5447   687.4    2.736      71.046
2015    4        3    12  36    4.5436   687.4    2.735      71.041
2015    4        3    12  42    4.5425   687.4    2.734      71.037
2015    4        3    12  48    4.5414   687.4    2.733      71.032
2015    4        3    12  54    4.5403   687.4    2.733      71.027
2015    4        3    13   0    4.5392   687.4    2.732      71.022
2015    4        3    13   6    4.5381   687.4    2.731      71.016
2015    4        3    13  12    4.5370   687.4    2.730      71.011
2015    4        3    13  17    4.5359   687.4    2.730      71.006
2015    4        3    13  23    4.5348   687.4    2.729      71.001
2015    4        3    13  29    4.5337   687.4    2.728      70.996
2015    4        3    13  35    4.5326   687.4    2.728      70.991
2015    4        3    13  41    4.5315   687.4    2.727      70.986
2015    4        3    13  47    4.5304   687.3    2.727      70.981
2015    4        3    13  53    4.5293   687.3    2.726      70.977
2015    4        3    13  59    4.5282   687.3    2.725      70.972
2015    4        3    14   5    4.5272   687.3    2.725      70.968
2015    4        3    14  10    4.5261   687.3    2.725      70.964
2015    4        3    14  16    4.5250   687.3    2.724      70.961
2015    4        3    14  22    4.5239   687.3    2.724      70.958
2015    4        3    14  28    4.5229   687.3    2.723      70.955
2015    4        3    14  34    4.5218   687.3    2.723      70.953
2015    4        3    14  40    4.5207   687.3    2.723      70.951
2015    4        3    14  46    4.5197   687.3    2.722      70.950
2015    4        3    14  52    4.5186   687.2    2.722      70.948
2015    4        3    14  58    4.5176   687.2    2.722      70.947
2015    4        3    15   3    4.5165   687.2    2.722      70.947
2015    4        3    15   9    4.5155   687.2    2.722      70.946
2015    4        3    15  15    4.5145   687.2    2.721      70.946
2015    4        3    15  21    4.5134   687.2    2.721      70.946
2015    4        3    15  27    4.5124   687.2    2.721      70.947
2015    4        3    15  33    4.5113   687.2    2.721      70.947
2015    4        3    15  39    4.5103   687.2    2.721      70.948
2015    4        3    15  45    4.5092   687.2    2.721      70.949
2015    4        3    15  51    4.5081   687.2    2.721      70.950
2015    4        3    15  56    4.5071   687.2    2.721      70.951
2015    4        3    16   2    4.5060   687.2    2.720      70.953
2015    4        3    16   8    4.5050   687.2    2.720      70.954
2015    4        3    16  14    4.5039   687.2    2.720      70.955
2015    4        3    16  20    4.5028   687.2    2.720      70.956
2015    4        3    16  26    4.5017   687.2    2.719      70.956
2015    4        3    16  32    4.5006   687.2    2.719      70.956
2015    4        3    16  38    4.4995   687.2    2.718      70.955
2015    4        3    16  44    4.4984   687.1    2.718      70.954
2015    4        3    16  49    4.4973   687.1    2.718      70.952
2015    4        3    16  55    4.4962   687.1    2.717      70.949
2015    4        3    17   1    4.4950   687.1    2.717      70.946
2015    4        3    17   7    4.4939   687.1    2.716      70.943
2015    4        3    17  13    4.4928   687.1    2.715      70.939
2015    4        3    17  19    4.4917   687.1    2.715      70.934
2015    4        3    17  25    4.4906   687.1    2.714      70.929
2015    4        3    17  31    4.4895   687.1    2.714      70.923
2015    4        3    17  37    4.4883   687.1    2.713      70.917
2015    4        3    17  42    4.4872   687.1    2.712      70.911
2015    4        3    17  48    4.4861   687.1    2.711      70.904
2015    4        3    17  54    4.4850   687.1    2.710      70.897
2015    4        3    18   0    4.4839   687.1    2.710      70.889
2015    4        3    18   6    4.4827   687.1    2.709      70.881
2015    4        3    18  12    4.4816   687.1    2.708      70.873
2015    4        3    18  18    4.4805   687.1    2.707      70.864
2015    4        3    18  24    4.4793   687.1    2.706      70.856
2015    4        3    18  30    4.4782   687.0    2.705      70.847
2015    4        3    18  35    4.4771   687.0    2.704      70.838
2015    4        3    18  41    4.4759   687.0    2.703      70.828
2015    4        3    18  47    4.4748   687.0    2.703      70.819
2015    4        3    18  53    4.4736   687.0    2.702      70.809
2015    4        3    18  59    4.4725   687.0    2.701      70.799
2015    4        3    19   5    4.4713   687.0    2.700      70.789
2015    4        3    19  11    4.4701   687.0    2.699      70.779
2015    4        3    19  17    4.4690   686.9    2.698      70.769
2015    4        3    19  23    4.4678   686.9    2.697      70.759
2015    4        3    19  28    4.4666   686.9    2.696      70.749
2015    4        3    19  34    4.4655   686.9    2.695      70.739
2015    4        3    19  40    4.4643   686.9    2.695      70.729
2015    4        3    19  46    4.4631   686.9    2.694      70.719
2015    4        3    19  52    4.4619   686.8    2.693      70.709
2015    4        3    19  58    4.4607   686.8    2.692      70.699
2015    4        3    20   4    4.4596   686.8    2.691      70.689
2015    4        3    20  10    4.4584   686.8    2.691      70.679
2015    4        3    20  16    4.4572   686.8    2.690      70.669
2015    4        3    20  21    4.4560   686.7    2.689      70.660
2015    4        3    20  27    4.4548   686.7    2.689      70.650
2015    4        3    20  33    4.4536   686.7    2.688      70.641
2015    4        3    20  39    4.4524   686.7    2.688      70.632
2015    4        3    20  45    4.4513   686.7    2.687      70.623
2015    4        3    20  51    4.4501   686.6    2.687      70.615
2015    4        3    20  57    4.4489   686.6    2.686      70.606
2015    4        3    21   3    4.4477   686.6    2.686      70.599
2015    4        3    21   9    4.4466   686.6    2.685      70.591
2015    4        3    21  14    4.4454   686.5    2.685      70.584
2015    4        3    21  20    4.4442   686.5    2.685      70.577
2015    4        3    21  26    4.4431   686.5    2.684      70.571
2015    4        3    21  32    4.4419   686.5    2.684      70.565
2015    4        3    21  38    4.4407   686.4    2.684      70.559
2015    4        3    21  44    4.4396   686.4    2.683      70.554
2015    4        3    21  50    4.4384   686.4    2.683      70.549
2015    4        3    21  56    4.4373   686.4    2.683      70.545
2015    4        3    22   2    4.4361   686.3    2.683      70.540
2015    4        3    22   7    4.4349   686.3    2.682      70.536
2015    4        3    22  13    4.4338   686.3    2.682      70.532
2015    4        3    22  19    4.4326   686.3    2.682      70.528
2015    4        3    22  25    4.4314   686.2    2.682      70.524
2015    4        3    22  31    4.4303   686.2    2.681      70.519
2015    4        3    22  37    4.4291   686.2    2.681      70.515
2015    4        3    22  43    4.4279   686.2    2.681      70.511
2015    4        3    22  49    4.4267   686.1    2.681      70.507
2015    4        3    22  55    4.4255   686.1    2.680      70.502
2015    4        3    23   0    4.4243   686.1    2.680      70.497
2015    4        3    23   6    4.4231   686.1    2.680      70.493
2015    4        3    23  12    4.4219   686.1    2.679      70.488
2015    4        3    23  18    4.4207   686.0    2.679      70.483
2015    4        3    23  24    4.4195   686.0    2.678      70.478
2015    4        3    23  30    4.4183   686.0    2.678      70.472
2015    4        3    23  36    4.4170   686.0    2.677      70.466
2015    4        3    23  42    4.4158   686.0    2.677      70.460
2015    4        3    23  48    4.4146   685.9    2.676      70.453
2015    4        3    23  53    4.4134   685.9    2.675      70.445
2015    4        3    23  59    4.4121   685.9    2.675      70.436
2015    4        4     0   5    4.4109   685.9    2.674      70.428
2015    4        4     0  11    4.4097   685.8    2.673      70.418
2015    4        4     0  17    4.4085   685.8    2.673      70.408
2015    4        4     0  23    4.4072   685.8    2.672      70.398
2015    4        4     0  29    4.4060   685.8    2.671      70.387
2015    4        4     0  35    4.4048   685.8    2.671      70.376
2015    4        4     0  41    4.4036   685.7    2.670      70.364
2015    4        4     0  46    4.4023   685.7    2.669      70.352
2015    4        4     0  52    4.4011   685.7    2.668      70.340
2015    4        4     0  58    4.3999   685.7    2.668      70.328
2015    4        4     1   4    4.3987   685.6    2.667      70.316
2015    4        4     1  10    4.3975   685.6    2.666      70.304
2015    4        4     1  16    4.3963   685.6    2.665      70.291
2015    4        4     1  22    4.3951   685.6    2.664      70.279
2015    4        4     1  28    4.3938   685.6    2.664      70.266
2015    4        4     1  34    4.3926   685.5    2.663      70.254
2015    4        4     1  39    4.3913   685.5    2.662      70.241
2015    4        4     1  45    4.3901   685.5    2.661      70.228
2015    4        4     1  51    4.3888   685.5    2.661      70.216
2015    4        4     1  57    4.3875   685.4    2.660      70.203
2015    4        4     2   3    4.3862   685.4    2.659      70.190
2015    4        4     2   9    4.3849   685.4    2.658      70.177
2015    4        4     2  15    4.3836   685.4    2.658      70.165
2015    4        4     2  21    4.3823   685.3    2.657      70.152
2015    4        4     2  27    4.3810   685.3    2.656      70.139
2015    4        4     2  32    4.3796   685.3    2.656      70.126
2015    4        4     2  38    4.3783   685.2    2.655      70.114
2015    4        4     2  44    4.3770   685.2    2.654      70.101
2015    4        4     2  50    4.3756   685.2    2.654      70.089
2015    4        4     2  56    4.3743   685.2    2.653      70.076
2015    4        4     3   2    4.3729   685.1    2.652      70.064
2015    4        4     3   8    4.3716   685.1    2.652      70.052
2015    4        4     3  14    4.3702   685.1    2.651      70.040
2015    4        4     3  20    4.3688   685.0    2.651      70.028
2015    4        4     3  25    4.3675   685.0    2.650      70.017
2015    4        4     3  31    4.3661   685.0    2.650      70.006
2015    4        4     3  37    4.3647   684.9    2.649      69.995
2015    4        4     3  43    4.3634   684.9    2.648      69.984
2015    4        4     3  49    4.3620   684.9    2.648      69.973
2015    4        4     3  55    4.3606   684.8    2.647      69.963
2015    4        4     4   1    4.3593   684.8    2.647      69.952
2015    4        4     4   7    4.3579   684.7    2.646      69.942
2015    4        4     4  12    4.3566   684.7    2.646      69.932
2015    4        4     4  18    4.3552   684.7    2.645      69.922
2015    4        4     4  24    4.3539   684.6    2.645      69.912
2015    4        4     4  30    4.3525   684.6    2.644      69.902
2015    4        4     4  36    4.3511   684.6    2.644      69.892
2015    4        4     4  42    4.3498   684.5    2.643      69.881
2015    4        4     4  48    4.3484   684.5    2.643      69.871
2015    4        4     4  54    4.3471   684.5    2.642      69.861
2015    4        4     5   0    4.3457   684.4    2.642      69.850
2015    4        4     5   5    4.3443   684.4    2.641      69.840
2015    4        4     5  11    4.3429   684.3    2.641      69.829
2015    4        4     5  17    4.3416   684.3    2.640      69.817
2015    4        4     5  23    4.3402   684.3    2.639      69.806
2015    4        4     5  29    4.3388   684.2    2.639      69.794
2015    4        4     5  35    4.3374   684.2    2.638      69.782
2015    4        4     5  41    4.3360   684.1    2.637      69.769
2015    4        4     5  47    4.3346   684.1    2.637      69.756
2015    4        4     5  53    4.3332   684.1    2.636      69.743
2015    4        4     5  58    4.3319   684.0    2.635      69.729
2015    4        4     6   4    4.3304   684.0    2.635      69.714
2015    4        4     6  10    4.3290   683.9    2.634      69.699
2015    4        4     6  16    4.3276   683.9    2.633      69.684
2015    4        4     6  22    4.3262   683.8    2.633      69.668
2015    4        4     6  28    4.3248   683.8    2.632      69.651
2015    4        4     6  34    4.3234   683.7    2.631      69.634
2015    4        4     6  40    4.3220   683.7    2.631      69.617
2015    4        4     6  46    4.3206   683.6    2.630      69.599
2015    4        4     6  51    4.3192   683.6    2.629      69.581
2015    4        4     6  57    4.3178   683.5    2.628      69.562
2015    4        4     7   3    4.3164   683.5    2.628      69.543
2015    4        4     7   9    4.3150   683.4    2.627      69.524
2015    4        4     7  15    4.3136   683.3    2.627      69.505
2015    4        4     7  21    4.3122   683.3    2.626      69.486
2015    4        4     7  27    4.3109   683.2    2.625      69.467
2015    4        4     7  33    4.3095   683.2    2.625      69.448
2015    4        4     7  39    4.3082   683.1    2.624      69.430
2015    4        4     7  44    4.3068   683.1    2.624      69.411
2015    4        4     7  50    4.3055   683.0    2.623      69.393
2015    4        4     7  56    4.3042   683.0    2.623      69.376
2015    4        4     8   2    4.3029   682.9    2.623      69.359
2015    4        4     8   8    4.3016   682.8    2.622      69.342
2015    4        4     8  14    4.3003   682.8    2.622      69.326
2015    4        4     8  20    4.2991   682.7    2.622      69.311
2015    4        4     8  26    4.2978   682.7    2.621      69.296
2015    4        4     8  32    4.2966   682.6    2.621      69.282
2015    4        4     8  37    4.2953   682.6    2.621      69.268
2015    4        4     8  43    4.2940   682.5    2.621      69.254
2015    4        4     8  49    4.2927   682.5    2.621      69.242
2015    4        4     8  55    4.2914   682.4    2.621      69.229
2015    4        4     9   1    4.2901   682.4    2.621      69.217
2015    4        4     9   7    4.2888   682.3    2.621      69.205
2015    4        4     9  13    4.2874   682.3    2.620      69.194
2015    4        4     9  19    4.2860   682.2    2.620      69.183
2015    4        4     9  25    4.2846   682.2    2.620      69.172
2015    4        4     9  30    4.2832   682.1    2.620      69.161
2015    4        4     9  36    4.2818   682.1    2.620      69.150
2015    4        4     9  42    4.2803   682.0    2.619      69.138
2015    4        4     9  48    4.2789   682.0    2.619      69.125
2015    4        4     9  54    4.2774   681.9    2.619      69.112
2015    4        4    10   0    4.2760   681.9    2.618      69.099
2015    4        4    10   6    4.2745   681.8    2.618      69.085
2015    4        4    10  12    4.2730   681.8    2.617      69.070
2015    4        4    10  18    4.2715   681.7    2.617      69.056
2015    4        4    10  23    4.2701   681.7    2.616      69.040
2015    4        4    10  29    4.2686   681.6    2.616      69.025
2015    4        4    10  35    4.2671   681.6    2.615      69.008
2015    4        4    10  41    4.2656   681.5    2.615      68.992
2015    4        4    10  47    4.2641   681.4    2.614      68.975
2015    4        4    10  53    4.2626   681.4    2.613      68.957
2015    4        4    10  59    4.2611   681.3    2.613      68.940
2015    4        4    11   5    4.2595   681.3    2.612      68.922
2015    4        4    11  11    4.2580   681.2    2.611      68.903
2015    4        4    11  16    4.2565   681.2    2.611      68.885
2015    4        4    11  22    4.2550   681.1    2.610      68.866
2015    4        4    11  28    4.2535   681.1    2.609      68.847
2015    4        4    11  34    4.2520   681.0    2.609      68.827
2015    4        4    11  40    4.2505   681.0    2.608      68.808
2015    4        4    11  46    4.2490   680.9    2.607      68.788
2015    4        4    11  52    4.2475   680.8    2.606      68.769
2015    4        4    11  58    4.2460   680.8    2.606      68.749
2015    4        4    12   4    4.2445   680.7    2.605      68.730
2015    4        4    12   9    4.2430   680.7    2.604      68.710
2015    4        4    12  15    4.2415   680.6    2.603      68.690
2015    4        4    12  21    4.2400   680.6    2.603      68.671
2015    4        4    12  27    4.2385   680.5    2.602      68.652
2015    4        4    12  33    4.2370   680.4    2.601      68.632
2015    4        4    12  39    4.2355   680.4    2.601      68.613
2015    4        4    12  45    4.2340   680.3    2.600      68.594
2015    4        4    12  51    4.2325   680.3    2.599      68.576
2015    4        4    12  57    4.2310   680.2    2.599      68.557
2015    4        4    13   2    4.2295   680.1    2.598      68.538
2015    4        4    13   8    4.2280   680.1    2.598      68.519
2015    4        4    13  14    4.2265   680.0    2.597      68.501
2015    4        4    13  20    4.2250   680.0    2.597      68.482
2015    4        4    13  26    4.2235   679.9    2.596      68.463
2015    4        4    13  32    4.2221   679.8    2.596      68.445
2015    4        4    13  38    4.2206   679.8    2.595      68.426
2015    4        4    13  44    4.2191   679.7    2.595      68.406
2015    4        4    13  50    4.2175   679.6    2.595      68.387
2015    4        4    13  55    4.2160   679.5    2.594      68.367
2015    4        4    14   1    4.2145   679.5    2.594      68.347
2015    4        4    14   7    4.2130   679.4    2.594      68.326
2015    4        4    14  13    4.2115   679.3    2.593      68.306
2015    4        4    14  19    4.2100   679.3    2.593      68.284
2015    4        4    14  25    4.2085   679.2    2.593      68.263
2015    4        4    14  31    4.2069   679.1    2.592      68.242
2015    4        4    14  37    4.2054   679.0    2.592      68.220
2015    4        4    14  43    4.2039   678.9    2.592      68.198
2015    4        4    14  48    4.2024   678.9    2.592      68.176
2015    4        4    14  54    4.2010   678.8    2.592      68.154
2015    4        4    15   0    4.1995   678.7    2.591      68.132
2015    4        4    15   6    4.1980   678.6    2.591      68.110
2015    4        4    15  12    4.1966   678.5    2.591      68.089
2015    4        4    15  18    4.1951   678.5    2.591      68.068
2015    4        4    15  24    4.1937   678.4    2.591      68.047
2015    4        4    15  30    4.1923   678.3    2.591      68.026
2015    4        4    15  36    4.1909   678.2    2.591      68.006
2015    4        4    15  41    4.1895   678.1    2.591      67.987
2015    4        4    15  47    4.1881   678.0    2.591      67.967
2015    4        4    15  53    4.1867   678.0    2.591      67.948
2015    4        4    15  59    4.1853   677.9    2.591      67.930
2015    4        4    16   5    4.1839   677.8    2.591      67.911
2015    4        4    16  11    4.1825   677.7    2.591      67.893
2015    4        4    16  17    4.1810   677.7    2.591      67.875
2015    4        4    16  23    4.1796   677.6    2.591      67.858
2015    4        4    16  29    4.1782   677.5    2.591      67.841
2015    4        4    16  34    4.1767   677.4    2.591      67.824
2015    4        4    16  40    4.1753   677.3    2.591      67.807
2015    4        4    16  46    4.1738   677.3    2.591      67.790
2015    4        4    16  52    4.1723   677.2    2.591      67.773
2015    4        4    16  58    4.1708   677.1    2.590      67.756
2015    4        4    17   4    4.1694   677.0    2.590      67.738
2015    4        4    17  10    4.1679   676.9    2.590      67.719
2015    4        4    17  16    4.1665   676.8    2.590      67.700
2015    4        4    17  21    4.1650   676.8    2.590      67.680
2015    4        4    17  27    4.1635   676.7    2.589      67.659
2015    4        4    17  33    4.1621   676.6    2.589      67.638
2015    4        4    17  39    4.1606   676.5    2.589      67.617
2015    4        4    17  45    4.1592   676.4    2.588      67.594
2015    4        4    17  51    4.1577   676.3    2.588      67.571
2015    4        4    17  57    4.1562   676.3    2.588      67.548
2015    4        4    18   3    4.1547   676.2    2.587      67.523
2015    4        4    18   9    4.1532   676.1    2.587      67.498
2015    4        4    18  14    4.1517   676.0    2.587      67.472
2015    4        4    18  20    4.1502   675.9    2.586      67.446
2015    4        4    18  26    4.1487   675.8    2.586      67.418
2015    4        4    18  32    4.1471   675.8    2.585      67.391
2015    4        4    18  38    4.1456   675.7    2.585      67.362
2015    4        4    18  44    4.1441   675.6    2.584      67.333
2015    4        4    18  50    4.1425   675.5    2.584      67.303
2015    4        4    18  56    4.1409   675.4    2.583      67.272
2015    4        4    19   2    4.1394   675.3    2.583      67.241
2015    4        4    19   7    4.1378   675.2    2.582      67.210
2015    4        4    19  13    4.1362   675.2    2.582      67.178
2015    4        4    19  19    4.1346   675.1    2.581      67.147
2015    4        4    19  25    4.1330   675.0    2.581      67.115
2015    4        4    19  31    4.1314   674.9    2.580      67.083
2015    4        4    19  37    4.1299   674.8    2.579      67.052
2015    4        4    19  43    4.1283   674.7    2.579      67.020
2015    4        4    19  49    4.1266   674.6    2.578      66.988
2015    4        4    19  55    4.1250   674.5    2.578      66.957
2015    4        4    20   0    4.1234   674.5    2.577      66.925
2015    4        4    20   6    4.1218   674.4    2.577      66.894
2015    4        4    20  12    4.1202   674.3    2.576      66.863
2015    4        4    20  18    4.1186   674.2    2.576      66.832
2015    4        4    20  24    4.1170   674.1    2.575      66.802
2015    4        4    20  30    4.1153   674.0    2.575      66.772
2015    4        4    20  36    4.1137   673.9    2.574      66.742
2015    4        4    20  42    4.1120   673.8    2.574      66.713
2015    4        4    20  48    4.1104   673.7    2.573      66.684
2015    4        4    20  53    4.1087   673.6    2.573      66.655
2015    4        4    20  59    4.1071   673.6    2.573      66.627
2015    4        4    21   5    4.1054   673.5    2.572      66.599
2015    4        4    21  11    4.1038   673.4    2.572      66.572
2015    4        4    21  17    4.1021   673.3    2.572      66.545
2015    4        4    21  23    4.1004   673.2    2.571      66.518
2015    4        4    21  29    4.0988   673.1    2.571      66.492
2015    4        4    21  35    4.0971   673.0    2.571      66.466
2015    4        4    21  41    4.0954   672.9    2.571      66.441
2015    4        4    21  46    4.0938   672.8    2.571      66.415
2015    4        4    21  52    4.0921   672.7    2.570      66.390
2015    4        4    21  58    4.0904   672.6    2.570      66.366
2015    4        4    22   4    4.0888   672.5    2.570      66.341
2015    4        4    22  10    4.0872   672.4    2.570      66.317
2015    4        4    22  16    4.0855   672.3    2.570      66.293
2015    4        4    22  22    4.0839   672.1    2.570      66.269
2015    4        4    22  28    4.0822   672.0    2.570      66.245
2015    4        4    22  34    4.0806   671.9    2.570      66.221
2015    4        4    22  39    4.0790   671.8    2.570      66.197
2015    4        4    22  45    4.0773   671.7    2.570      66.173
2015    4        4    22  51    4.0757   671.6    2.570      66.149
2015    4        4    22  57    4.0741   671.5    2.570      66.124
2015    4        4    23   3    4.0724   671.4    2.570      66.100
2015    4        4    23   9    4.0708   671.3    2.570      66.075
2015    4        4    23  15    4.0692   671.1    2.570      66.050
2015    4        4    23  21    4.0676   671.0    2.570      66.025
2015    4        4    23  27    4.0660   670.9    2.570      65.999
2015    4        4    23  32    4.0643   670.8    2.570      65.973
2015    4        4    23  38    4.0627   670.7    2.570      65.947
2015    4        4    23  44    4.0611   670.6    2.570      65.921
2015    4        4    23  50    4.0595   670.4    2.570      65.894
2015    4        4    23  56    4.0579   670.3    2.570      65.868
2015    4        5     0   2    4.0564   670.2    2.570      65.841
2015    4        5     0   8    4.0548   670.1    2.570      65.815
2015    4        5     0  14    4.0532   670.0    2.570      65.788
2015    4        5     0  20    4.0517   669.9    2.570      65.761
2015    4        5     0  25    4.0502   669.7    2.570      65.734
2015    4        5     0  31    4.0486   669.6    2.570      65.707
2015    4        5     0  37    4.0471   669.5    2.570      65.681
2015    4        5     0  43    4.0456   669.4    2.570      65.654
2015    4        5     0  49    4.0441   669.3    2.570      65.627
2015    4        5     0  55    4.0426   669.1    2.570      65.600
2015    4        5     1   1    4.0411   669.0    2.570      65.572
2015    4        5     1   7    4.0396   668.9    2.570      65.545
2015    4        5     1  13    4.0381   668.8    2.570      65.517
2015    4        5     1  18    4.0365   668.7    2.570      65.489
2015    4        5     1  24    4.0350   668.6    2.570      65.460
2015    4        5     1  30    4.0334   668.4    2.570      65.431
2015    4        5     1  36    4.0318   668.3    2.570      65.400
2015    4        5     1  42    4.0302   668.2    2.570      65.369
2015    4        5     1  48    4.0286   668.1    2.570      65.337
2015    4        5     1  54    4.0270   668.0    2.570      65.304
2015    4        5     2   0    4.0254   667.8    2.570      65.270
2015    4        5     2   6    4.0237   667.7    2.570      65.235
2015    4        5     2  11    4.0221   667.6    2.570      65.198
2015    4        5     2  17    4.0204   667.5    2.570      65.161
2015    4        5     2  23    4.0187   667.3    2.569      65.122
2015    4        5     2  29    4.0171   667.2    2.569      65.083
2015    4        5     2  35    4.0154   667.1    2.569      65.042
2015    4        5     2  41    4.0137   667.0    2.568      65.001
2015    4        5     2  47    4.0120   666.8    2.568      64.959
2015    4        5     2  53    4.0103   666.7    2.568      64.916
2015    4        5     2  59    4.0086   666.6    2.567      64.873
2015    4        5     3   4    4.0069   666.4    2.567      64.829
2015    4        5     3  10    4.0052   666.3    2.566      64.784
2015    4        5     3  16    4.0035   666.2    2.566      64.739
2015    4        5     3  22    4.0017   666.0    2.565      64.694
2015    4        5     3  28    4.0000   665.9    2.565      64.647
2015    4        5     3  34    3.9983   665.8    2.564      64.601
2015    4        5     3  40    3.9965   665.6    2.564      64.554
2015    4        5     3  46    3.9948   665.5    2.563      64.507
2015    4        5     3  52    3.9930   665.3    2.563      64.460
2015    4        5     3  57    3.9913   665.2    2.562      64.413
2015    4        5     4   3    3.9895   665.1    2.562      64.366
2015    4        5     4   9    3.9878   664.9    2.561      64.319
2015    4        5     4  15    3.9860   664.8    2.561      64.273
2015    4        5     4  21    3.9842   664.6    2.560      64.227
2015    4        5     4  27    3.9825   664.5    2.560      64.181
2015    4        5     4  33    3.9807   664.3    2.559      64.136
2015    4        5     4  39    3.9790   664.2    2.559      64.092
2015    4        5     4  45    3.9772   664.0    2.559      64.049
2015    4        5     4  50    3.9755   663.9    2.558      64.006
2015    4        5     4  56    3.9737   663.8    2.558      63.964
2015    4        5     5   2    3.9720   663.6    2.558      63.923
2015    4        5     5   8    3.9703   663.5    2.557      63.883
2015    4        5     5  14    3.9685   663.3    2.557      63.844
2015    4        5     5  20    3.9668   663.2    2.557      63.805
2015    4        5     5  26    3.9651   663.0    2.557      63.767
2015    4        5     5  32    3.9634   662.9    2.557      63.730
2015    4        5     5  38    3.9616   662.7    2.557      63.694
2015    4        5     5  43    3.9599   662.5    2.557      63.657
2015    4        5     5  49    3.9582   662.4    2.556      63.622
2015    4        5     5  55    3.9565   662.2    2.556      63.587
2015    4        5     6   1    3.9548   662.1    2.556      63.552
2015    4        5     6   7    3.9530   661.9    2.556      63.517
2015    4        5     6  13    3.9513   661.8    2.556      63.482
2015    4        5     6  19    3.9495   661.6    2.556      63.447
2015    4        5     6  25    3.9478   661.5    2.556      63.412
2015    4        5     6  31    3.9461   661.3    2.556      63.377
2015    4        5     6  36    3.9443   661.2    2.556      63.341
2015    4        5     6  42    3.9426   661.0    2.555      63.305
2015    4        5     6  48    3.9408   660.8    2.555      63.269
2015    4        5     6  54    3.9390   660.7    2.555      63.232
2015    4        5     7   0    3.9373   660.5    2.555      63.195
2015    4        5     7   6    3.9355   660.4    2.555      63.157
2015    4        5     7  12    3.9338   660.2    2.554      63.119
2015    4        5     7  18    3.9320   660.0    2.554      63.080
2015    4        5     7  24    3.9303   659.9    2.554      63.041
2015    4        5     7  29    3.9285   659.7    2.554      63.002
2015    4        5     7  35    3.9268   659.6    2.554      62.963
2015    4        5     7  41    3.9251   659.4    2.553      62.923
2015    4        5     7  47    3.9233   659.2    2.553      62.883
2015    4        5     7  53    3.9216   659.1    2.553      62.843
2015    4        5     7  59    3.9198   658.9    2.553      62.803
2015    4        5     8   5    3.9181   658.7    2.553      62.762
2015    4        5     8  11    3.9164   658.6    2.553      62.722
2015    4        5     8  16    3.9147   658.4    2.553      62.682
2015    4        5     8  22    3.9130   658.2    2.553      62.641
2015    4        5     8  28    3.9112   658.1    2.553      62.601
2015    4        5     8  34    3.9095   657.9    2.553      62.561
2015    4        5     8  40    3.9078   657.7    2.553      62.520
2015    4        5     8  46    3.9061   657.6    2.553      62.480
2015    4        5     8  52    3.9044   657.4    2.553      62.440
2015    4        5     8  58    3.9026   657.2    2.553      62.399
2015    4        5     9   4    3.9009   657.0    2.553      62.359
2015    4        5     9   9    3.8992   656.9    2.553      62.319
2015    4        5     9  15    3.8975   656.7    2.553      62.278
2015    4        5     9  21    3.8958   656.5    2.554      62.238
2015    4        5     9  27    3.8941   656.3    2.554      62.197
2015    4        5     9  33    3.8924   656.1    2.554      62.157
2015    4        5     9  39    3.8907   656.0    2.554      62.117
2015    4        5     9  45    3.8890   655.8    2.555      62.077
2015    4        5     9  51    3.8873   655.6    2.555      62.036
2015    4        5     9  57    3.8856   655.4    2.555      61.996
2015    4        5    10   2    3.8839   655.2    2.556      61.956
2015    4        5    10   8    3.8822   655.0    2.556      61.915
2015    4        5    10  14    3.8805   654.9    2.556      61.874
2015    4        5    10  20    3.8788   654.7    2.557      61.833
2015    4        5    10  26    3.8770   654.5    2.557      61.791
2015    4        5    10  32    3.8753   654.3    2.557      61.749
2015    4        5    10  38    3.8735   654.1    2.557      61.706
2015    4        5    10  44    3.8718   653.9    2.557      61.662
2015    4        5    10  50    3.8700   653.8    2.557      61.617
2015    4        5    10  55    3.8682   653.6    2.558      61.571
2015    4        5    11   1    3.8665   653.4    2.558      61.524
2015    4        5    11   7    3.8647   653.2    2.558      61.477
2015    4        5    11  13    3.8629   653.0    2.558      61.429
2015    4        5    11  19    3.8611   652.8    2.558      61.381
2015    4        5    11  25    3.8593   652.6    2.558      61.332
2015    4        5    11  31    3.8575   652.4    2.558      61.283
2015    4        5    11  37    3.8557   652.3    2.558      61.234
2015    4        5    11  43    3.8539   652.1    2.558      61.184
2015    4        5    11  48    3.8521   651.9    2.557      61.135
2015    4        5    11  54    3.8503   651.7    2.557      61.085
2015    4        5    12   0    3.8485   651.5    2.557      61.035
2015    4        5    12   6    3.8467   651.3    2.557      60.986
2015    4        5    12  12    3.8449   651.1    2.557      60.936
2015    4        5    12  18    3.8431   650.9    2.557      60.886
2015    4        5    12  24    3.8413   650.7    2.557      60.837
2015    4        5    12  30    3.8395   650.5    2.557      60.787
2015    4        5    12  36    3.8377   650.3    2.557      60.737
2015    4        5    12  41    3.8359   650.1    2.557      60.688
2015    4        5    12  47    3.8340   649.9    2.557      60.639
2015    4        5    12  53    3.8322   649.7    2.557      60.590
2015    4        5    12  59    3.8304   649.5    2.557      60.541
2015    4        5    13   5    3.8286   649.3    2.557      60.493
2015    4        5    13  11    3.8268   649.1    2.557      60.445
2015    4        5    13  17    3.8251   648.9    2.557      60.397
2015    4        5    13  23    3.8233   648.7    2.557      60.349
2015    4        5    13  29    3.8215   648.5    2.557      60.302
2015    4        5    13  34    3.8197   648.3    2.557      60.255
2015    4        5    13  40    3.8180   648.1    2.557      60.209
2015    4        5    13  46    3.8162   647.9    2.557      60.163
2015    4        5    13  52    3.8144   647.7    2.557      60.117
2015    4        5    13  58    3.8126   647.5    2.557      60.071
2015    4        5    14   4    3.8109   647.3    2.557      60.025
2015    4        5    14  10    3.8091   647.0    2.557      59.979
2015    4        5    14  16    3.8073   646.8    2.557      59.933
2015    4        5    14  22    3.8055   646.6    2.557      59.887
2015    4        5    14  27    3.8037   646.4    2.557      59.841
2015    4        5    14  33    3.8019   646.2    2.557      59.795
2015    4        5    14  39    3.8001   646.0    2.557      59.748
2015    4        5    14  45    3.7983   645.8    2.557      59.701
2015    4        5    14  51    3.7965   645.6    2.557      59.654
2015    4        5    14  57    3.7946   645.4    2.556      59.606
2015    4        5    15   3    3.7928   645.2    2.556      59.557
2015    4        5    15   9    3.7910   644.9    2.556      59.508
2015    4        5    15  15    3.7892   644.7    2.556      59.458
2015    4        5    15  20    3.7873   644.5    2.555      59.407
2015    4        5    15  26    3.7855   644.3    2.555      59.356
2015    4        5    15  32    3.7836   644.1    2.555      59.305
2015    4        5    15  38    3.7818   643.9    2.555      59.253
2015    4        5    15  44    3.7799   643.6    2.554      59.200
2015    4        5    15  50    3.7781   643.4    2.554      59.148
2015    4        5    15  56    3.7762   643.2    2.554      59.095
2015    4        5    16   2    3.7744   643.0    2.554      59.042
2015    4        5    16   8    3.7726   642.7    2.554      58.989
2015    4        5    16  13    3.7707   642.5    2.554      58.936
2015    4        5    16  19    3.7689   642.3    2.553      58.884
2015    4        5    16  25    3.7671   642.1    2.553      58.831
2015    4        5    16  31    3.7653   641.8    2.553      58.779
2015    4        5    16  37    3.7635   641.6    2.554      58.727
2015    4        5    16  43    3.7618   641.4    2.554      58.676
2015    4        5    16  49    3.7600   641.1    2.554      58.625
2015    4        5    16  55    3.7582   640.9    2.554      58.575
2015    4        5    17   1    3.7565   640.6    2.555      58.526
2015    4        5    17   6    3.7548   640.4    2.555      58.477
2015    4        5    17  12    3.7530   640.2    2.555      58.430
2015    4        5    17  18    3.7513   639.9    2.556      58.382
2015    4        5    17  24    3.7496   639.7    2.557      58.336
2015    4        5    17  30    3.7479   639.4    2.557      58.290
2015    4        5    17  36    3.7462   639.2    2.558      58.244
2015    4        5    17  42    3.7445   639.0    2.559      58.199
2015    4        5    17  48    3.7428   638.7    2.559      58.155
2015    4        5    17  54    3.7411   638.5    2.560      58.111
2015    4        5    17  59    3.7394   638.2    2.561      58.066
2015    4        5    18   5    3.7378   638.0    2.562      58.022
2015    4        5    18  11    3.7361   637.8    2.563      57.977
2015    4        5    18  17    3.7344   637.5    2.563      57.932
2015    4        5    18  23    3.7327   637.3    2.564      57.888
2015    4        5    18  29    3.7310   637.0    2.565      57.843
2015    4        5    18  35    3.7293   636.8    2.566      57.798
2015    4        5    18  41    3.7276   636.6    2.566      57.753
2015    4        5    18  47    3.7259   636.3    2.567      57.708
2015    4        5    18  52    3.7241   636.1    2.568      57.663
2015    4        5    18  58    3.7224   635.8    2.569      57.618
2015    4        5    19   4    3.7207   635.6    2.569      57.572
2015    4        5    19  10    3.7190   635.3    2.570      57.527
2015    4        5    19  16    3.7172   635.1    2.570      57.481
2015    4        5    19  22    3.7155   634.8    2.571      57.435
2015    4        5    19  28    3.7137   634.6    2.571      57.390
2015    4        5    19  34    3.7120   634.4    2.572      57.343
2015    4        5    19  39    3.7102   634.1    2.572      57.297
2015    4        5    19  45    3.7085   633.9    2.573      57.251
2015    4        5    19  51    3.7067   633.6    2.573      57.204
2015    4        5    19  57    3.7050   633.4    2.574      57.157
2015    4        5    20   3    3.7033   633.1    2.574      57.110
2015    4        5    20   9    3.7015   632.9    2.574      57.062
2015    4        5    20  15    3.6997   632.6    2.575      57.014
2015    4        5    20  21    3.6980   632.3    2.575      56.967
2015    4        5    20  27    3.6963   632.1    2.575      56.919
2015    4        5    20  32    3.6945   631.8    2.576      56.870
2015    4        5    20  38    3.6928   631.6    2.576      56.822
2015    4        5    20  44    3.6911   631.3    2.577      56.774
2015    4        5    20  50    3.6894   631.0    2.577      56.725
2015    4        5    20  56    3.6877   630.8    2.577      56.677
2015    4        5    21   2    3.6860   630.5    2.578      56.629
2015    4        5    21   8    3.6843   630.3    2.578      56.581
2015    4        5    21  14    3.6827   630.0    2.579      56.533
2015    4        5    21  20    3.6810   629.7    2.580      56.485
2015    4        5    21  25    3.6794   629.5    2.580      56.438
2015    4        5    21  31    3.6777   629.2    2.581      56.390
2015    4        5    21  37    3.6761   628.9    2.581      56.343
2015    4        5    21  43    3.6745   628.7    2.582      56.297
2015    4        5    21  49    3.6729   628.4    2.583      56.251
2015    4        5    21  55    3.6713   628.1    2.584      56.205
2015    4        5    22   1    3.6697   627.9    2.585      56.159
2015    4        5    22   7    3.6681   627.6    2.585      56.113
2015    4        5    22  13    3.6665   627.3    2.586      56.068
2015    4        5    22  18    3.6650   627.1    2.587      56.022
2015    4        5    22  24    3.6634   626.8    2.588      55.976
2015    4        5    22  30    3.6618   626.6    2.589      55.929
2015    4        5    22  36    3.6602   626.3    2.590      55.883
2015    4        5    22  42    3.6586   626.0    2.591      55.836
2015    4        5    22  48    3.6570   625.8    2.591      55.788
2015    4        5    22  54    3.6553   625.5    2.592      55.740
2015    4        5    23   0    3.6536   625.2    2.593      55.692
2015    4        5    23   6    3.6520   625.0    2.593      55.644
2015    4        5    23  11    3.6503   624.7    2.594      55.594
2015    4        5    23  17    3.6486   624.4    2.595      55.545
2015    4        5    23  23    3.6469   624.1    2.595      55.494
2015    4        5    23  29    3.6452   623.9    2.595      55.443
2015    4        5    23  35    3.6435   623.6    2.596      55.392
2015    4        5    23  41    3.6419   623.3    2.596      55.339
2015    4        5    23  47    3.6402   623.0    2.597      55.287
2015    4        5    23  53    3.6385   622.7    2.597      55.233
2015    4        5    23  59    3.6368   622.5    2.598      55.180
2015    4        6     0   4    3.6351   622.2    2.598      55.126
2015    4        6     0  10    3.6334   621.9    2.598      55.071
2015    4        6     0  16    3.6317   621.6    2.599      55.017
2015    4        6     0  22    3.6301   621.3    2.599      54.962
2015    4        6     0  28    3.6284   621.0    2.600      54.907
2015    4        6     0  34    3.6268   620.7    2.600      54.853
2015    4        6     0  40    3.6251   620.4    2.600      54.798
2015    4        6     0  46    3.6235   620.1    2.601      54.744
2015    4        6     0  52    3.6219   619.9    2.602      54.690
2015    4        6     0  57    3.6203   619.6    2.602      54.636
2015    4        6     1   3    3.6187   619.3    2.603      54.583
2015    4        6     1   9    3.6171   619.0    2.603      54.530
2015    4        6     1  15    3.6155   618.7    2.604      54.477
2015    4        6     1  21    3.6139   618.4    2.605      54.424
2015    4        6     1  27    3.6124   618.1    2.606      54.372
2015    4        6     1  33    3.6108   617.8    2.607      54.320
2015    4        6     1  39    3.6093   617.5    2.608      54.269
2015    4        6     1  45    3.6077   617.2    2.608      54.218
2015    4        6     1  50    3.6062   616.9    2.609      54.167
2015    4        6     1  56    3.6047   616.6    2.610      54.117
2015    4        6     2   2    3.6032   616.3    2.612      54.068
2015    4        6     2   8    3.6017   616.0    2.613      54.019
2015    4        6     2  14    3.6003   615.7    2.614      53.971
2015    4        6     2  20    3.5988   615.4    2.615      53.924
2015    4        6     2  26    3.5974   615.1    2.616      53.877
2015    4        6     2  32    3.5960   614.8    2.618      53.832
2015    4        6     2  38    3.5946   614.4    2.619      53.787
2015    4        6     2  43    3.5932   614.1    2.620      53.743
2015    4        6     2  49    3.5919   613.8    2.622      53.699
2015    4        6     2  55    3.5905   613.5    2.623      53.656
2015    4        6     3   1    3.5892   613.2    2.625      53.614
2015    4        6     3   7    3.5879   612.9    2.626      53.572
2015    4        6     3  13    3.5866   612.7    2.628      53.530
2015    4        6     3  19    3.5852   612.4    2.629      53.488
2015    4        6     3  25    3.5838   612.1    2.631      53.445
2015    4        6     3  31    3.5825   611.8    2.632      53.403
2015    4        6     3  36    3.5810   611.5    2.634      53.360
2015    4        6     3  42    3.5796   611.2    2.635      53.317
2015    4        6     3  48    3.5782   610.8    2.636      53.273
2015    4        6     3  54    3.5768   610.5    2.638      53.228
2015    4        6     4   0    3.5754   610.2    2.639      53.183
2015    4        6     4   6    3.5739   609.9    2.640      53.138
2015    4        6     4  12    3.5725   609.6    2.641      53.091
2015    4        6     4  18    3.5711   609.3    2.643      53.045
2015    4        6     4  24    3.5697   609.0    2.644      52.998
2015    4        6     4  29    3.5683   608.7    2.645      52.951
2015    4        6     4  35    3.5669   608.3    2.646      52.903
2015    4        6     4  41    3.5655   608.0    2.648      52.856
2015    4        6     4  47    3.5642   607.7    2.649      52.808
2015    4        6     4  53    3.5628   607.4    2.650      52.761
2015    4        6     4  59    3.5615   607.1    2.651      52.713
2015    4        6     5   5    3.5601   606.8    2.653      52.666
2015    4        6     5  11    3.5588   606.5    2.654      52.618
2015    4        6     5  17    3.5575   606.1    2.656      52.571
2015    4        6     5  22    3.5562   605.8    2.657      52.524
2015    4        6     5  28    3.5550   605.5    2.659      52.477
2015    4        6     5  34    3.5537   605.2    2.660      52.431
2015    4        6     5  40    3.5524   604.9    2.662      52.384
2015    4        6     5  46    3.5511   604.6    2.663      52.337
2015    4        6     5  52    3.5498   604.3    2.665      52.291
2015    4        6     5  58    3.5485   603.9    2.667      52.244
2015    4        6     6   4    3.5472   603.6    2.668      52.197
2015    4        6     6  10    3.5459   603.3    2.670      52.151
2015    4        6     6  15    3.5446   603.0    2.671      52.104
2015    4        6     6  21    3.5432   602.6    2.673      52.058
2015    4        6     6  27    3.5419   602.3    2.674      52.012
2015    4        6     6  33    3.5406   602.0    2.676      51.966
2015    4        6     6  39    3.5393   601.6    2.677      51.920
2015    4        6     6  45    3.5380   601.3    2.679      51.874
2015    4        6     6  51    3.5367   601.0    2.681      51.829
2015    4        6     6  57    3.5355   600.7    2.682      51.784
2015    4        6     7   3    3.5343   600.3    2.684      51.739
2015    4        6     7   8    3.5330   600.0    2.686      51.695
2015    4        6     7  14    3.5318   599.7    2.687      51.651
2015    4        6     7  20    3.5307   599.3    2.689      51.607
2015    4        6     7  26    3.5295   599.0    2.691      51.564
2015    4        6     7  32    3.5283   598.7    2.693      51.520
2015    4        6     7  38    3.5271   598.4    2.695      51.477
2015    4        6     7  44    3.5260   598.0    2.696      51.434
2015    4        6     7  50    3.5248   597.7    2.698      51.391
2015    4        6     7  55    3.5236   597.4    2.700      51.347
2015    4        6     8   1    3.5224   597.1    2.702      51.304
2015    4        6     8   7    3.5213   596.8    2.703      51.260
2015    4        6     8  13    3.5200   596.4    2.705      51.216
2015    4        6     8  19    3.5189   596.1    2.707      51.172
2015    4        6     8  25    3.5177   595.8    2.708      51.127
2015    4        6     8  31    3.5165   595.4    2.710      51.082
2015    4        6     8  37    3.5153   595.1    2.712      51.036
2015    4        6     8  43    3.5141   594.8    2.713      50.990
2015    4        6     8  48    3.5129   594.4    2.715      50.943
2015    4        6     8  54    3.5117   594.1    2.716      50.896
2015    4        6     9   0    3.5106   593.8    2.718      50.849
2015    4        6     9   6    3.5094   593.4    2.719      50.802
2015    4        6     9  12    3.5083   593.1    2.721      50.755
2015    4        6     9  18    3.5072   592.8    2.723      50.708
2015    4        6     9  24    3.5061   592.4    2.724      50.660
2015    4        6     9  30    3.5050   592.1    2.726      50.614
2015    4        6     9  36    3.5040   591.8    2.728      50.567
2015    4        6     9  41    3.5030   591.4    2.729      50.521
2015    4        6     9  47    3.5020   591.1    2.731      50.475
2015    4        6     9  53    3.5010   590.8    2.733      50.430
2015    4        6     9  59    3.5000   590.5    2.735      50.385
2015    4        6    10   5    3.4991   590.1    2.737      50.340
2015    4        6    10  11    3.4982   589.8    2.739      50.296
2015    4        6    10  17    3.4973   589.5    2.741      50.252
2015    4        6    10  23    3.4964   589.2    2.743      50.208
2015    4        6    10  29    3.4954   588.8    2.745      50.164
2015    4        6    10  34    3.4945   588.5    2.748      50.120
2015    4        6    10  40    3.4936   588.2    2.750      50.076
2015    4        6    10  46    3.4926   587.9    2.752      50.032
2015    4        6    10  52    3.4916   587.5    2.754      49.987
2015    4        6    10  58    3.4907   587.2    2.756      49.943
2015    4        6    11   4    3.4897   586.9    2.758      49.898
2015    4        6    11  10    3.4888   586.5    2.760      49.854
2015    4        6    11  16    3.4878   586.2    2.762      49.809
2015    4        6    11  22    3.4868   585.9    2.765      49.765
2015    4        6    11  27    3.4859   585.5    2.767      49.720
2015    4        6    11  33    3.4850   585.2    2.769      49.676
2015    4        6    11  39    3.4841   584.9    2.771      49.632
2015    4        6    11  45    3.4832   584.6    2.773      49.588
2015    4        6    11  51    3.4823   584.2    2.775      49.544
2015    4        6    11  57    3.4814   583.9    2.778      49.500
2015    4        6    12   3    3.4806   583.6    2.780      49.457
2015    4        6    12   9    3.4797   583.2    2.782      49.413
2015    4        6    12  15    3.4789   582.9    2.784      49.370
2015    4        6    12  20    3.4781   582.6    2.787      49.326
2015    4        6    12  26    3.4772   582.2    2.789      49.282
2015    4        6    12  32    3.4764   581.9    2.791      49.239
2015    4        6    12  38    3.4756   581.6    2.793      49.195
2015    4        6    12  44    3.4747   581.3    2.795      49.150
2015    4        6    12  50    3.4738   580.9    2.797      49.106
2015    4        6    12  56    3.4730   580.6    2.799      49.061
2015    4        6    13   2    3.4721   580.3    2.802      49.016
2015    4        6    13   8    3.4713   579.9    2.804      48.971
2015    4        6    13  13    3.4704   579.6    2.806      48.925
2015    4        6    13  19    3.4696   579.3    2.808      48.880
2015    4        6    13  25    3.4688   578.9    2.810      48.834
2015    4        6    13  31    3.4679   578.6    2.812      48.788
2015    4        6    13  37    3.4671   578.3    2.814      48.742
2015    4        6    13  43    3.4663   577.9    2.816      48.697
2015    4        6    13  49    3.4655   577.6    2.818      48.651
2015    4        6    13  55    3.4648   577.2    2.820      48.606
2015    4        6    14   1    3.4640   576.9    2.822      48.562
2015    4        6    14   6    3.4633   576.6    2.825      48.518
2015    4        6    14  12    3.4626   576.2    2.827      48.474
2015    4        6    14  18    3.4619   575.9    2.829      48.431
2015    4        6    14  24    3.4613   575.6    2.831      48.389
2015    4        6    14  30    3.4607   575.2    2.834      48.347
2015    4        6    14  36    3.4600   574.9    2.836      48.306
2015    4        6    14  42    3.4594   574.6    2.839      48.265
2015    4        6    14  48    3.4589   574.3    2.841      48.225
2015    4        6    14  54    3.4583   573.9    2.844      48.186
2015    4        6    14  59    3.4577   573.6    2.847      48.147
2015    4        6    15   5    3.4572   573.3    2.849      48.108
2015    4        6    15  11    3.4566   573.0    2.852      48.070
2015    4        6    15  17    3.4560   572.7    2.855      48.032
2015    4        6    15  23    3.4555   572.3    2.857      47.994
2015    4        6    15  29    3.4549   572.0    2.860      47.956
2015    4        6    15  35    3.4543   571.7    2.863      47.919
2015    4        6    15  41    3.4538   571.4    2.866      47.882
2015    4        6    15  47    3.4532   571.0    2.868      47.845
2015    4        6    15  52    3.4527   570.7    2.871      47.808
2015    4        6    15  58    3.4521   570.4    2.874      47.771
2015    4        6    16   4    3.4516   570.1    2.877      47.734
2015    4        6    16  10    3.4511   569.8    2.879      47.697
2015    4        6    16  16    3.4505   569.4    2.882      47.660
2015    4        6    16  22    3.4500   569.1    2.885      47.624
2015    4        6    16  28    3.4495   568.8    2.887      47.587
2015    4        6    16  34    3.4490   568.5    2.890      47.550
2015    4        6    16  40    3.4485   568.2    2.893      47.512
2015    4        6    16  45    3.4480   567.8    2.895      47.475
2015    4        6    16  51    3.4476   567.5    2.898      47.437
2015    4        6    16  57    3.4471   567.2    2.901      47.399
2015    4        6    17   3    3.4466   566.9    2.903      47.361
2015    4        6    17   9    3.4461   566.6    2.906      47.322
2015    4        6    17  15    3.4456   566.2    2.908      47.284
2015    4        6    17  21    3.4451   565.9    2.911      47.245
2015    4        6    17  27    3.4446   565.6    2.913      47.205
2015    4        6    17  33    3.4440   565.3    2.916      47.166
2015    4        6    17  38    3.4435   565.0    2.918      47.125
2015    4        6    17  44    3.4430   564.6    2.920      47.085
2015    4        6    17  50    3.4425   564.3    2.923      47.044
2015    4        6    17  56    3.4420   564.0    2.925      47.004
2015    4        6    18   2    3.4415   563.7    2.928      46.962
2015    4        6    18   8    3.4410   563.4    2.930      46.921
2015    4        6    18  14    3.4406   563.0    2.932      46.880
2015    4        6    18  20    3.4401   562.7    2.935      46.839
2015    4        6    18  26    3.4396   562.4    2.937      46.798
2015    4        6    18  31    3.4392   562.1    2.940      46.758
2015    4        6    18  37    3.4388   561.7    2.942      46.717
2015    4        6    18  43    3.4384   561.4    2.945      46.677
2015    4        6    18  49    3.4380   561.1    2.947      46.638
2015    4        6    18  55    3.4377   560.8    2.950      46.599
2015    4        6    19   1    3.4373   560.5    2.953      46.561
2015    4        6    19   7    3.4370   560.1    2.956      46.523
2015    4        6    19  13    3.4368   559.8    2.959      46.486
2015    4        6    19  19    3.4365   559.5    2.962      46.450
2015    4        6    19  24    3.4363   559.2    2.965      46.414
2015    4        6    19  30    3.4360   558.9    2.968      46.379
2015    4        6    19  36    3.4358   558.6    2.971      46.344
2015    4        6    19  42    3.4357   558.3    2.974      46.310
2015    4        6    19  48    3.4355   558.0    2.977      46.277
2015    4        6    19  54    3.4353   557.6    2.980      46.243
2015    4        6    20   0    3.4351   557.3    2.983      46.210
2015    4        6    20   6    3.4349   557.0    2.986      46.177
2015    4        6    20  12    3.4348   556.7    2.990      46.145
2015    4        6    20  17    3.4346   556.4    2.993      46.112
2015    4        6    20  23    3.4345   556.1    2.996      46.080
2015    4        6    20  29    3.4343   555.8    2.999      46.047
2015    4        6    20  35    3.4341   555.5    3.002      46.015
2015    4        6    20  41    3.4340   555.2    3.006      45.982
2015    4        6    20  47    3.4338   554.9    3.009      45.950
2015    4        6    20  53    3.4337   554.6    3.012      45.917
2015    4        6    20  59    3.4335   554.3    3.015      45.884
2015    4        6    21   5    3.4334   554.0    3.018      45.851
2015    4        6    21  10    3.4332   553.7    3.021      45.818
2015    4        6    21  16    3.4331   553.4    3.024      45.784
2015    4        6    21  22    3.4330   553.1    3.027      45.751
2015    4        6    21  28    3.4328   552.8    3.030      45.717
2015    4        6    21  34    3.4327   552.5    3.033      45.683
2015    4        6    21  40    3.4326   552.2    3.036      45.649
2015    4        6    21  46    3.4324   551.9    3.039      45.615
2015    4        6    21  52    3.4323   551.6    3.042      45.580
2015    4        6    21  57    3.4322   551.3    3.045      45.546
2015    4        6    22   3    3.4321   551.1    3.048      45.511
2015    4        6    22   9    3.4320   550.8    3.051      45.477
2015    4        6    22  15    3.4319   550.5    3.054      45.442
2015    4        6    22  21    3.4318   550.2    3.057      45.408
2015    4        6    22  27    3.4317   549.9    3.059      45.373
2015    4        6    22  33    3.4316   549.6    3.062      45.339
2015    4        6    22  39    3.4315   549.3    3.065      45.305
2015    4        6    22  45    3.4314   549.0    3.068      45.271
2015    4        6    22  50    3.4314   548.7    3.071      45.238
2015    4        6    22  56    3.4313   548.4    3.074      45.205
2015    4        6    23   2    3.4312   548.1    3.077      45.172
2015    4        6    23   8    3.4312   547.9    3.080      45.139
2015    4        6    23  14    3.4311   547.6    3.083      45.107
2015    4        6    23  20    3.4311   547.3    3.086      45.075
2015    4        6    23  26    3.4311   547.0    3.089      45.043
2015    4        6    23  32    3.4310   546.7    3.092      45.012
2015    4        6    23  38    3.4310   546.4    3.095      44.981
2015    4        6    23  43    3.4310   546.1    3.099      44.951
2015    4        6    23  49    3.4310   545.9    3.102      44.921
2015    4        6    23  55    3.4310   545.6    3.105      44.891
2015    4        7     0   1    3.4309   545.3    3.108      44.861
