year    month   day   hour  minute  B_enl V_enl   n_enl       T_enl
[year] [month] [day] [hour][minute] [nT]  [km/s]  [cm-3]      [kK]
2015    3        3     0   5    5.0630   477.4    5.166      34.541
2015    3        3     0  10    5.0669   477.3    5.173      34.536
2015    3        3     0  15    5.0708   477.2    5.181      34.531
2015    3        3     0  20    5.0748   477.1    5.189      34.527
2015    3        3     0  26    5.0787   477.0    5.197      34.522
2015    3        3     0  31    5.0827   476.9    5.204      34.518
2015    3        3     0  36    5.0866   476.8    5.212      34.515
2015    3        3     0  42    5.0906   476.8    5.220      34.511
2015    3        3     0  47    5.0946   476.7    5.227      34.508
2015    3        3     0  52    5.0987   476.6    5.235      34.505
2015    3        3     0  58    5.1026   476.5    5.243      34.502
2015    3        3     1   3    5.1067   476.4    5.250      34.500
2015    3        3     1   8    5.1107   476.3    5.258      34.498
2015    3        3     1  13    5.1147   476.2    5.266      34.495
2015    3        3     1  19    5.1188   476.1    5.273      34.493
2015    3        3     1  24    5.1228   476.0    5.281      34.491
2015    3        3     1  29    5.1269   476.0    5.288      34.489
2015    3        3     1  35    5.1310   475.9    5.296      34.488
2015    3        3     1  40    5.1351   475.8    5.304      34.486
2015    3        3     1  45    5.1392   475.7    5.311      34.485
2015    3        3     1  51    5.1434   475.6    5.319      34.484
2015    3        3     1  56    5.1476   475.5    5.327      34.483
2015    3        3     2   1    5.1517   475.5    5.335      34.482
2015    3        3     2   7    5.1559   475.4    5.342      34.482
2015    3        3     2  12    5.1601   475.3    5.350      34.482
2015    3        3     2  17    5.1643   475.2    5.358      34.483
2015    3        3     2  22    5.1684   475.1    5.366      34.484
2015    3        3     2  28    5.1726   475.1    5.374      34.485
2015    3        3     2  33    5.1768   475.0    5.381      34.487
2015    3        3     2  38    5.1810   474.9    5.389      34.490
2015    3        3     2  44    5.1852   474.9    5.397      34.492
2015    3        3     2  49    5.1894   474.8    5.404      34.495
2015    3        3     2  54    5.1935   474.7    5.412      34.499
2015    3        3     3   0    5.1977   474.7    5.419      34.502
2015    3        3     3   5    5.2018   474.6    5.427      34.505
2015    3        3     3  10    5.2060   474.5    5.434      34.509
2015    3        3     3  15    5.2101   474.5    5.441      34.513
2015    3        3     3  21    5.2142   474.4    5.448      34.517
2015    3        3     3  26    5.2183   474.3    5.455      34.520
2015    3        3     3  31    5.2224   474.3    5.462      34.524
2015    3        3     3  37    5.2265   474.2    5.469      34.527
2015    3        3     3  42    5.2306   474.2    5.475      34.530
2015    3        3     3  47    5.2346   474.1    5.482      34.533
2015    3        3     3  53    5.2386   474.0    5.488      34.535
2015    3        3     3  58    5.2427   474.0    5.495      34.538
2015    3        3     4   3    5.2467   473.9    5.501      34.540
2015    3        3     4   8    5.2507   473.9    5.507      34.542
2015    3        3     4  14    5.2548   473.8    5.513      34.543
2015    3        3     4  19    5.2588   473.7    5.519      34.545
2015    3        3     4  24    5.2628   473.7    5.525      34.546
2015    3        3     4  30    5.2668   473.6    5.531      34.547
2015    3        3     4  35    5.2708   473.6    5.537      34.548
2015    3        3     4  40    5.2748   473.5    5.543      34.549
2015    3        3     4  46    5.2788   473.4    5.548      34.549
2015    3        3     4  51    5.2829   473.4    5.554      34.549
2015    3        3     4  56    5.2868   473.3    5.560      34.550
2015    3        3     5   1    5.2909   473.3    5.565      34.550
2015    3        3     5   7    5.2948   473.2    5.571      34.549
2015    3        3     5  12    5.2989   473.1    5.576      34.549
2015    3        3     5  17    5.3028   473.1    5.582      34.549
2015    3        3     5  23    5.3068   473.0    5.587      34.548
2015    3        3     5  28    5.3109   473.0    5.593      34.548
2015    3        3     5  33    5.3149   472.9    5.598      34.547
2015    3        3     5  39    5.3189   472.8    5.604      34.546
2015    3        3     5  44    5.3229   472.8    5.609      34.546
2015    3        3     5  49    5.3269   472.7    5.615      34.545
2015    3        3     5  55    5.3309   472.7    5.620      34.544
2015    3        3     6   0    5.3350   472.6    5.626      34.544
2015    3        3     6   5    5.3390   472.5    5.631      34.543
2015    3        3     6  10    5.3431   472.5    5.637      34.543
2015    3        3     6  16    5.3471   472.4    5.642      34.543
2015    3        3     6  21    5.3512   472.4    5.648      34.543
2015    3        3     6  26    5.3553   472.3    5.654      34.543
2015    3        3     6  32    5.3594   472.3    5.659      34.544
2015    3        3     6  37    5.3635   472.2    5.665      34.545
2015    3        3     6  42    5.3677   472.2    5.671      34.546
2015    3        3     6  48    5.3719   472.1    5.677      34.548
2015    3        3     6  53    5.3760   472.0    5.683      34.550
2015    3        3     6  58    5.3802   472.0    5.689      34.553
2015    3        3     7   3    5.3844   471.9    5.695      34.557
2015    3        3     7   9    5.3887   471.9    5.701      34.561
2015    3        3     7  14    5.3929   471.8    5.707      34.565
2015    3        3     7  19    5.3971   471.8    5.713      34.570
2015    3        3     7  25    5.4014   471.7    5.719      34.576
2015    3        3     7  30    5.4057   471.7    5.726      34.581
2015    3        3     7  35    5.4100   471.7    5.732      34.587
2015    3        3     7  41    5.4142   471.6    5.738      34.594
2015    3        3     7  46    5.4185   471.6    5.744      34.601
2015    3        3     7  51    5.4228   471.5    5.750      34.608
2015    3        3     7  56    5.4271   471.5    5.756      34.615
2015    3        3     8   2    5.4314   471.4    5.762      34.623
2015    3        3     8   7    5.4357   471.4    5.768      34.630
2015    3        3     8  12    5.4401   471.3    5.774      34.638
2015    3        3     8  18    5.4444   471.3    5.780      34.646
2015    3        3     8  23    5.4488   471.3    5.786      34.654
2015    3        3     8  28    5.4531   471.2    5.792      34.662
2015    3        3     8  34    5.4575   471.2    5.799      34.671
2015    3        3     8  39    5.4619   471.1    5.805      34.680
2015    3        3     8  44    5.4664   471.1    5.811      34.689
2015    3        3     8  49    5.4708   471.1    5.817      34.700
2015    3        3     8  55    5.4752   471.0    5.824      34.711
2015    3        3     9   0    5.4797   471.0    5.830      34.722
2015    3        3     9   5    5.4842   471.0    5.836      34.734
2015    3        3     9  11    5.4886   470.9    5.843      34.747
2015    3        3     9  16    5.4931   470.9    5.849      34.760
2015    3        3     9  21    5.4976   470.9    5.855      34.774
2015    3        3     9  27    5.5020   470.9    5.861      34.789
2015    3        3     9  32    5.5065   470.8    5.867      34.804
2015    3        3     9  37    5.5109   470.8    5.873      34.819
2015    3        3     9  42    5.5153   470.8    5.879      34.835
2015    3        3     9  48    5.5197   470.8    5.885      34.851
2015    3        3     9  53    5.5240   470.8    5.890      34.867
2015    3        3     9  58    5.5284   470.7    5.896      34.883
2015    3        3    10   4    5.5327   470.7    5.901      34.899
2015    3        3    10   9    5.5370   470.7    5.906      34.914
2015    3        3    10  14    5.5413   470.7    5.911      34.930
2015    3        3    10  20    5.5455   470.7    5.916      34.944
2015    3        3    10  25    5.5498   470.7    5.921      34.959
2015    3        3    10  30    5.5540   470.7    5.925      34.973
2015    3        3    10  36    5.5582   470.6    5.930      34.987
2015    3        3    10  41    5.5624   470.6    5.934      35.001
2015    3        3    10  46    5.5666   470.6    5.938      35.013
2015    3        3    10  51    5.5707   470.6    5.942      35.025
2015    3        3    10  57    5.5749   470.6    5.946      35.037
2015    3        3    11   2    5.5790   470.6    5.950      35.048
2015    3        3    11   7    5.5832   470.6    5.954      35.059
2015    3        3    11  13    5.5873   470.5    5.958      35.070
2015    3        3    11  18    5.5914   470.5    5.962      35.080
2015    3        3    11  23    5.5955   470.5    5.965      35.090
2015    3        3    11  29    5.5997   470.5    5.969      35.099
2015    3        3    11  34    5.6038   470.5    5.972      35.108
2015    3        3    11  39    5.6079   470.5    5.976      35.117
2015    3        3    11  44    5.6120   470.5    5.979      35.126
2015    3        3    11  50    5.6161   470.4    5.983      35.134
2015    3        3    11  55    5.6202   470.4    5.986      35.143
2015    3        3    12   0    5.6242   470.4    5.989      35.151
2015    3        3    12   6    5.6284   470.4    5.993      35.158
2015    3        3    12  11    5.6324   470.4    5.996      35.166
2015    3        3    12  16    5.6365   470.4    6.000      35.174
2015    3        3    12  22    5.6406   470.3    6.003      35.181
2015    3        3    12  27    5.6447   470.3    6.006      35.189
2015    3        3    12  32    5.6488   470.3    6.010      35.197
2015    3        3    12  37    5.6529   470.3    6.013      35.204
2015    3        3    12  43    5.6570   470.3    6.017      35.212
2015    3        3    12  48    5.6611   470.3    6.020      35.219
2015    3        3    12  53    5.6653   470.3    6.024      35.227
2015    3        3    12  59    5.6694   470.2    6.028      35.235
2015    3        3    13   4    5.6735   470.2    6.031      35.243
2015    3        3    13   9    5.6777   470.2    6.035      35.251
2015    3        3    13  15    5.6819   470.2    6.039      35.260
2015    3        3    13  20    5.6860   470.2    6.043      35.269
2015    3        3    13  25    5.6902   470.2    6.047      35.278
2015    3        3    13  30    5.6944   470.2    6.052      35.288
2015    3        3    13  36    5.6986   470.1    6.056      35.298
2015    3        3    13  41    5.7029   470.1    6.060      35.310
2015    3        3    13  46    5.7071   470.1    6.065      35.321
2015    3        3    13  52    5.7113   470.1    6.069      35.334
2015    3        3    13  57    5.7156   470.1    6.074      35.346
2015    3        3    14   2    5.7198   470.1    6.078      35.360
2015    3        3    14   8    5.7240   470.1    6.083      35.373
2015    3        3    14  13    5.7283   470.1    6.087      35.387
2015    3        3    14  18    5.7325   470.1    6.092      35.402
2015    3        3    14  23    5.7368   470.1    6.096      35.416
2015    3        3    14  29    5.7411   470.1    6.101      35.431
2015    3        3    14  34    5.7453   470.1    6.105      35.447
2015    3        3    14  39    5.7496   470.1    6.110      35.462
2015    3        3    14  45    5.7539   470.0    6.114      35.478
2015    3        3    14  50    5.7582   470.0    6.119      35.493
2015    3        3    14  55    5.7624   470.0    6.124      35.509
2015    3        3    15   1    5.7668   470.0    6.128      35.525
2015    3        3    15   6    5.7711   470.0    6.133      35.542
2015    3        3    15  11    5.7754   470.0    6.138      35.559
2015    3        3    15  17    5.7798   470.0    6.143      35.578
2015    3        3    15  22    5.7841   470.0    6.148      35.596
2015    3        3    15  27    5.7884   470.0    6.152      35.616
2015    3        3    15  32    5.7928   470.1    6.157      35.636
2015    3        3    15  38    5.7972   470.1    6.162      35.657
2015    3        3    15  43    5.8015   470.1    6.167      35.678
2015    3        3    15  48    5.8058   470.1    6.171      35.700
2015    3        3    15  54    5.8101   470.1    6.176      35.723
2015    3        3    15  59    5.8144   470.1    6.180      35.747
2015    3        3    16   4    5.8187   470.1    6.184      35.771
2015    3        3    16  10    5.8231   470.1    6.189      35.795
2015    3        3    16  15    5.8273   470.2    6.192      35.820
2015    3        3    16  20    5.8315   470.2    6.196      35.845
2015    3        3    16  25    5.8357   470.2    6.200      35.869
2015    3        3    16  31    5.8399   470.2    6.203      35.894
2015    3        3    16  36    5.8440   470.2    6.207      35.918
2015    3        3    16  41    5.8482   470.3    6.210      35.941
2015    3        3    16  47    5.8522   470.3    6.213      35.965
2015    3        3    16  52    5.8564   470.3    6.215      35.988
2015    3        3    16  57    5.8604   470.3    6.218      36.011
2015    3        3    17   3    5.8645   470.3    6.220      36.033
2015    3        3    17   8    5.8685   470.4    6.223      36.055
2015    3        3    17  13    5.8724   470.4    6.225      36.076
2015    3        3    17  18    5.8765   470.4    6.227      36.096
2015    3        3    17  24    5.8805   470.4    6.229      36.117
2015    3        3    17  29    5.8844   470.5    6.231      36.136
2015    3        3    17  34    5.8885   470.5    6.232      36.155
2015    3        3    17  40    5.8924   470.5    6.234      36.174
2015    3        3    17  45    5.8964   470.5    6.236      36.192
2015    3        3    17  50    5.9003   470.5    6.237      36.210
2015    3        3    17  56    5.9043   470.6    6.239      36.228
2015    3        3    18   1    5.9082   470.6    6.240      36.245
2015    3        3    18   6    5.9122   470.6    6.241      36.263
2015    3        3    18  11    5.9160   470.6    6.243      36.279
2015    3        3    18  17    5.9200   470.6    6.244      36.296
2015    3        3    18  22    5.9240   470.7    6.245      36.312
2015    3        3    18  27    5.9279   470.7    6.247      36.328
2015    3        3    18  33    5.9318   470.7    6.248      36.344
2015    3        3    18  38    5.9358   470.7    6.249      36.360
2015    3        3    18  43    5.9396   470.7    6.250      36.376
2015    3        3    18  49    5.9436   470.8    6.251      36.392
2015    3        3    18  54    5.9476   470.8    6.253      36.407
2015    3        3    18  59    5.9515   470.8    6.254      36.423
2015    3        3    19   4    5.9555   470.8    6.255      36.438
2015    3        3    19  10    5.9594   470.8    6.256      36.454
2015    3        3    19  15    5.9633   470.9    6.258      36.469
2015    3        3    19  20    5.9672   470.9    6.259      36.485
2015    3        3    19  26    5.9713   470.9    6.261      36.501
2015    3        3    19  31    5.9752   470.9    6.262      36.516
2015    3        3    19  36    5.9792   470.9    6.264      36.532
2015    3        3    19  42    5.9832   471.0    6.265      36.548
2015    3        3    19  47    5.9872   471.0    6.267      36.565
2015    3        3    19  52    5.9912   471.0    6.269      36.581
2015    3        3    19  58    5.9951   471.0    6.271      36.598
2015    3        3    20   3    5.9992   471.1    6.273      36.615
2015    3        3    20   8    6.0032   471.1    6.275      36.633
2015    3        3    20  13    6.0072   471.1    6.278      36.650
2015    3        3    20  19    6.0113   471.1    6.280      36.669
2015    3        3    20  24    6.0154   471.2    6.283      36.688
2015    3        3    20  29    6.0194   471.2    6.285      36.708
2015    3        3    20  35    6.0235   471.2    6.288      36.728
2015    3        3    20  40    6.0275   471.2    6.291      36.749
2015    3        3    20  45    6.0316   471.3    6.294      36.771
2015    3        3    20  51    6.0356   471.3    6.297      36.793
2015    3        3    20  56    6.0396   471.3    6.300      36.816
2015    3        3    21   1    6.0438   471.4    6.303      36.839
2015    3        3    21   6    6.0478   471.4    6.306      36.863
2015    3        3    21  12    6.0518   471.4    6.309      36.887
2015    3        3    21  17    6.0559   471.5    6.312      36.911
2015    3        3    21  22    6.0599   471.5    6.315      36.936
2015    3        3    21  28    6.0639   471.5    6.319      36.961
2015    3        3    21  33    6.0679   471.6    6.322      36.987
2015    3        3    21  38    6.0720   471.6    6.325      37.013
2015    3        3    21  44    6.0761   471.6    6.329      37.038
2015    3        3    21  49    6.0800   471.7    6.333      37.064
2015    3        3    21  54    6.0842   471.7    6.336      37.090
2015    3        3    21  59    6.0882   471.7    6.340      37.117
2015    3        3    22   5    6.0922   471.8    6.344      37.145
2015    3        3    22  10    6.0964   471.8    6.348      37.174
2015    3        3    22  15    6.1003   471.9    6.351      37.204
2015    3        3    22  21    6.1044   471.9    6.355      37.235
2015    3        3    22  26    6.1084   472.0    6.359      37.267
2015    3        3    22  31    6.1124   472.0    6.362      37.301
2015    3        3    22  37    6.1165   472.1    6.366      37.334
2015    3        3    22  42    6.1205   472.1    6.369      37.369
2015    3        3    22  47    6.1245   472.2    6.372      37.404
2015    3        3    22  52    6.1284   472.2    6.375      37.439
2015    3        3    22  58    6.1323   472.3    6.377      37.474
2015    3        3    23   3    6.1362   472.3    6.380      37.510
2015    3        3    23   8    6.1401   472.4    6.382      37.546
2015    3        3    23  14    6.1439   472.4    6.384      37.582
2015    3        3    23  19    6.1477   472.5    6.385      37.617
2015    3        3    23  24    6.1515   472.6    6.387      37.651
2015    3        3    23  30    6.1553   472.6    6.388      37.685
2015    3        3    23  35    6.1591   472.7    6.390      37.718
2015    3        3    23  40    6.1628   472.7    6.391      37.751
2015    3        3    23  45    6.1665   472.8    6.391      37.783
2015    3        3    23  51    6.1703   472.8    6.392      37.814
2015    3        3    23  56    6.1739   472.9    6.393      37.845
2015    3        4     0   1    6.1776   472.9    6.393      37.875
2015    3        4     0   7    6.1814   473.0    6.394      37.905
2015    3        4     0  12    6.1851   473.0    6.394      37.934
2015    3        4     0  17    6.1887   473.1    6.394      37.962
2015    3        4     0  23    6.1925   473.2    6.394      37.991
2015    3        4     0  28    6.1962   473.2    6.394      38.018
2015    3        4     0  33    6.1998   473.3    6.394      38.046
2015    3        4     0  39    6.2035   473.3    6.393      38.073
2015    3        4     0  44    6.2072   473.4    6.393      38.099
2015    3        4     0  49    6.2109   473.4    6.393      38.126
2015    3        4     0  54    6.2145   473.5    6.392      38.152
2015    3        4     1   0    6.2182   473.5    6.392      38.177
2015    3        4     1   5    6.2219   473.6    6.392      38.203
2015    3        4     1  10    6.2256   473.6    6.391      38.228
2015    3        4     1  16    6.2292   473.7    6.391      38.253
2015    3        4     1  21    6.2329   473.7    6.390      38.278
2015    3        4     1  26    6.2366   473.8    6.389      38.302
2015    3        4     1  32    6.2403   473.8    6.389      38.327
2015    3        4     1  37    6.2439   473.9    6.388      38.351
2015    3        4     1  42    6.2476   473.9    6.388      38.375
2015    3        4     1  47    6.2513   474.0    6.387      38.399
2015    3        4     1  53    6.2550   474.0    6.386      38.423
2015    3        4     1  58    6.2587   474.1    6.386      38.447
2015    3        4     2   3    6.2624   474.2    6.385      38.471
2015    3        4     2   9    6.2661   474.2    6.385      38.495
2015    3        4     2  14    6.2699   474.3    6.384      38.519
2015    3        4     2  19    6.2735   474.3    6.384      38.543
2015    3        4     2  25    6.2773   474.4    6.383      38.568
2015    3        4     2  30    6.2810   474.4    6.383      38.592
2015    3        4     2  35    6.2847   474.5    6.383      38.617
2015    3        4     2  40    6.2885   474.5    6.382      38.641
2015    3        4     2  46    6.2922   474.6    6.382      38.666
2015    3        4     2  51    6.2960   474.6    6.382      38.691
2015    3        4     2  56    6.2996   474.7    6.382      38.717
2015    3        4     3   2    6.3034   474.7    6.382      38.743
2015    3        4     3   7    6.3072   474.8    6.383      38.769
2015    3        4     3  12    6.3110   474.9    6.383      38.795
2015    3        4     3  18    6.3148   474.9    6.384      38.822
2015    3        4     3  23    6.3185   475.0    6.384      38.849
2015    3        4     3  28    6.3223   475.0    6.385      38.877
2015    3        4     3  33    6.3261   475.1    6.386      38.906
2015    3        4     3  39    6.3298   475.1    6.387      38.935
2015    3        4     3  44    6.3335   475.2    6.388      38.965
2015    3        4     3  49    6.3373   475.3    6.389      38.996
2015    3        4     3  55    6.3411   475.3    6.391      39.027
2015    3        4     4   0    6.3449   475.4    6.392      39.059
2015    3        4     4   5    6.3486   475.5    6.394      39.092
2015    3        4     4  11    6.3523   475.5    6.396      39.126
2015    3        4     4  16    6.3561   475.6    6.397      39.160
2015    3        4     4  21    6.3598   475.7    6.399      39.195
2015    3        4     4  26    6.3635   475.7    6.401      39.230
2015    3        4     4  32    6.3674   475.8    6.404      39.267
2015    3        4     4  37    6.3710   475.9    6.406      39.305
2015    3        4     4  42    6.3748   475.9    6.408      39.343
2015    3        4     4  48    6.3786   476.0    6.411      39.381
2015    3        4     4  53    6.3823   476.1    6.413      39.420
2015    3        4     4  58    6.3860   476.1    6.416      39.460
2015    3        4     5   4    6.3898   476.2    6.419      39.501
2015    3        4     5   9    6.3935   476.3    6.421      39.543
2015    3        4     5  14    6.3972   476.4    6.424      39.587
2015    3        4     5  20    6.4010   476.4    6.427      39.632
2015    3        4     5  25    6.4046   476.5    6.429      39.678
2015    3        4     5  30    6.4084   476.6    6.432      39.725
2015    3        4     5  35    6.4120   476.7    6.434      39.774
2015    3        4     5  41    6.4158   476.8    6.437      39.823
2015    3        4     5  46    6.4194   476.8    6.439      39.873
2015    3        4     5  51    6.4231   476.9    6.441      39.923
2015    3        4     5  57    6.4267   477.0    6.443      39.974
2015    3        4     6   2    6.4303   477.1    6.444      40.025
2015    3        4     6   7    6.4339   477.2    6.446      40.076
2015    3        4     6  13    6.4375   477.3    6.447      40.127
2015    3        4     6  18    6.4411   477.3    6.448      40.179
2015    3        4     6  23    6.4447   477.4    6.449      40.229
2015    3        4     6  28    6.4482   477.5    6.449      40.279
2015    3        4     6  34    6.4517   477.6    6.450      40.329
2015    3        4     6  39    6.4553   477.7    6.450      40.377
2015    3        4     6  44    6.4588   477.8    6.451      40.425
2015    3        4     6  50    6.4623   477.8    6.451      40.472
2015    3        4     6  55    6.4657   477.9    6.450      40.519
2015    3        4     7   0    6.4693   478.0    6.450      40.564
2015    3        4     7   6    6.4727   478.1    6.450      40.609
2015    3        4     7  11    6.4763   478.2    6.450      40.653
2015    3        4     7  16    6.4797   478.3    6.449      40.697
2015    3        4     7  21    6.4832   478.4    6.448      40.740
2015    3        4     7  27    6.4866   478.4    6.448      40.782
2015    3        4     7  32    6.4901   478.5    6.447      40.824
2015    3        4     7  37    6.4936   478.6    6.446      40.866
2015    3        4     7  43    6.4971   478.7    6.445      40.907
2015    3        4     7  48    6.5005   478.8    6.444      40.947
2015    3        4     7  53    6.5039   478.9    6.443      40.987
2015    3        4     7  59    6.5074   479.0    6.442      41.026
2015    3        4     8   4    6.5109   479.0    6.440      41.065
2015    3        4     8   9    6.5143   479.1    6.439      41.104
2015    3        4     8  14    6.5178   479.2    6.438      41.142
2015    3        4     8  20    6.5212   479.3    6.437      41.181
2015    3        4     8  25    6.5246   479.4    6.435      41.218
2015    3        4     8  30    6.5281   479.5    6.434      41.256
2015    3        4     8  36    6.5315   479.6    6.432      41.293
2015    3        4     8  41    6.5350   479.7    6.431      41.330
2015    3        4     8  46    6.5384   479.7    6.429      41.367
2015    3        4     8  52    6.5418   479.8    6.428      41.404
2015    3        4     8  57    6.5452   479.9    6.427      41.441
2015    3        4     9   2    6.5487   480.0    6.425      41.477
2015    3        4     9   7    6.5521   480.1    6.424      41.513
2015    3        4     9  13    6.5555   480.2    6.422      41.550
2015    3        4     9  18    6.5589   480.3    6.421      41.586
2015    3        4     9  23    6.5623   480.4    6.419      41.622
2015    3        4     9  29    6.5658   480.5    6.418      41.658
2015    3        4     9  34    6.5692   480.5    6.416      41.694
2015    3        4     9  39    6.5725   480.6    6.415      41.731
2015    3        4     9  45    6.5759   480.7    6.414      41.767
2015    3        4     9  50    6.5794   480.8    6.412      41.804
2015    3        4     9  55    6.5827   480.9    6.411      41.840
2015    3        4    10   1    6.5862   481.0    6.410      41.877
2015    3        4    10   6    6.5896   481.1    6.409      41.914
2015    3        4    10  11    6.5930   481.2    6.408      41.951
2015    3        4    10  16    6.5964   481.3    6.407      41.989
2015    3        4    10  22    6.5998   481.4    6.406      42.027
2015    3        4    10  27    6.6032   481.5    6.405      42.065
2015    3        4    10  32    6.6066   481.6    6.405      42.103
2015    3        4    10  38    6.6100   481.7    6.404      42.142
2015    3        4    10  43    6.6134   481.8    6.404      42.181
2015    3        4    10  48    6.6168   481.8    6.403      42.221
2015    3        4    10  54    6.6202   481.9    6.403      42.261
2015    3        4    10  59    6.6236   482.0    6.403      42.302
2015    3        4    11   4    6.6271   482.1    6.403      42.344
2015    3        4    11   9    6.6304   482.2    6.404      42.386
2015    3        4    11  15    6.6339   482.3    6.404      42.428
2015    3        4    11  20    6.6373   482.4    6.405      42.471
2015    3        4    11  25    6.6407   482.5    6.405      42.516
2015    3        4    11  31    6.6441   482.6    6.406      42.561
2015    3        4    11  36    6.6475   482.7    6.407      42.608
2015    3        4    11  41    6.6509   482.9    6.408      42.655
2015    3        4    11  47    6.6543   483.0    6.409      42.704
2015    3        4    11  52    6.6577   483.1    6.410      42.754
2015    3        4    11  57    6.6612   483.2    6.412      42.805
2015    3        4    12   2    6.6645   483.3    6.413      42.857
2015    3        4    12   8    6.6680   483.4    6.414      42.910
2015    3        4    12  13    6.6713   483.5    6.415      42.964
2015    3        4    12  18    6.6747   483.6    6.417      43.019
2015    3        4    12  24    6.6780   483.7    6.418      43.074
2015    3        4    12  29    6.6814   483.9    6.419      43.131
2015    3        4    12  34    6.6848   484.0    6.420      43.189
2015    3        4    12  40    6.6881   484.1    6.421      43.247
2015    3        4    12  45    6.6914   484.2    6.421      43.306
2015    3        4    12  50    6.6948   484.3    6.422      43.364
2015    3        4    12  55    6.6981   484.5    6.422      43.423
2015    3        4    13   1    6.7014   484.6    6.423      43.482
2015    3        4    13   6    6.7047   484.7    6.423      43.541
2015    3        4    13  11    6.7078   484.8    6.423      43.600
2015    3        4    13  17    6.7111   484.9    6.423      43.658
2015    3        4    13  22    6.7143   485.1    6.422      43.717
2015    3        4    13  27    6.7176   485.2    6.422      43.775
2015    3        4    13  33    6.7207   485.3    6.421      43.832
2015    3        4    13  38    6.7239   485.4    6.421      43.889
2015    3        4    13  43    6.7270   485.6    6.420      43.945
2015    3        4    13  48    6.7301   485.7    6.419      44.001
2015    3        4    13  54    6.7333   485.8    6.418      44.056
2015    3        4    13  59    6.7364   485.9    6.417      44.110
2015    3        4    14   4    6.7394   486.1    6.416      44.163
2015    3        4    14  10    6.7426   486.2    6.414      44.217
2015    3        4    14  15    6.7457   486.3    6.413      44.269
2015    3        4    14  20    6.7486   486.5    6.411      44.321
2015    3        4    14  26    6.7518   486.6    6.410      44.373
2015    3        4    14  31    6.7548   486.7    6.408      44.423
2015    3        4    14  36    6.7578   486.8    6.407      44.474
2015    3        4    14  42    6.7608   487.0    6.405      44.524
2015    3        4    14  47    6.7638   487.1    6.403      44.574
2015    3        4    14  52    6.7667   487.2    6.401      44.623
2015    3        4    14  57    6.7698   487.4    6.400      44.672
2015    3        4    15   3    6.7727   487.5    6.398      44.720
2015    3        4    15   8    6.7758   487.6    6.396      44.768
2015    3        4    15  13    6.7786   487.7    6.394      44.816
2015    3        4    15  19    6.7817   487.9    6.392      44.864
2015    3        4    15  24    6.7847   488.0    6.390      44.912
2015    3        4    15  29    6.7877   488.1    6.388      44.959
2015    3        4    15  35    6.7906   488.3    6.386      45.007
2015    3        4    15  40    6.7936   488.4    6.384      45.054
2015    3        4    15  45    6.7965   488.5    6.383      45.101
2015    3        4    15  50    6.7993   488.7    6.381      45.148
2015    3        4    15  56    6.8023   488.8    6.379      45.196
2015    3        4    16   1    6.8052   488.9    6.377      45.243
2015    3        4    16   6    6.8082   489.1    6.375      45.290
2015    3        4    16  12    6.8110   489.2    6.373      45.338
2015    3        4    16  17    6.8139   489.4    6.371      45.385
2015    3        4    16  22    6.8168   489.5    6.369      45.432
2015    3        4    16  28    6.8197   489.6    6.368      45.479
2015    3        4    16  33    6.8225   489.8    6.366      45.526
2015    3        4    16  38    6.8252   489.9    6.364      45.573
2015    3        4    16  43    6.8281   490.1    6.362      45.620
2015    3        4    16  49    6.8309   490.2    6.360      45.667
2015    3        4    16  54    6.8337   490.4    6.358      45.714
2015    3        4    16  59    6.8365   490.5    6.357      45.761
2015    3        4    17   5    6.8394   490.6    6.355      45.809
2015    3        4    17  10    6.8421   490.8    6.353      45.856
2015    3        4    17  15    6.8450   490.9    6.351      45.903
2015    3        4    17  21    6.8478   491.1    6.350      45.951
2015    3        4    17  26    6.8506   491.2    6.348      45.999
2015    3        4    17  31    6.8533   491.4    6.346      46.047
2015    3        4    17  36    6.8562   491.6    6.345      46.095
2015    3        4    17  42    6.8589   491.7    6.343      46.143
2015    3        4    17  47    6.8616   491.9    6.342      46.191
2015    3        4    17  52    6.8645   492.0    6.340      46.239
2015    3        4    17  58    6.8672   492.2    6.339      46.287
2015    3        4    18   3    6.8698   492.3    6.337      46.335
2015    3        4    18   8    6.8727   492.5    6.336      46.383
2015    3        4    18  14    6.8753   492.7    6.334      46.431
2015    3        4    18  19    6.8781   492.8    6.333      46.478
2015    3        4    18  24    6.8807   493.0    6.331      46.525
2015    3        4    18  29    6.8833   493.1    6.330      46.572
2015    3        4    18  35    6.8860   493.3    6.329      46.620
2015    3        4    18  40    6.8887   493.5    6.327      46.667
2015    3        4    18  45    6.8912   493.6    6.326      46.715
2015    3        4    18  51    6.8938   493.8    6.324      46.764
2015    3        4    18  56    6.8964   494.0    6.323      46.812
2015    3        4    19   1    6.8990   494.1    6.322      46.861
2015    3        4    19   7    6.9017   494.3    6.320      46.910
2015    3        4    19  12    6.9043   494.5    6.319      46.959
2015    3        4    19  17    6.9069   494.6    6.317      47.009
2015    3        4    19  23    6.9094   494.8    6.316      47.059
2015    3        4    19  28    6.9120   495.0    6.314      47.109
2015    3        4    19  33    6.9144   495.2    6.313      47.159
2015    3        4    19  38    6.9169   495.3    6.311      47.210
2015    3        4    19  44    6.9195   495.5    6.309      47.261
2015    3        4    19  49    6.9220   495.7    6.307      47.311
2015    3        4    19  54    6.9245   495.9    6.305      47.361
2015    3        4    20   0    6.9270   496.1    6.303      47.411
2015    3        4    20   5    6.9293   496.2    6.301      47.461
2015    3        4    20  10    6.9318   496.4    6.299      47.511
2015    3        4    20  16    6.9342   496.6    6.297      47.560
2015    3        4    20  21    6.9365   496.8    6.294      47.610
2015    3        4    20  26    6.9390   497.0    6.292      47.660
2015    3        4    20  31    6.9412   497.2    6.289      47.709
2015    3        4    20  37    6.9435   497.3    6.287      47.759
2015    3        4    20  42    6.9459   497.5    6.284      47.809
2015    3        4    20  47    6.9483   497.7    6.282      47.858
2015    3        4    20  53    6.9505   497.9    6.279      47.907
2015    3        4    20  58    6.9527   498.1    6.276      47.957
2015    3        4    21   3    6.9549   498.3    6.273      48.006
2015    3        4    21   9    6.9572   498.5    6.270      48.056
2015    3        4    21  14    6.9594   498.7    6.267      48.105
2015    3        4    21  19    6.9616   498.8    6.264      48.154
2015    3        4    21  24    6.9636   499.0    6.261      48.203
2015    3        4    21  30    6.9658   499.2    6.258      48.253
2015    3        4    21  35    6.9679   499.4    6.255      48.302
2015    3        4    21  40    6.9701   499.6    6.252      48.351
2015    3        4    21  46    6.9722   499.8    6.249      48.400
2015    3        4    21  51    6.9743   500.0    6.246      48.449
2015    3        4    21  56    6.9764   500.2    6.242      48.498
2015    3        4    22   2    6.9784   500.4    6.239      48.548
2015    3        4    22   7    6.9805   500.6    6.236      48.598
2015    3        4    22  12    6.9824   500.7    6.233      48.648
2015    3        4    22  17    6.9846   500.9    6.229      48.699
2015    3        4    22  23    6.9866   501.1    6.226      48.749
2015    3        4    22  28    6.9885   501.3    6.223      48.800
2015    3        4    22  33    6.9907   501.5    6.219      48.851
2015    3        4    22  39    6.9926   501.7    6.216      48.902
2015    3        4    22  44    6.9947   501.9    6.213      48.953
2015    3        4    22  49    6.9966   502.1    6.209      49.004
2015    3        4    22  55    6.9986   502.3    6.206      49.056
2015    3        4    23   0    7.0006   502.5    6.202      49.107
2015    3        4    23   5    7.0024   502.7    6.199      49.158
2015    3        4    23  10    7.0045   502.9    6.196      49.209
2015    3        4    23  16    7.0064   503.1    6.192      49.259
2015    3        4    23  21    7.0083   503.3    6.189      49.310
2015    3        4    23  26    7.0103   503.5    6.185      49.360
2015    3        4    23  32    7.0121   503.7    6.181      49.410
2015    3        4    23  37    7.0140   503.9    6.178      49.460
2015    3        4    23  42    7.0158   504.1    6.174      49.509
2015    3        4    23  48    7.0177   504.3    6.170      49.558
2015    3        4    23  53    7.0196   504.5    6.167      49.607
2015    3        4    23  58    7.0213   504.7    6.163      49.656
2015    3        5     0   4    7.0232   505.0    6.159      49.704
2015    3        5     0   9    7.0250   505.2    6.156      49.752
2015    3        5     0  14    7.0269   505.4    6.152      49.800
2015    3        5     0  19    7.0287   505.6    6.148      49.848
2015    3        5     0  25    7.0305   505.8    6.144      49.895
2015    3        5     0  30    7.0324   506.0    6.141      49.943
2015    3        5     0  35    7.0343   506.2    6.137      49.991
2015    3        5     0  41    7.0362   506.4    6.133      50.038
2015    3        5     0  46    7.0380   506.6    6.130      50.086
2015    3        5     0  51    7.0397   506.9    6.126      50.133
2015    3        5     0  57    7.0417   507.1    6.122      50.181
2015    3        5     1   2    7.0435   507.3    6.119      50.228
2015    3        5     1   7    7.0453   507.5    6.115      50.276
2015    3        5     1  12    7.0471   507.7    6.111      50.323
2015    3        5     1  18    7.0488   508.0    6.107      50.370
2015    3        5     1  23    7.0505   508.2    6.104      50.417
2015    3        5     1  28    7.0522   508.4    6.100      50.463
2015    3        5     1  34    7.0539   508.7    6.096      50.509
2015    3        5     1  39    7.0555   508.9    6.092      50.555
2015    3        5     1  44    7.0570   509.1    6.088      50.600
2015    3        5     1  50    7.0587   509.4    6.083      50.644
2015    3        5     1  55    7.0602   509.6    6.079      50.688
2015    3        5     2   0    7.0616   509.8    6.075      50.732
2015    3        5     2   5    7.0631   510.1    6.070      50.775
2015    3        5     2  11    7.0644   510.3    6.066      50.817
2015    3        5     2  16    7.0659   510.5    6.061      50.859
2015    3        5     2  21    7.0672   510.8    6.057      50.901
2015    3        5     2  27    7.0685   511.0    6.052      50.942
2015    3        5     2  32    7.0697   511.2    6.048      50.983
2015    3        5     2  37    7.0710   511.5    6.043      51.024
2015    3        5     2  43    7.0723   511.7    6.039      51.064
2015    3        5     2  48    7.0735   511.9    6.034      51.104
2015    3        5     2  53    7.0747   512.2    6.029      51.144
2015    3        5     2  58    7.0759   512.4    6.025      51.184
2015    3        5     3   4    7.0772   512.6    6.020      51.224
2015    3        5     3   9    7.0784   512.9    6.015      51.263
2015    3        5     3  14    7.0794   513.1    6.011      51.303
2015    3        5     3  20    7.0806   513.3    6.006      51.343
2015    3        5     3  25    7.0817   513.6    6.001      51.383
2015    3        5     3  30    7.0828   513.8    5.996      51.424
2015    3        5     3  36    7.0837   514.0    5.992      51.464
2015    3        5     3  41    7.0849   514.3    5.987      51.505
2015    3        5     3  46    7.0857   514.5    5.982      51.546
2015    3        5     3  51    7.0867   514.7    5.977      51.587
2015    3        5     3  57    7.0876   515.0    5.972      51.628
2015    3        5     4   2    7.0887   515.2    5.967      51.670
2015    3        5     4   7    7.0896   515.5    5.962      51.711
2015    3        5     4  13    7.0905   515.7    5.957      51.753
2015    3        5     4  18    7.0913   515.9    5.952      51.795
2015    3        5     4  23    7.0921   516.2    5.947      51.837
2015    3        5     4  29    7.0929   516.4    5.942      51.880
2015    3        5     4  34    7.0938   516.6    5.937      51.922
2015    3        5     4  39    7.0946   516.9    5.931      51.965
2015    3        5     4  44    7.0953   517.1    5.926      52.008
2015    3        5     4  50    7.0961   517.4    5.921      52.051
2015    3        5     4  55    7.0969   517.6    5.916      52.095
2015    3        5     5   0    7.0975   517.8    5.911      52.139
2015    3        5     5   6    7.0983   518.1    5.905      52.184
2015    3        5     5  11    7.0989   518.3    5.900      52.229
2015    3        5     5  16    7.0996   518.6    5.895      52.274
2015    3        5     5  22    7.1004   518.8    5.889      52.320
2015    3        5     5  27    7.1009   519.0    5.884      52.366
2015    3        5     5  32    7.1017   519.3    5.879      52.413
2015    3        5     5  38    7.1023   519.5    5.873      52.460
2015    3        5     5  43    7.1028   519.8    5.868      52.508
2015    3        5     5  48    7.1036   520.0    5.862      52.555
2015    3        5     5  53    7.1041   520.3    5.857      52.603
2015    3        5     5  59    7.1047   520.5    5.851      52.651
2015    3        5     6   4    7.1052   520.7    5.846      52.699
2015    3        5     6   9    7.1059   521.0    5.840      52.747
2015    3        5     6  15    7.1063   521.2    5.834      52.795
2015    3        5     6  20    7.1068   521.5    5.829      52.843
2015    3        5     6  25    7.1073   521.7    5.823      52.891
2015    3        5     6  31    7.1078   522.0    5.818      52.938
2015    3        5     6  36    7.1083   522.2    5.812      52.986
2015    3        5     6  41    7.1089   522.5    5.806      53.034
2015    3        5     6  46    7.1094   522.7    5.801      53.081
2015    3        5     6  52    7.1098   522.9    5.795      53.129
2015    3        5     6  57    7.1103   523.2    5.789      53.176
2015    3        5     7   2    7.1107   523.4    5.784      53.223
2015    3        5     7   8    7.1111   523.7    5.778      53.270
2015    3        5     7  13    7.1115   523.9    5.772      53.316
2015    3        5     7  18    7.1118   524.2    5.767      53.362
2015    3        5     7  24    7.1123   524.4    5.761      53.409
2015    3        5     7  29    7.1127   524.7    5.755      53.455
2015    3        5     7  34    7.1131   524.9    5.750      53.501
2015    3        5     7  39    7.1133   525.2    5.744      53.546
2015    3        5     7  45    7.1138   525.4    5.738      53.592
2015    3        5     7  50    7.1140   525.7    5.733      53.637
2015    3        5     7  55    7.1145   525.9    5.727      53.682
2015    3        5     8   1    7.1148   526.2    5.722      53.727
2015    3        5     8   6    7.1151   526.4    5.716      53.772
2015    3        5     8  11    7.1154   526.7    5.711      53.817
2015    3        5     8  17    7.1156   526.9    5.705      53.862
2015    3        5     8  22    7.1159   527.2    5.700      53.907
2015    3        5     8  27    7.1159   527.4    5.694      53.952
2015    3        5     8  32    7.1162   527.7    5.689      53.997
2015    3        5     8  38    7.1164   527.9    5.684      54.042
2015    3        5     8  43    7.1165   528.2    5.678      54.087
2015    3        5     8  48    7.1165   528.4    5.673      54.132
2015    3        5     8  54    7.1166   528.7    5.667      54.177
2015    3        5     8  59    7.1164   529.0    5.662      54.222
2015    3        5     9   4    7.1165   529.2    5.657      54.266
2015    3        5     9  10    7.1164   529.5    5.651      54.310
2015    3        5     9  15    7.1162   529.7    5.646      54.353
2015    3        5     9  20    7.1161   530.0    5.640      54.397
2015    3        5     9  25    7.1159   530.2    5.635      54.439
2015    3        5     9  31    7.1155   530.5    5.629      54.481
2015    3        5     9  36    7.1154   530.8    5.624      54.523
2015    3        5     9  41    7.1151   531.0    5.618      54.565
2015    3        5     9  47    7.1147   531.3    5.612      54.605
2015    3        5     9  52    7.1142   531.5    5.606      54.646
2015    3        5     9  57    7.1138   531.8    5.601      54.686
2015    3        5    10   3    7.1136   532.1    5.595      54.725
2015    3        5    10   8    7.1132   532.3    5.589      54.765
2015    3        5    10  13    7.1125   532.6    5.583      54.804
2015    3        5    10  18    7.1122   532.8    5.577      54.843
2015    3        5    10  24    7.1117   533.1    5.571      54.881
2015    3        5    10  29    7.1110   533.3    5.565      54.919
2015    3        5    10  34    7.1106   533.6    5.559      54.957
2015    3        5    10  40    7.1100   533.9    5.552      54.995
2015    3        5    10  45    7.1095   534.1    5.546      55.032
2015    3        5    10  50    7.1087   534.4    5.540      55.069
2015    3        5    10  56    7.1082   534.6    5.534      55.106
2015    3        5    11   1    7.1076   534.9    5.527      55.142
2015    3        5    11   6    7.1067   535.1    5.521      55.178
2015    3        5    11  12    7.1061   535.4    5.515      55.214
2015    3        5    11  17    7.1054   535.6    5.508      55.250
2015    3        5    11  22    7.1048   535.9    5.502      55.286
2015    3        5    11  27    7.1041   536.1    5.496      55.321
2015    3        5    11  33    7.1032   536.4    5.489      55.356
2015    3        5    11  38    7.1026   536.6    5.483      55.391
2015    3        5    11  43    7.1019   536.9    5.476      55.426
2015    3        5    11  49    7.1009   537.1    5.470      55.461
2015    3        5    11  54    7.1003   537.4    5.463      55.496
2015    3        5    11  59    7.0993   537.6    5.457      55.531
2015    3        5    12   5    7.0987   537.9    5.450      55.565
2015    3        5    12  10    7.0977   538.1    5.444      55.600
2015    3        5    12  15    7.0970   538.4    5.437      55.634
2015    3        5    12  20    7.0961   538.6    5.431      55.669
2015    3        5    12  26    7.0953   538.9    5.424      55.704
2015    3        5    12  31    7.0942   539.1    5.418      55.739
2015    3        5    12  36    7.0933   539.4    5.411      55.773
2015    3        5    12  42    7.0926   539.6    5.405      55.808
2015    3        5    12  47    7.0917   539.9    5.398      55.843
2015    3        5    12  52    7.0906   540.1    5.392      55.879
2015    3        5    12  58    7.0898   540.4    5.385      55.914
2015    3        5    13   3    7.0889   540.6    5.379      55.950
2015    3        5    13   8    7.0880   540.8    5.373      55.986
2015    3        5    13  13    7.0868   541.1    5.366      56.022
2015    3        5    13  19    7.0860   541.3    5.360      56.058
2015    3        5    13  24    7.0850   541.6    5.354      56.094
2015    3        5    13  29    7.0841   541.8    5.347      56.131
2015    3        5    13  35    7.0829   542.1    5.341      56.168
2015    3        5    13  40    7.0818   542.3    5.335      56.205
2015    3        5    13  45    7.0810   542.6    5.329      56.243
2015    3        5    13  51    7.0800   542.8    5.323      56.280
2015    3        5    13  56    7.0789   543.1    5.316      56.318
2015    3        5    14   1    7.0776   543.3    5.310      56.356
2015    3        5    14   6    7.0767   543.5    5.304      56.394
2015    3        5    14  12    7.0754   543.8    5.298      56.432
2015    3        5    14  17    7.0743   544.0    5.292      56.471
2015    3        5    14  22    7.0732   544.3    5.287      56.510
2015    3        5    14  28    7.0722   544.5    5.281      56.548
2015    3        5    14  33    7.0709   544.8    5.275      56.587
2015    3        5    14  38    7.0699   545.0    5.269      56.626
2015    3        5    14  44    7.0685   545.2    5.264      56.664
2015    3        5    14  49    7.0672   545.5    5.258      56.703
2015    3        5    14  54    7.0662   545.7    5.252      56.742
2015    3        5    14  59    7.0649   546.0    5.247      56.781
2015    3        5    15   5    7.0637   546.2    5.241      56.819
2015    3        5    15  10    7.0624   546.4    5.236      56.858
2015    3        5    15  15    7.0609   546.7    5.231      56.897
2015    3        5    15  21    7.0596   546.9    5.225      56.936
2015    3        5    15  26    7.0585   547.1    5.220      56.974
2015    3        5    15  31    7.0572   547.4    5.215      57.013
2015    3        5    15  37    7.0558   547.6    5.210      57.052
2015    3        5    15  42    7.0545   547.9    5.205      57.092
2015    3        5    15  47    7.0529   548.1    5.200      57.131
2015    3        5    15  52    7.0515   548.3    5.196      57.171
2015    3        5    15  58    7.0502   548.6    5.191      57.211
2015    3        5    16   3    7.0489   548.8    5.186      57.250
2015    3        5    16   8    7.0476   549.0    5.182      57.290
2015    3        5    16  14    7.0462   549.3    5.177      57.330
2015    3        5    16  19    7.0448   549.5    5.172      57.370
2015    3        5    16  24    7.0434   549.7    5.168      57.411
2015    3        5    16  30    7.0418   550.0    5.163      57.451
2015    3        5    16  35    7.0404   550.2    5.159      57.492
2015    3        5    16  40    7.0392   550.4    5.154      57.532
2015    3        5    16  45    7.0377   550.7    5.150      57.572
2015    3        5    16  51    7.0365   550.9    5.145      57.613
2015    3        5    16  56    7.0349   551.2    5.140      57.652
2015    3        5    17   1    7.0337   551.4    5.135      57.692
2015    3        5    17   7    7.0321   551.6    5.131      57.730
2015    3        5    17  12    7.0307   551.9    5.126      57.769
2015    3        5    17  17    7.0294   552.1    5.121      57.807
2015    3        5    17  23    7.0280   552.4    5.115      57.844
2015    3        5    17  28    7.0266   552.6    5.110      57.881
2015    3        5    17  33    7.0250   552.8    5.105      57.917
2015    3        5    17  39    7.0236   553.1    5.100      57.953
2015    3        5    17  44    7.0221   553.3    5.095      57.988
2015    3        5    17  49    7.0205   553.6    5.089      58.023
2015    3        5    17  54    7.0190   553.8    5.084      58.056
2015    3        5    18   0    7.0176   554.0    5.078      58.090
2015    3        5    18   5    7.0160   554.3    5.073      58.123
2015    3        5    18  10    7.0145   554.5    5.067      58.156
2015    3        5    18  16    7.0129   554.7    5.062      58.188
2015    3        5    18  21    7.0115   555.0    5.056      58.220
2015    3        5    18  26    7.0099   555.2    5.050      58.251
2015    3        5    18  32    7.0083   555.5    5.045      58.282
2015    3        5    18  37    7.0068   555.7    5.039      58.313
2015    3        5    18  42    7.0053   555.9    5.034      58.343
2015    3        5    18  47    7.0036   556.2    5.028      58.373
2015    3        5    18  53    7.0020   556.4    5.022      58.403
2015    3        5    18  58    7.0005   556.6    5.017      58.433
2015    3        5    19   3    6.9989   556.9    5.011      58.462
2015    3        5    19   9    6.9973   557.1    5.005      58.492
2015    3        5    19  14    6.9957   557.3    4.999      58.521
2015    3        5    19  19    6.9941   557.6    4.994      58.550
2015    3        5    19  25    6.9925   557.8    4.988      58.579
2015    3        5    19  30    6.9909   558.0    4.982      58.608
2015    3        5    19  35    6.9893   558.3    4.977      58.636
2015    3        5    19  40    6.9877   558.5    4.971      58.665
2015    3        5    19  46    6.9860   558.7    4.966      58.694
2015    3        5    19  51    6.9845   559.0    4.960      58.723
2015    3        5    19  56    6.9828   559.2    4.954      58.752
2015    3        5    20   2    6.9812   559.4    4.949      58.782
2015    3        5    20   7    6.9795   559.7    4.943      58.811
2015    3        5    20  12    6.9779   559.9    4.938      58.841
2015    3        5    20  18    6.9763   560.1    4.933      58.871
2015    3        5    20  23    6.9746   560.4    4.927      58.901
2015    3        5    20  28    6.9729   560.6    4.922      58.931
2015    3        5    20  33    6.9713   560.8    4.917      58.962
2015    3        5    20  39    6.9696   561.1    4.911      58.993
2015    3        5    20  44    6.9680   561.3    4.906      59.024
2015    3        5    20  49    6.9663   561.5    4.901      59.056
2015    3        5    20  55    6.9646   561.8    4.896      59.088
2015    3        5    21   0    6.9629   562.0    4.891      59.120
2015    3        5    21   5    6.9612   562.2    4.886      59.152
2015    3        5    21  11    6.9595   562.4    4.881      59.184
2015    3        5    21  16    6.9578   562.7    4.876      59.217
2015    3        5    21  21    6.9561   562.9    4.871      59.249
2015    3        5    21  26    6.9544   563.1    4.867      59.282
2015    3        5    21  32    6.9526   563.4    4.862      59.315
2015    3        5    21  37    6.9509   563.6    4.857      59.347
2015    3        5    21  42    6.9491   563.8    4.853      59.380
2015    3        5    21  48    6.9474   564.0    4.848      59.413
2015    3        5    21  53    6.9456   564.3    4.843      59.446
2015    3        5    21  58    6.9438   564.5    4.839      59.479
2015    3        5    22   4    6.9421   564.7    4.834      59.512
2015    3        5    22   9    6.9403   564.9    4.830      59.545
2015    3        5    22  14    6.9386   565.2    4.825      59.578
2015    3        5    22  19    6.9368   565.4    4.821      59.611
2015    3        5    22  25    6.9350   565.6    4.817      59.644
2015    3        5    22  30    6.9333   565.8    4.813      59.677
2015    3        5    22  35    6.9315   566.1    4.808      59.710
2015    3        5    22  41    6.9297   566.3    4.804      59.743
2015    3        5    22  46    6.9280   566.5    4.800      59.776
2015    3        5    22  51    6.9263   566.7    4.796      59.810
2015    3        5    22  57    6.9245   566.9    4.792      59.843
2015    3        5    23   2    6.9229   567.1    4.788      59.877
2015    3        5    23   7    6.9212   567.4    4.784      59.910
2015    3        5    23  12    6.9195   567.6    4.780      59.944
2015    3        5    23  18    6.9178   567.8    4.776      59.978
2015    3        5    23  23    6.9162   568.0    4.772      60.012
2015    3        5    23  28    6.9145   568.2    4.768      60.046
2015    3        5    23  34    6.9129   568.4    4.764      60.081
2015    3        5    23  39    6.9113   568.6    4.760      60.116
2015    3        5    23  44    6.9097   568.9    4.757      60.151
2015    3        5    23  50    6.9082   569.1    4.753      60.186
2015    3        5    23  55    6.9066   569.3    4.749      60.221
2015    3        6     0   0    6.9051   569.5    4.745      60.256
2015    3        6     0   6    6.9035   569.7    4.741      60.291
2015    3        6     0  11    6.9020   570.0    4.736      60.325
2015    3        6     0  16    6.9005   570.2    4.732      60.359
2015    3        6     0  21    6.8989   570.4    4.728      60.394
2015    3        6     0  27    6.8974   570.6    4.724      60.427
2015    3        6     0  32    6.8959   570.8    4.719      60.461
2015    3        6     0  37    6.8943   571.1    4.715      60.493
2015    3        6     0  43    6.8928   571.3    4.711      60.526
2015    3        6     0  48    6.8913   571.5    4.706      60.558
2015    3        6     0  53    6.8897   571.7    4.702      60.589
2015    3        6     0  59    6.8882   571.9    4.697      60.621
2015    3        6     1   4    6.8866   572.2    4.693      60.651
2015    3        6     1   9    6.8851   572.4    4.688      60.682
2015    3        6     1  14    6.8835   572.6    4.684      60.712
2015    3        6     1  20    6.8820   572.8    4.679      60.743
2015    3        6     1  25    6.8804   573.0    4.675      60.773
2015    3        6     1  30    6.8789   573.2    4.670      60.803
2015    3        6     1  36    6.8773   573.5    4.666      60.832
2015    3        6     1  41    6.8758   573.7    4.661      60.862
2015    3        6     1  46    6.8742   573.9    4.657      60.891
2015    3        6     1  52    6.8727   574.1    4.652      60.921
2015    3        6     1  57    6.8712   574.3    4.648      60.950
2015    3        6     2   2    6.8696   574.6    4.643      60.980
2015    3        6     2   7    6.8681   574.8    4.639      61.009
2015    3        6     2  13    6.8665   575.0    4.635      61.039
2015    3        6     2  18    6.8650   575.2    4.630      61.068
2015    3        6     2  23    6.8635   575.4    4.626      61.098
2015    3        6     2  29    6.8619   575.6    4.622      61.128
2015    3        6     2  34    6.8604   575.9    4.617      61.158
2015    3        6     2  39    6.8589   576.1    4.613      61.189
2015    3        6     2  45    6.8573   576.3    4.609      61.219
2015    3        6     2  50    6.8557   576.5    4.605      61.250
2015    3        6     2  55    6.8542   576.7    4.601      61.281
2015    3        6     3   0    6.8526   577.0    4.597      61.312
2015    3        6     3   6    6.8510   577.2    4.593      61.344
2015    3        6     3  11    6.8495   577.4    4.589      61.376
2015    3        6     3  16    6.8479   577.6    4.585      61.407
2015    3        6     3  22    6.8463   577.8    4.581      61.440
2015    3        6     3  27    6.8447   578.1    4.577      61.472
2015    3        6     3  32    6.8430   578.3    4.573      61.504
2015    3        6     3  38    6.8414   578.5    4.569      61.537
2015    3        6     3  43    6.8398   578.7    4.565      61.569
2015    3        6     3  48    6.8382   578.9    4.561      61.602
2015    3        6     3  53    6.8365   579.2    4.557      61.635
2015    3        6     3  59    6.8349   579.4    4.554      61.668
2015    3        6     4   4    6.8332   579.6    4.550      61.700
2015    3        6     4   9    6.8315   579.8    4.546      61.733
2015    3        6     4  15    6.8298   580.0    4.542      61.766
2015    3        6     4  20    6.8281   580.3    4.538      61.799
2015    3        6     4  25    6.8264   580.5    4.534      61.832
2015    3        6     4  31    6.8247   580.7    4.531      61.864
2015    3        6     4  36    6.8230   580.9    4.527      61.897
2015    3        6     4  41    6.8213   581.1    4.523      61.929
2015    3        6     4  46    6.8195   581.4    4.519      61.961
2015    3        6     4  52    6.8178   581.6    4.515      61.993
2015    3        6     4  57    6.8161   581.8    4.511      62.025
2015    3        6     5   2    6.8143   582.0    4.507      62.057
2015    3        6     5   8    6.8126   582.2    4.503      62.089
2015    3        6     5  13    6.8109   582.4    4.500      62.120
2015    3        6     5  18    6.8091   582.6    4.496      62.152
2015    3        6     5  24    6.8075   582.9    4.492      62.183
2015    3        6     5  29    6.8057   583.1    4.488      62.214
2015    3        6     5  34    6.8040   583.3    4.484      62.245
2015    3        6     5  39    6.8023   583.5    4.480      62.276
2015    3        6     5  45    6.8006   583.7    4.476      62.307
2015    3        6     5  50    6.7989   583.9    4.472      62.339
2015    3        6     5  55    6.7972   584.1    4.469      62.370
2015    3        6     6   1    6.7955   584.3    4.465      62.401
2015    3        6     6   6    6.7939   584.5    4.461      62.432
2015    3        6     6  11    6.7922   584.7    4.457      62.463
2015    3        6     6  17    6.7905   585.0    4.453      62.494
2015    3        6     6  22    6.7889   585.2    4.449      62.525
2015    3        6     6  27    6.7873   585.4    4.445      62.556
2015    3        6     6  33    6.7857   585.6    4.442      62.587
2015    3        6     6  38    6.7841   585.8    4.438      62.618
2015    3        6     6  43    6.7825   586.0    4.434      62.649
2015    3        6     6  48    6.7808   586.2    4.430      62.680
2015    3        6     6  54    6.7793   586.4    4.426      62.712
2015    3        6     6  59    6.7777   586.6    4.422      62.743
2015    3        6     7   4    6.7761   586.8    4.418      62.774
2015    3        6     7  10    6.7746   587.1    4.414      62.806
2015    3        6     7  15    6.7730   587.3    4.411      62.837
2015    3        6     7  20    6.7714   587.5    4.407      62.868
2015    3        6     7  26    6.7698   587.7    4.403      62.899
2015    3        6     7  31    6.7683   587.9    4.399      62.930
2015    3        6     7  36    6.7667   588.1    4.395      62.960
2015    3        6     7  41    6.7652   588.3    4.391      62.991
2015    3        6     7  47    6.7636   588.5    4.387      63.021
2015    3        6     7  52    6.7621   588.7    4.383      63.051
2015    3        6     7  57    6.7605   588.9    4.379      63.082
2015    3        6     8   3    6.7589   589.1    4.375      63.112
2015    3        6     8   8    6.7574   589.3    4.371      63.142
2015    3        6     8  13    6.7559   589.5    4.367      63.171
2015    3        6     8  19    6.7543   589.8    4.363      63.201
2015    3        6     8  24    6.7527   590.0    4.359      63.231
2015    3        6     8  29    6.7512   590.2    4.356      63.261
2015    3        6     8  34    6.7497   590.4    4.352      63.291
2015    3        6     8  40    6.7481   590.6    4.348      63.321
2015    3        6     8  45    6.7466   590.8    4.344      63.350
2015    3        6     8  50    6.7451   591.0    4.340      63.380
2015    3        6     8  56    6.7436   591.2    4.336      63.410
2015    3        6     9   1    6.7420   591.4    4.333      63.440
2015    3        6     9   6    6.7405   591.6    4.329      63.470
2015    3        6     9  12    6.7390   591.8    4.325      63.501
2015    3        6     9  17    6.7375   592.0    4.322      63.531
2015    3        6     9  22    6.7359   592.2    4.318      63.562
2015    3        6     9  27    6.7344   592.4    4.314      63.592
2015    3        6     9  33    6.7329   592.6    4.311      63.623
2015    3        6     9  38    6.7314   592.8    4.307      63.654
2015    3        6     9  43    6.7298   593.0    4.304      63.685
2015    3        6     9  49    6.7283   593.2    4.300      63.716
2015    3        6     9  54    6.7268   593.4    4.297      63.747
2015    3        6     9  59    6.7252   593.6    4.293      63.778
2015    3        6    10   5    6.7236   593.8    4.290      63.809
2015    3        6    10  10    6.7221   594.0    4.286      63.840
2015    3        6    10  15    6.7205   594.3    4.283      63.871
2015    3        6    10  20    6.7189   594.5    4.279      63.902
2015    3        6    10  26    6.7173   594.7    4.276      63.932
2015    3        6    10  31    6.7157   594.9    4.273      63.963
2015    3        6    10  36    6.7140   595.1    4.269      63.993
2015    3        6    10  42    6.7124   595.3    4.266      64.023
2015    3        6    10  47    6.7107   595.5    4.262      64.053
2015    3        6    10  52    6.7091   595.7    4.259      64.083
2015    3        6    10  58    6.7074   595.9    4.255      64.113
2015    3        6    11   3    6.7057   596.1    4.252      64.142
2015    3        6    11   8    6.7040   596.3    4.248      64.172
2015    3        6    11  13    6.7023   596.5    4.245      64.201
2015    3        6    11  19    6.7006   596.7    4.241      64.230
2015    3        6    11  24    6.6989   596.9    4.238      64.259
2015    3        6    11  29    6.6972   597.1    4.234      64.288
2015    3        6    11  35    6.6955   597.3    4.230      64.316
2015    3        6    11  40    6.6938   597.5    4.227      64.345
2015    3        6    11  45    6.6921   597.7    4.223      64.373
2015    3        6    11  51    6.6904   597.9    4.220      64.401
2015    3        6    11  56    6.6887   598.1    4.216      64.430
2015    3        6    12   1    6.6870   598.2    4.212      64.458
2015    3        6    12   7    6.6852   598.4    4.209      64.486
2015    3        6    12  12    6.6835   598.6    4.205      64.514
2015    3        6    12  17    6.6818   598.8    4.202      64.542
2015    3        6    12  22    6.6801   599.0    4.198      64.570
2015    3        6    12  28    6.6784   599.2    4.194      64.598
2015    3        6    12  33    6.6767   599.4    4.191      64.626
2015    3        6    12  38    6.6750   599.6    4.187      64.655
2015    3        6    12  44    6.6733   599.8    4.184      64.683
2015    3        6    12  49    6.6716   600.0    4.180      64.711
2015    3        6    12  54    6.6700   600.2    4.177      64.740
2015    3        6    13   0    6.6683   600.4    4.173      64.768
2015    3        6    13   5    6.6666   600.5    4.170      64.796
2015    3        6    13  10    6.6649   600.7    4.166      64.825
2015    3        6    13  15    6.6633   600.9    4.163      64.854
2015    3        6    13  21    6.6616   601.1    4.159      64.882
2015    3        6    13  26    6.6600   601.3    4.156      64.911
2015    3        6    13  31    6.6583   601.5    4.153      64.940
2015    3        6    13  37    6.6567   601.7    4.149      64.969
2015    3        6    13  42    6.6551   601.9    4.146      64.998
2015    3        6    13  47    6.6534   602.1    4.143      65.027
2015    3        6    13  53    6.6518   602.3    4.139      65.056
2015    3        6    13  58    6.6502   602.4    4.136      65.086
2015    3        6    14   3    6.6486   602.6    4.133      65.115
2015    3        6    14   8    6.6470   602.8    4.129      65.144
2015    3        6    14  14    6.6453   603.0    4.126      65.174
2015    3        6    14  19    6.6437   603.2    4.123      65.204
2015    3        6    14  24    6.6422   603.4    4.120      65.233
2015    3        6    14  30    6.6406   603.6    4.116      65.263
2015    3        6    14  35    6.6390   603.8    4.113      65.292
2015    3        6    14  40    6.6374   604.0    4.110      65.322
2015    3        6    14  46    6.6357   604.2    4.107      65.351
2015    3        6    14  51    6.6341   604.4    4.103      65.380
2015    3        6    14  56    6.6326   604.5    4.100      65.409
2015    3        6    15   1    6.6309   604.7    4.097      65.439
2015    3        6    15   7    6.6293   604.9    4.094      65.468
2015    3        6    15  12    6.6277   605.1    4.091      65.497
2015    3        6    15  17    6.6261   605.3    4.087      65.526
2015    3        6    15  23    6.6245   605.5    4.084      65.555
2015    3        6    15  28    6.6228   605.7    4.081      65.584
2015    3        6    15  33    6.6212   605.9    4.078      65.613
2015    3        6    15  39    6.6196   606.1    4.075      65.642
2015    3        6    15  44    6.6179   606.3    4.071      65.671
2015    3        6    15  49    6.6163   606.4    4.068      65.699
2015    3        6    15  54    6.6146   606.6    4.065      65.728
2015    3        6    16   0    6.6129   606.8    4.062      65.757
2015    3        6    16   5    6.6112   607.0    4.059      65.785
2015    3        6    16  10    6.6095   607.2    4.055      65.814
2015    3        6    16  16    6.6079   607.4    4.052      65.842
2015    3        6    16  21    6.6061   607.6    4.049      65.870
2015    3        6    16  26    6.6044   607.8    4.046      65.898
2015    3        6    16  32    6.6027   607.9    4.043      65.927
2015    3        6    16  37    6.6010   608.1    4.040      65.955
2015    3        6    16  42    6.5992   608.3    4.036      65.983
2015    3        6    16  47    6.5974   608.5    4.033      66.011
2015    3        6    16  53    6.5957   608.7    4.030      66.038
2015    3        6    16  58    6.5939   608.9    4.027      66.066
2015    3        6    17   3    6.5921   609.1    4.024      66.094
2015    3        6    17   9    6.5903   609.2    4.020      66.121
2015    3        6    17  14    6.5885   609.4    4.017      66.149
2015    3        6    17  19    6.5867   609.6    4.014      66.176
2015    3        6    17  25    6.5849   609.8    4.011      66.203
2015    3        6    17  30    6.5831   610.0    4.008      66.230
2015    3        6    17  35    6.5813   610.1    4.004      66.257
2015    3        6    17  41    6.5794   610.3    4.001      66.284
2015    3        6    17  46    6.5776   610.5    3.998      66.311
2015    3        6    17  51    6.5758   610.7    3.995      66.338
2015    3        6    17  56    6.5740   610.8    3.992      66.364
2015    3        6    18   2    6.5721   611.0    3.988      66.391
2015    3        6    18   7    6.5703   611.2    3.985      66.417
2015    3        6    18  12    6.5685   611.4    3.982      66.443
2015    3        6    18  18    6.5666   611.5    3.979      66.470
2015    3        6    18  23    6.5648   611.7    3.976      66.496
2015    3        6    18  28    6.5630   611.9    3.973      66.522
2015    3        6    18  34    6.5611   612.1    3.970      66.548
2015    3        6    18  39    6.5593   612.2    3.967      66.574
2015    3        6    18  44    6.5575   612.4    3.964      66.600
2015    3        6    18  49    6.5556   612.6    3.961      66.627
2015    3        6    18  55    6.5538   612.8    3.958      66.653
2015    3        6    19   0    6.5520   612.9    3.955      66.679
2015    3        6    19   5    6.5502   613.1    3.952      66.705
2015    3        6    19  11    6.5484   613.3    3.949      66.731
2015    3        6    19  16    6.5466   613.4    3.946      66.758
2015    3        6    19  21    6.5447   613.6    3.943      66.784
2015    3        6    19  27    6.5430   613.8    3.940      66.811
2015    3        6    19  32    6.5412   613.9    3.937      66.838
2015    3        6    19  37    6.5394   614.1    3.934      66.864
2015    3        6    19  42    6.5376   614.3    3.931      66.891
2015    3        6    19  48    6.5358   614.4    3.929      66.918
2015    3        6    19  53    6.5340   614.6    3.926      66.945
2015    3        6    19  58    6.5323   614.8    3.923      66.972
2015    3        6    20   4    6.5305   614.9    3.920      66.999
2015    3        6    20   9    6.5287   615.1    3.917      67.027
2015    3        6    20  14    6.5270   615.3    3.915      67.054
2015    3        6    20  20    6.5252   615.4    3.912      67.082
2015    3        6    20  25    6.5235   615.6    3.909      67.109
2015    3        6    20  30    6.5218   615.8    3.906      67.137
2015    3        6    20  35    6.5200   615.9    3.904      67.164
2015    3        6    20  41    6.5183   616.1    3.901      67.191
2015    3        6    20  46    6.5166   616.3    3.898      67.218
2015    3        6    20  51    6.5148   616.4    3.895      67.244
2015    3        6    20  57    6.5131   616.6    3.893      67.270
2015    3        6    21   2    6.5114   616.8    3.890      67.296
2015    3        6    21   7    6.5096   616.9    3.887      67.322
2015    3        6    21  13    6.5079   617.1    3.884      67.348
2015    3        6    21  18    6.5062   617.3    3.882      67.374
2015    3        6    21  23    6.5044   617.4    3.879      67.399
2015    3        6    21  28    6.5027   617.6    3.876      67.424
2015    3        6    21  34    6.5009   617.8    3.874      67.448
2015    3        6    21  39    6.4992   617.9    3.871      67.473
2015    3        6    21  44    6.4974   618.1    3.868      67.498
2015    3        6    21  50    6.4957   618.3    3.866      67.522
2015    3        6    21  55    6.4939   618.4    3.863      67.546
2015    3        6    22   0    6.4922   618.6    3.860      67.570
2015    3        6    22   6    6.4904   618.7    3.858      67.594
2015    3        6    22  11    6.4886   618.9    3.855      67.617
2015    3        6    22  16    6.4868   619.1    3.853      67.641
2015    3        6    22  21    6.4850   619.2    3.850      67.664
2015    3        6    22  27    6.4832   619.4    3.847      67.688
2015    3        6    22  32    6.4814   619.6    3.845      67.711
2015    3        6    22  37    6.4796   619.7    3.842      67.734
2015    3        6    22  43    6.4778   619.9    3.840      67.757
2015    3        6    22  48    6.4759   620.0    3.837      67.781
2015    3        6    22  53    6.4741   620.2    3.834      67.804
2015    3        6    22  59    6.4722   620.4    3.832      67.827
2015    3        6    23   4    6.4703   620.5    3.829      67.850
2015    3        6    23   9    6.4684   620.7    3.826      67.873
2015    3        6    23  15    6.4665   620.8    3.824      67.896
2015    3        6    23  20    6.4646   621.0    3.821      67.919
2015    3        6    23  25    6.4627   621.2    3.819      67.942
2015    3        6    23  30    6.4607   621.3    3.816      67.965
2015    3        6    23  36    6.4588   621.5    3.813      67.988
2015    3        6    23  41    6.4568   621.6    3.810      68.010
2015    3        6    23  46    6.4549   621.8    3.808      68.033
2015    3        6    23  52    6.4529   621.9    3.805      68.055
2015    3        6    23  57    6.4509   622.1    3.802      68.078
2015    3        7     0   2    6.4489   622.2    3.800      68.100
2015    3        7     0   8    6.4470   622.4    3.797      68.122
2015    3        7     0  13    6.4450   622.5    3.794      68.144
2015    3        7     0  18    6.4430   622.7    3.791      68.166
2015    3        7     0  23    6.4410   622.8    3.789      68.188
2015    3        7     0  29    6.4390   623.0    3.786      68.210
2015    3        7     0  34    6.4370   623.1    3.783      68.232
2015    3        7     0  39    6.4350   623.3    3.780      68.254
2015    3        7     0  45    6.4330   623.4    3.778      68.275
2015    3        7     0  50    6.4310   623.6    3.775      68.297
2015    3        7     0  55    6.4290   623.7    3.772      68.318
2015    3        7     1   1    6.4270   623.9    3.769      68.339
2015    3        7     1   6    6.4250   624.0    3.766      68.361
2015    3        7     1  11    6.4230   624.1    3.764      68.382
2015    3        7     1  16    6.4211   624.3    3.761      68.402
2015    3        7     1  22    6.4191   624.4    3.758      68.423
2015    3        7     1  27    6.4172   624.6    3.755      68.444
2015    3        7     1  32    6.4152   624.7    3.753      68.464
2015    3        7     1  38    6.4132   624.8    3.750      68.484
2015    3        7     1  43    6.4113   625.0    3.747      68.504
2015    3        7     1  48    6.4094   625.1    3.744      68.524
2015    3        7     1  54    6.4074   625.2    3.742      68.544
2015    3        7     1  59    6.4055   625.4    3.739      68.563
2015    3        7     2   4    6.4036   625.5    3.736      68.582
2015    3        7     2   9    6.4017   625.7    3.734      68.601
2015    3        7     2  15    6.3998   625.8    3.731      68.620
2015    3        7     2  20    6.3978   625.9    3.728      68.638
2015    3        7     2  25    6.3959   626.1    3.726      68.656
2015    3        7     2  31    6.3940   626.2    3.723      68.674
2015    3        7     2  36    6.3921   626.3    3.720      68.691
2015    3        7     2  41    6.3902   626.5    3.718      68.709
2015    3        7     2  47    6.3883   626.6    3.715      68.726
2015    3        7     2  52    6.3864   626.7    3.713      68.743
2015    3        7     2  57    6.3845   626.9    3.710      68.759
2015    3        7     3   2    6.3826   627.0    3.707      68.776
2015    3        7     3   8    6.3808   627.1    3.705      68.792
2015    3        7     3  13    6.3789   627.3    3.702      68.808
2015    3        7     3  18    6.3770   627.4    3.700      68.824
2015    3        7     3  24    6.3751   627.5    3.697      68.840
2015    3        7     3  29    6.3732   627.6    3.695      68.855
2015    3        7     3  34    6.3713   627.8    3.692      68.871
2015    3        7     3  40    6.3694   627.9    3.690      68.886
2015    3        7     3  45    6.3675   628.0    3.687      68.902
2015    3        7     3  50    6.3656   628.2    3.685      68.917
2015    3        7     3  56    6.3637   628.3    3.682      68.932
2015    3        7     4   1    6.3618   628.4    3.680      68.948
2015    3        7     4   6    6.3599   628.6    3.677      68.963
2015    3        7     4  11    6.3580   628.7    3.675      68.978
2015    3        7     4  17    6.3561   628.8    3.672      68.993
2015    3        7     4  22    6.3542   628.9    3.670      69.008
2015    3        7     4  27    6.3523   629.1    3.668      69.023
2015    3        7     4  33    6.3503   629.2    3.665      69.038
2015    3        7     4  38    6.3484   629.3    3.663      69.053
2015    3        7     4  43    6.3464   629.5    3.660      69.069
2015    3        7     4  49    6.3445   629.6    3.658      69.084
2015    3        7     4  54    6.3425   629.7    3.655      69.099
2015    3        7     4  59    6.3406   629.8    3.653      69.114
2015    3        7     5   4    6.3386   630.0    3.651      69.129
2015    3        7     5  10    6.3366   630.1    3.648      69.144
2015    3        7     5  15    6.3346   630.2    3.646      69.158
2015    3        7     5  20    6.3326   630.3    3.643      69.173
2015    3        7     5  26    6.3306   630.5    3.641      69.188
2015    3        7     5  31    6.3285   630.6    3.638      69.203
2015    3        7     5  36    6.3265   630.7    3.636      69.218
2015    3        7     5  42    6.3244   630.8    3.633      69.232
2015    3        7     5  47    6.3224   630.9    3.631      69.247
2015    3        7     5  52    6.3203   631.1    3.628      69.262
2015    3        7     5  57    6.3182   631.2    3.626      69.276
2015    3        7     6   3    6.3161   631.3    3.624      69.291
2015    3        7     6   8    6.3140   631.4    3.621      69.305
2015    3        7     6  13    6.3119   631.5    3.619      69.319
2015    3        7     6  19    6.3098   631.6    3.616      69.334
2015    3        7     6  24    6.3076   631.8    3.614      69.348
2015    3        7     6  29    6.3055   631.9    3.611      69.362
2015    3        7     6  35    6.3033   632.0    3.609      69.376
2015    3        7     6  40    6.3012   632.1    3.606      69.389
2015    3        7     6  45    6.2990   632.2    3.604      69.403
2015    3        7     6  50    6.2968   632.3    3.602      69.416
2015    3        7     6  56    6.2946   632.4    3.599      69.430
2015    3        7     7   1    6.2924   632.5    3.597      69.443
2015    3        7     7   6    6.2903   632.7    3.594      69.456
2015    3        7     7  12    6.2881   632.8    3.592      69.469
2015    3        7     7  17    6.2858   632.9    3.590      69.481
2015    3        7     7  22    6.2836   633.0    3.587      69.494
2015    3        7     7  28    6.2814   633.1    3.585      69.506
2015    3        7     7  33    6.2792   633.2    3.582      69.518
2015    3        7     7  38    6.2770   633.3    3.580      69.530
2015    3        7     7  43    6.2748   633.4    3.578      69.542
2015    3        7     7  49    6.2726   633.5    3.575      69.553
2015    3        7     7  54    6.2704   633.6    3.573      69.564
2015    3        7     7  59    6.2681   633.7    3.571      69.576
2015    3        7     8   5    6.2659   633.8    3.568      69.586
2015    3        7     8  10    6.2637   633.9    3.566      69.597
2015    3        7     8  15    6.2615   634.0    3.564      69.608
2015    3        7     8  21    6.2593   634.1    3.561      69.618
2015    3        7     8  26    6.2571   634.2    3.559      69.628
2015    3        7     8  31    6.2549   634.3    3.557      69.638
2015    3        7     8  36    6.2527   634.4    3.554      69.647
2015    3        7     8  42    6.2504   634.5    3.552      69.656
2015    3        7     8  47    6.2482   634.6    3.550      69.665
2015    3        7     8  52    6.2460   634.7    3.548      69.674
2015    3        7     8  58    6.2438   634.8    3.545      69.682
2015    3        7     9   3    6.2416   634.9    3.543      69.691
2015    3        7     9   8    6.2394   635.0    3.541      69.698
2015    3        7     9  14    6.2372   635.0    3.538      69.706
2015    3        7     9  19    6.2350   635.1    3.536      69.713
2015    3        7     9  24    6.2328   635.2    3.534      69.721
2015    3        7     9  30    6.2306   635.3    3.532      69.728
2015    3        7     9  35    6.2284   635.4    3.529      69.734
2015    3        7     9  40    6.2262   635.5    3.527      69.741
2015    3        7     9  45    6.2240   635.6    3.525      69.748
2015    3        7     9  51    6.2218   635.7    3.523      69.754
2015    3        7     9  56    6.2196   635.8    3.521      69.760
2015    3        7    10   1    6.2175   635.8    3.518      69.767
2015    3        7    10   7    6.2153   635.9    3.516      69.773
2015    3        7    10  12    6.2131   636.0    3.514      69.780
2015    3        7    10  17    6.2110   636.1    3.512      69.786
2015    3        7    10  23    6.2088   636.2    3.510      69.793
2015    3        7    10  28    6.2067   636.3    3.508      69.800
2015    3        7    10  33    6.2045   636.4    3.506      69.807
2015    3        7    10  38    6.2024   636.4    3.504      69.814
2015    3        7    10  44    6.2003   636.5    3.502      69.820
2015    3        7    10  49    6.1982   636.6    3.500      69.828
2015    3        7    10  54    6.1960   636.7    3.498      69.835
2015    3        7    11   0    6.1939   636.8    3.496      69.843
2015    3        7    11   5    6.1918   636.9    3.494      69.851
2015    3        7    11  10    6.1897   636.9    3.492      69.859
2015    3        7    11  16    6.1875   637.0    3.490      69.867
2015    3        7    11  21    6.1854   637.1    3.488      69.875
2015    3        7    11  26    6.1832   637.2    3.486      69.884
2015    3        7    11  31    6.1810   637.3    3.484      69.892
2015    3        7    11  37    6.1789   637.4    3.482      69.900
2015    3        7    11  42    6.1767   637.5    3.480      69.908
2015    3        7    11  47    6.1745   637.5    3.478      69.916
2015    3        7    11  53    6.1723   637.6    3.476      69.924
2015    3        7    11  58    6.1700   637.7    3.474      69.931
2015    3        7    12   3    6.1678   637.8    3.472      69.938
2015    3        7    12   9    6.1656   637.9    3.470      69.945
2015    3        7    12  14    6.1633   638.0    3.468      69.951
2015    3        7    12  19    6.1610   638.0    3.466      69.958
2015    3        7    12  24    6.1588   638.1    3.464      69.964
2015    3        7    12  30    6.1565   638.2    3.462      69.969
2015    3        7    12  35    6.1541   638.3    3.460      69.975
2015    3        7    12  40    6.1518   638.4    3.458      69.980
2015    3        7    12  46    6.1495   638.4    3.455      69.985
2015    3        7    12  51    6.1472   638.5    3.453      69.990
2015    3        7    12  56    6.1448   638.6    3.451      69.994
2015    3        7    13   2    6.1424   638.7    3.449      69.998
2015    3        7    13   7    6.1400   638.8    3.447      70.002
2015    3        7    13  12    6.1376   638.8    3.445      70.005
2015    3        7    13  17    6.1352   638.9    3.442      70.008
2015    3        7    13  23    6.1328   639.0    3.440      70.011
2015    3        7    13  28    6.1304   639.0    3.438      70.014
2015    3        7    13  33    6.1279   639.1    3.436      70.016
2015    3        7    13  39    6.1255   639.2    3.433      70.018
2015    3        7    13  44    6.1230   639.3    3.431      70.020
2015    3        7    13  49    6.1205   639.3    3.429      70.022
2015    3        7    13  55    6.1181   639.4    3.427      70.023
2015    3        7    14   0    6.1156   639.5    3.424      70.024
2015    3        7    14   5    6.1131   639.5    3.422      70.025
2015    3        7    14  10    6.1106   639.6    3.420      70.025
2015    3        7    14  16    6.1081   639.7    3.418      70.026
2015    3        7    14  21    6.1056   639.7    3.416      70.026
2015    3        7    14  26    6.1031   639.8    3.414      70.026
2015    3        7    14  32    6.1006   639.8    3.411      70.026
2015    3        7    14  37    6.0980   639.9    3.409      70.026
2015    3        7    14  42    6.0955   639.9    3.407      70.026
2015    3        7    14  48    6.0930   640.0    3.405      70.027
2015    3        7    14  53    6.0905   640.1    3.403      70.027
2015    3        7    14  58    6.0880   640.1    3.401      70.027
2015    3        7    15   4    6.0855   640.2    3.399      70.028
2015    3        7    15   9    6.0830   640.2    3.397      70.028
2015    3        7    15  14    6.0805   640.3    3.395      70.029
2015    3        7    15  19    6.0781   640.3    3.394      70.030
2015    3        7    15  25    6.0756   640.4    3.392      70.031
2015    3        7    15  30    6.0731   640.4    3.390      70.033
2015    3        7    15  35    6.0707   640.5    3.389      70.034
2015    3        7    15  41    6.0682   640.5    3.387      70.036
2015    3        7    15  46    6.0658   640.6    3.385      70.039
2015    3        7    15  51    6.0634   640.6    3.384      70.042
2015    3        7    15  57    6.0610   640.7    3.382      70.045
2015    3        7    16   2    6.0586   640.7    3.381      70.049
2015    3        7    16   7    6.0561   640.8    3.379      70.053
2015    3        7    16  12    6.0538   640.8    3.378      70.056
2015    3        7    16  18    6.0514   640.9    3.376      70.060
2015    3        7    16  23    6.0490   640.9    3.375      70.064
2015    3        7    16  28    6.0466   641.0    3.373      70.067
2015    3        7    16  34    6.0442   641.0    3.372      70.070
2015    3        7    16  39    6.0418   641.0    3.370      70.073
2015    3        7    16  44    6.0394   641.1    3.369      70.076
2015    3        7    16  50    6.0370   641.1    3.367      70.078
2015    3        7    16  55    6.0346   641.2    3.366      70.080
2015    3        7    17   0    6.0322   641.2    3.364      70.082
2015    3        7    17   5    6.0298   641.3    3.362      70.083
2015    3        7    17  11    6.0274   641.3    3.361      70.085
2015    3        7    17  16    6.0250   641.4    3.359      70.086
2015    3        7    17  21    6.0226   641.4    3.357      70.087
2015    3        7    17  27    6.0202   641.5    3.356      70.088
2015    3        7    17  32    6.0178   641.5    3.354      70.089
2015    3        7    17  37    6.0153   641.6    3.353      70.089
2015    3        7    17  43    6.0129   641.6    3.351      70.090
2015    3        7    17  48    6.0105   641.7    3.349      70.091
2015    3        7    17  53    6.0081   641.7    3.348      70.091
2015    3        7    17  58    6.0056   641.8    3.346      70.092
2015    3        7    18   4    6.0032   641.8    3.344      70.093
2015    3        7    18   9    6.0007   641.9    3.343      70.094
2015    3        7    18  14    5.9982   641.9    3.341      70.095
2015    3        7    18  20    5.9957   642.0    3.339      70.096
2015    3        7    18  25    5.9932   642.0    3.338      70.097
2015    3        7    18  30    5.9907   642.1    3.336      70.097
2015    3        7    18  36    5.9881   642.1    3.334      70.097
2015    3        7    18  41    5.9856   642.2    3.332      70.096
2015    3        7    18  46    5.9830   642.2    3.330      70.096
2015    3        7    18  51    5.9804   642.3    3.329      70.094
2015    3        7    18  57    5.9778   642.3    3.327      70.093
2015    3        7    19   2    5.9752   642.4    3.325      70.090
2015    3        7    19   7    5.9726   642.4    3.323      70.087
2015    3        7    19  13    5.9699   642.4    3.321      70.084
2015    3        7    19  18    5.9673   642.5    3.319      70.080
2015    3        7    19  23    5.9646   642.5    3.317      70.076
2015    3        7    19  29    5.9620   642.6    3.315      70.071
2015    3        7    19  34    5.9593   642.6    3.313      70.066
2015    3        7    19  39    5.9566   642.7    3.311      70.060
2015    3        7    19  45    5.9540   642.7    3.309      70.054
2015    3        7    19  50    5.9513   642.7    3.307      70.048
2015    3        7    19  55    5.9486   642.8    3.305      70.041
2015    3        7    20   0    5.9459   642.8    3.302      70.034
2015    3        7    20   6    5.9431   642.9    3.300      70.027
2015    3        7    20  11    5.9404   642.9    3.298      70.020
2015    3        7    20  16    5.9377   642.9    3.296      70.012
2015    3        7    20  22    5.9350   643.0    3.294      70.004
2015    3        7    20  27    5.9322   643.0    3.292      69.997
2015    3        7    20  32    5.9295   643.0    3.290      69.989
2015    3        7    20  38    5.9268   643.1    3.288      69.981
2015    3        7    20  43    5.9240   643.1    3.286      69.973
2015    3        7    20  48    5.9213   643.1    3.284      69.965
2015    3        7    20  53    5.9186   643.1    3.282      69.958
2015    3        7    20  59    5.9158   643.2    3.280      69.950
2015    3        7    21   4    5.9131   643.2    3.278      69.943
2015    3        7    21   9    5.9104   643.2    3.277      69.936
2015    3        7    21  15    5.9077   643.2    3.275      69.929
2015    3        7    21  20    5.9050   643.3    3.273      69.922
2015    3        7    21  25    5.9022   643.3    3.271      69.916
2015    3        7    21  31    5.8995   643.3    3.270      69.910
2015    3        7    21  36    5.8968   643.3    3.268      69.905
2015    3        7    21  41    5.8941   643.3    3.266      69.900
2015    3        7    21  46    5.8914   643.3    3.265      69.896
2015    3        7    21  52    5.8887   643.4    3.263      69.892
2015    3        7    21  57    5.8860   643.4    3.261      69.888
2015    3        7    22   2    5.8834   643.4    3.260      69.884
2015    3        7    22   8    5.8807   643.4    3.258      69.881
2015    3        7    22  13    5.8780   643.4    3.257      69.877
2015    3        7    22  18    5.8753   643.4    3.255      69.874
2015    3        7    22  24    5.8727   643.5    3.254      69.872
2015    3        7    22  29    5.8700   643.5    3.252      69.869
2015    3        7    22  34    5.8673   643.5    3.251      69.866
2015    3        7    22  39    5.8647   643.5    3.249      69.863
2015    3        7    22  45    5.8620   643.5    3.248      69.860
2015    3        7    22  50    5.8593   643.5    3.246      69.857
2015    3        7    22  55    5.8566   643.5    3.245      69.854
2015    3        7    23   1    5.8540   643.6    3.243      69.851
2015    3        7    23   6    5.8513   643.6    3.242      69.848
2015    3        7    23  11    5.8486   643.6    3.241      69.844
2015    3        7    23  17    5.8460   643.6    3.239      69.841
2015    3        7    23  22    5.8433   643.6    3.238      69.838
2015    3        7    23  27    5.8406   643.6    3.236      69.834
2015    3        7    23  33    5.8380   643.6    3.235      69.830
2015    3        7    23  38    5.8353   643.6    3.234      69.826
2015    3        7    23  43    5.8326   643.7    3.232      69.822
2015    3        7    23  48    5.8299   643.7    3.231      69.818
2015    3        7    23  54    5.8272   643.7    3.229      69.813
2015    3        7    23  59    5.8246   643.7    3.228      69.808
2015    3        8     0   4    5.8219   643.7    3.226      69.803
2015    3        8     0  10    5.8192   643.7    3.225      69.798
2015    3        8     0  15    5.8165   643.7    3.223      69.793
2015    3        8     0  20    5.8138   643.7    3.222      69.787
2015    3        8     0  26    5.8111   643.8    3.220      69.781
2015    3        8     0  31    5.8084   643.8    3.219      69.775
2015    3        8     0  36    5.8056   643.8    3.218      69.768
2015    3        8     0  41    5.8029   643.8    3.216      69.761
2015    3        8     0  47    5.8002   643.8    3.215      69.754
2015    3        8     0  52    5.7975   643.8    3.213      69.747
2015    3        8     0  57    5.7948   643.8    3.212      69.739
2015    3        8     1   3    5.7920   643.8    3.210      69.731
2015    3        8     1   8    5.7893   643.9    3.209      69.723
2015    3        8     1  13    5.7865   643.9    3.207      69.715
2015    3        8     1  19    5.7838   643.9    3.206      69.706
2015    3        8     1  24    5.7810   643.9    3.204      69.697
2015    3        8     1  29    5.7783   643.9    3.202      69.688
2015    3        8     1  34    5.7755   643.9    3.201      69.679
2015    3        8     1  40    5.7727   643.9    3.199      69.670
2015    3        8     1  45    5.7699   643.9    3.198      69.660
2015    3        8     1  50    5.7672   643.9    3.196      69.651
2015    3        8     1  56    5.7644   643.9    3.195      69.641
2015    3        8     2   1    5.7616   643.9    3.193      69.631
2015    3        8     2   6    5.7588   644.0    3.191      69.621
2015    3        8     2  12    5.7560   644.0    3.190      69.610
2015    3        8     2  17    5.7531   644.0    3.188      69.599
2015    3        8     2  22    5.7503   644.0    3.186      69.587
2015    3        8     2  27    5.7475   644.0    3.185      69.576
2015    3        8     2  33    5.7447   644.0    3.183      69.564
2015    3        8     2  38    5.7418   644.0    3.181      69.552
2015    3        8     2  43    5.7390   644.0    3.180      69.540
2015    3        8     2  49    5.7361   644.0    3.178      69.528
2015    3        8     2  54    5.7333   644.0    3.176      69.515
2015    3        8     2  59    5.7304   644.0    3.174      69.502
2015    3        8     3   5    5.7276   644.0    3.172      69.489
2015    3        8     3  10    5.7247   644.0    3.171      69.475
2015    3        8     3  15    5.7218   643.9    3.169      69.462
2015    3        8     3  20    5.7190   643.9    3.167      69.448
2015    3        8     3  26    5.7161   643.9    3.165      69.434
2015    3        8     3  31    5.7132   643.9    3.163      69.420
2015    3        8     3  36    5.7103   643.9    3.161      69.405
2015    3        8     3  42    5.7074   643.9    3.159      69.390
2015    3        8     3  47    5.7045   643.9    3.158      69.375
2015    3        8     3  52    5.7016   643.9    3.156      69.360
2015    3        8     3  58    5.6988   643.9    3.154      69.345
2015    3        8     4   3    5.6959   643.8    3.152      69.329
2015    3        8     4   8    5.6930   643.8    3.150      69.314
2015    3        8     4  14    5.6901   643.8    3.149      69.298
2015    3        8     4  19    5.6872   643.8    3.147      69.283
2015    3        8     4  24    5.6843   643.8    3.145      69.268
2015    3        8     4  29    5.6814   643.7    3.143      69.252
2015    3        8     4  35    5.6785   643.7    3.142      69.237
2015    3        8     4  40    5.6756   643.7    3.140      69.222
2015    3        8     4  45    5.6727   643.7    3.139      69.208
2015    3        8     4  51    5.6698   643.7    3.137      69.194
2015    3        8     4  56    5.6669   643.6    3.136      69.180
2015    3        8     5   1    5.6640   643.6    3.134      69.167
2015    3        8     5   7    5.6611   643.6    3.133      69.154
2015    3        8     5  12    5.6583   643.6    3.132      69.142
2015    3        8     5  17    5.6554   643.5    3.130      69.130
2015    3        8     5  22    5.6524   643.5    3.129      69.118
2015    3        8     5  28    5.6496   643.5    3.128      69.106
2015    3        8     5  33    5.6467   643.4    3.126      69.095
2015    3        8     5  38    5.6438   643.4    3.125      69.084
2015    3        8     5  44    5.6409   643.4    3.124      69.073
2015    3        8     5  49    5.6380   643.4    3.123      69.062
2015    3        8     5  54    5.6352   643.3    3.121      69.051
2015    3        8     6   0    5.6323   643.3    3.120      69.040
2015    3        8     6   5    5.6294   643.3    3.119      69.030
2015    3        8     6  10    5.6266   643.2    3.118      69.020
2015    3        8     6  15    5.6237   643.2    3.117      69.011
2015    3        8     6  21    5.6209   643.2    3.116      69.002
2015    3        8     6  26    5.6181   643.2    3.115      68.994
2015    3        8     6  31    5.6152   643.1    3.114      68.986
2015    3        8     6  37    5.6124   643.1    3.112      68.977
2015    3        8     6  42    5.6096   643.1    3.111      68.969
2015    3        8     6  47    5.6067   643.1    3.110      68.960
2015    3        8     6  53    5.6039   643.0    3.109      68.952
2015    3        8     6  58    5.6011   643.0    3.108      68.943
2015    3        8     7   3    5.5982   643.0    3.107      68.933
2015    3        8     7   8    5.5954   643.0    3.105      68.923
2015    3        8     7  14    5.5925   642.9    3.104      68.912
2015    3        8     7  19    5.5896   642.9    3.103      68.900
2015    3        8     7  24    5.5868   642.9    3.101      68.887
2015    3        8     7  30    5.5839   642.9    3.100      68.873
2015    3        8     7  35    5.5810   642.8    3.098      68.859
2015    3        8     7  40    5.5781   642.8    3.097      68.844
2015    3        8     7  46    5.5751   642.8    3.095      68.828
2015    3        8     7  51    5.5722   642.7    3.094      68.812
2015    3        8     7  56    5.5693   642.7    3.092      68.795
2015    3        8     8   1    5.5663   642.7    3.091      68.777
2015    3        8     8   7    5.5634   642.7    3.089      68.758
2015    3        8     8  12    5.5604   642.6    3.088      68.739
2015    3        8     8  17    5.5575   642.6    3.086      68.719
2015    3        8     8  23    5.5545   642.6    3.084      68.698
2015    3        8     8  28    5.5515   642.5    3.083      68.677
2015    3        8     8  33    5.5485   642.5    3.081      68.655
2015    3        8     8  39    5.5455   642.5    3.079      68.633
2015    3        8     8  44    5.5425   642.4    3.078      68.610
2015    3        8     8  49    5.5395   642.4    3.076      68.587
2015    3        8     8  55    5.5364   642.3    3.074      68.563
2015    3        8     9   0    5.5334   642.3    3.072      68.538
2015    3        8     9   5    5.5304   642.3    3.071      68.514
2015    3        8     9  10    5.5273   642.2    3.069      68.489
2015    3        8     9  16    5.5243   642.2    3.067      68.463
2015    3        8     9  21    5.5212   642.1    3.066      68.438
2015    3        8     9  26    5.5182   642.1    3.064      68.412
2015    3        8     9  32    5.5152   642.0    3.062      68.386
2015    3        8     9  37    5.5121   642.0    3.061      68.360
2015    3        8     9  42    5.5091   641.9    3.059      68.334
2015    3        8     9  48    5.5060   641.9    3.057      68.308
2015    3        8     9  53    5.5030   641.8    3.056      68.282
2015    3        8     9  58    5.5000   641.7    3.054      68.257
2015    3        8    10   3    5.4970   641.7    3.053      68.231
2015    3        8    10   9    5.4940   641.6    3.051      68.206
2015    3        8    10  14    5.4910   641.6    3.050      68.180
2015    3        8    10  19    5.4880   641.5    3.049      68.155
2015    3        8    10  25    5.4850   641.4    3.047      68.131
2015    3        8    10  30    5.4820   641.4    3.046      68.107
2015    3        8    10  35    5.4791   641.3    3.045      68.085
2015    3        8    10  41    5.4761   641.3    3.044      68.063
2015    3        8    10  46    5.4732   641.2    3.043      68.041
2015    3        8    10  51    5.4702   641.1    3.041      68.021
2015    3        8    10  56    5.4672   641.1    3.040      68.001
2015    3        8    11   2    5.4643   641.0    3.039      67.981
2015    3        8    11   7    5.4613   640.9    3.038      67.963
2015    3        8    11  12    5.4584   640.9    3.037      67.944
2015    3        8    11  18    5.4554   640.8    3.036      67.927
2015    3        8    11  23    5.4525   640.7    3.035      67.909
2015    3        8    11  28    5.4495   640.6    3.034      67.892
2015    3        8    11  34    5.4466   640.6    3.033      67.876
2015    3        8    11  39    5.4437   640.5    3.032      67.859
2015    3        8    11  44    5.4408   640.4    3.031      67.842
2015    3        8    11  49    5.4378   640.4    3.030      67.827
2015    3        8    11  55    5.4349   640.3    3.030      67.811
2015    3        8    12   0    5.4320   640.2    3.029      67.797
2015    3        8    12   5    5.4291   640.2    3.028      67.782
2015    3        8    12  11    5.4262   640.1    3.027      67.768
2015    3        8    12  16    5.4233   640.0    3.026      67.754
2015    3        8    12  21    5.4204   640.0    3.025      67.739
2015    3        8    12  27    5.4175   639.9    3.025      67.724
2015    3        8    12  32    5.4145   639.8    3.024      67.709
2015    3        8    12  37    5.4116   639.8    3.023      67.694
2015    3        8    12  42    5.4087   639.7    3.022      67.679
2015    3        8    12  48    5.4057   639.6    3.021      67.663
2015    3        8    12  53    5.4027   639.6    3.020      67.647
2015    3        8    12  58    5.3998   639.5    3.019      67.630
2015    3        8    13   4    5.3968   639.4    3.018      67.613
2015    3        8    13   9    5.3938   639.4    3.017      67.595
2015    3        8    13  14    5.3908   639.3    3.016      67.576
2015    3        8    13  20    5.3877   639.2    3.015      67.558
2015    3        8    13  25    5.3847   639.1    3.014      67.538
2015    3        8    13  30    5.3817   639.1    3.012      67.518
2015    3        8    13  36    5.3787   639.0    3.011      67.498
2015    3        8    13  41    5.3756   638.9    3.010      67.476
2015    3        8    13  46    5.3726   638.9    3.009      67.454
2015    3        8    13  51    5.3695   638.8    3.008      67.432
2015    3        8    13  57    5.3664   638.7    3.006      67.409
2015    3        8    14   2    5.3633   638.6    3.005      67.385
2015    3        8    14   7    5.3602   638.6    3.004      67.361
2015    3        8    14  13    5.3571   638.5    3.002      67.336
2015    3        8    14  18    5.3540   638.4    3.001      67.311
2015    3        8    14  23    5.3508   638.3    3.000      67.284
2015    3        8    14  29    5.3477   638.2    2.998      67.258
2015    3        8    14  34    5.3445   638.2    2.997      67.230
2015    3        8    14  39    5.3414   638.1    2.995      67.202
2015    3        8    14  44    5.3383   638.0    2.994      67.173
2015    3        8    14  50    5.3351   637.9    2.992      67.143
2015    3        8    14  55    5.3319   637.8    2.991      67.113
2015    3        8    15   0    5.3288   637.7    2.989      67.082
2015    3        8    15   6    5.3256   637.7    2.988      67.051
2015    3        8    15  11    5.3225   637.6    2.987      67.019
2015    3        8    15  16    5.3194   637.5    2.985      66.987
2015    3        8    15  22    5.3162   637.4    2.984      66.955
2015    3        8    15  27    5.3131   637.3    2.982      66.922
2015    3        8    15  32    5.3100   637.2    2.981      66.889
2015    3        8    15  37    5.3070   637.1    2.980      66.856
2015    3        8    15  43    5.3039   637.0    2.978      66.822
2015    3        8    15  48    5.3008   636.9    2.977      66.789
2015    3        8    15  53    5.2978   636.8    2.976      66.755
2015    3        8    15  59    5.2948   636.7    2.975      66.722
2015    3        8    16   4    5.2918   636.6    2.974      66.688
2015    3        8    16   9    5.2888   636.5    2.973      66.654
2015    3        8    16  15    5.2858   636.4    2.972      66.621
2015    3        8    16  20    5.2828   636.3    2.971      66.587
2015    3        8    16  25    5.2799   636.2    2.970      66.554
2015    3        8    16  30    5.2769   636.1    2.969      66.520
2015    3        8    16  36    5.2740   636.0    2.968      66.487
2015    3        8    16  41    5.2710   635.9    2.967      66.455
2015    3        8    16  46    5.2681   635.8    2.966      66.423
2015    3        8    16  52    5.2651   635.7    2.965      66.391
2015    3        8    16  57    5.2622   635.6    2.965      66.361
2015    3        8    17   2    5.2593   635.5    2.964      66.330
2015    3        8    17   8    5.2563   635.4    2.963      66.300
2015    3        8    17  13    5.2534   635.3    2.962      66.271
2015    3        8    17  18    5.2505   635.1    2.962      66.242
2015    3        8    17  23    5.2476   635.0    2.961      66.214
2015    3        8    17  29    5.2448   634.9    2.960      66.186
2015    3        8    17  34    5.2419   634.8    2.960      66.159
2015    3        8    17  39    5.2390   634.7    2.959      66.132
2015    3        8    17  45    5.2362   634.6    2.959      66.107
2015    3        8    17  50    5.2333   634.5    2.958      66.082
2015    3        8    17  55    5.2305   634.4    2.958      66.058
2015    3        8    18   1    5.2276   634.3    2.957      66.035
2015    3        8    18   6    5.2248   634.1    2.957      66.012
2015    3        8    18  11    5.2219   634.0    2.956      65.990
2015    3        8    18  17    5.2191   633.9    2.956      65.968
2015    3        8    18  22    5.2162   633.8    2.955      65.945
2015    3        8    18  27    5.2134   633.7    2.955      65.923
2015    3        8    18  32    5.2104   633.6    2.954      65.902
2015    3        8    18  38    5.2076   633.5    2.953      65.880
2015    3        8    18  43    5.2047   633.4    2.953      65.858
2015    3        8    18  48    5.2019   633.3    2.952      65.835
2015    3        8    18  54    5.1990   633.2    2.952      65.812
2015    3        8    18  59    5.1962   633.1    2.951      65.789
2015    3        8    19   4    5.1933   632.9    2.950      65.765
2015    3        8    19  10    5.1904   632.8    2.950      65.741
2015    3        8    19  15    5.1875   632.7    2.949      65.717
2015    3        8    19  20    5.1846   632.6    2.948      65.692
2015    3        8    19  25    5.1818   632.5    2.948      65.668
2015    3        8    19  31    5.1789   632.4    2.947      65.643
2015    3        8    19  36    5.1760   632.3    2.946      65.618
2015    3        8    19  41    5.1730   632.2    2.945      65.593
2015    3        8    19  47    5.1701   632.1    2.945      65.567
2015    3        8    19  52    5.1672   631.9    2.944      65.542
2015    3        8    19  57    5.1642   631.8    2.943      65.517
2015    3        8    20   3    5.1612   631.7    2.942      65.491
2015    3        8    20   8    5.1582   631.6    2.941      65.464
2015    3        8    20  13    5.1552   631.5    2.940      65.437
2015    3        8    20  18    5.1521   631.4    2.940      65.410
2015    3        8    20  24    5.1491   631.3    2.939      65.381
2015    3        8    20  29    5.1461   631.1    2.937      65.352
2015    3        8    20  34    5.1430   631.0    2.936      65.322
2015    3        8    20  40    5.1400   630.9    2.935      65.291
2015    3        8    20  45    5.1369   630.8    2.934      65.260
2015    3        8    20  50    5.1338   630.6    2.933      65.227
2015    3        8    20  56    5.1307   630.5    2.932      65.193
2015    3        8    21   1    5.1276   630.4    2.931      65.158
2015    3        8    21   6    5.1245   630.3    2.929      65.122
2015    3        8    21  11    5.1214   630.1    2.928      65.086
2015    3        8    21  17    5.1183   630.0    2.927      65.048
2015    3        8    21  22    5.1152   629.8    2.926      65.010
2015    3        8    21  27    5.1121   629.7    2.924      64.971
2015    3        8    21  33    5.1090   629.6    2.923      64.932
2015    3        8    21  38    5.1059   629.4    2.922      64.892
2015    3        8    21  43    5.1028   629.3    2.921      64.852
2015    3        8    21  49    5.0997   629.1    2.920      64.812
2015    3        8    21  54    5.0967   629.0    2.919      64.771
2015    3        8    21  59    5.0936   628.8    2.918      64.731
2015    3        8    22   5    5.0906   628.7    2.917      64.690
2015    3        8    22  10    5.0876   628.6    2.916      64.650
2015    3        8    22  15    5.0846   628.4    2.915      64.609
2015    3        8    22  20    5.0817   628.3    2.914      64.569
2015    3        8    22  26    5.0787   628.1    2.913      64.530
2015    3        8    22  31    5.0758   628.0    2.913      64.491
2015    3        8    22  36    5.0729   627.8    2.912      64.453
2015    3        8    22  42    5.0700   627.7    2.912      64.415
2015    3        8    22  47    5.0672   627.5    2.911      64.377
2015    3        8    22  52    5.0644   627.4    2.911      64.341
2015    3        8    22  58    5.0615   627.2    2.911      64.305
2015    3        8    23   3    5.0587   627.1    2.911      64.269
2015    3        8    23   8    5.0560   626.9    2.910      64.233
2015    3        8    23  13    5.0532   626.8    2.910      64.198
2015    3        8    23  19    5.0504   626.6    2.910      64.164
2015    3        8    23  24    5.0476   626.5    2.910      64.130
2015    3        8    23  29    5.0448   626.4    2.910      64.097
2015    3        8    23  35    5.0420   626.2    2.910      64.065
2015    3        8    23  40    5.0393   626.1    2.910      64.033
2015    3        8    23  45    5.0365   625.9    2.910      64.001
2015    3        8    23  51    5.0337   625.8    2.910      63.969
2015    3        8    23  56    5.0309   625.6    2.909      63.937
2015    3        9     0   1    5.0280   625.5    2.909      63.905
2015    3        9     0   6    5.0252   625.3    2.909      63.872
2015    3        9     0  12    5.0224   625.2    2.909      63.840
2015    3        9     0  17    5.0196   625.0    2.909      63.808
2015    3        9     0  22    5.0168   624.9    2.908      63.775
2015    3        9     0  28    5.0140   624.7    2.908      63.742
2015    3        9     0  33    5.0111   624.6    2.908      63.709
2015    3        9     0  38    5.0084   624.4    2.907      63.675
2015    3        9     0  44    5.0056   624.3    2.907      63.641
2015    3        9     0  49    5.0027   624.1    2.907      63.606
2015    3        9     0  54    5.0000   624.0    2.906      63.572
2015    3        9     0  59    4.9972   623.8    2.906      63.538
2015    3        9     1   5    4.9944   623.7    2.906      63.503
2015    3        9     1  10    4.9916   623.5    2.905      63.468
2015    3        9     1  15    4.9889   623.4    2.905      63.434
2015    3        9     1  21    4.9861   623.2    2.904      63.399
2015    3        9     1  26    4.9833   623.1    2.904      63.364
2015    3        9     1  31    4.9805   622.9    2.904      63.330
2015    3        9     1  37    4.9778   622.8    2.903      63.295
2015    3        9     1  42    4.9750   622.6    2.903      63.261
2015    3        9     1  47    4.9722   622.5    2.903      63.226
2015    3        9     1  53    4.9695   622.3    2.902      63.191
2015    3        9     1  58    4.9667   622.2    2.902      63.157
2015    3        9     2   3    4.9639   622.0    2.902      63.122
2015    3        9     2   8    4.9611   621.9    2.901      63.087
2015    3        9     2  14    4.9582   621.7    2.901      63.052
2015    3        9     2  19    4.9555   621.6    2.900      63.016
2015    3        9     2  24    4.9526   621.4    2.900      62.981
2015    3        9     2  30    4.9497   621.3    2.899      62.946
2015    3        9     2  35    4.9469   621.1    2.899      62.910
2015    3        9     2  40    4.9440   621.0    2.898      62.874
2015    3        9     2  46    4.9410   620.8    2.898      62.838
2015    3        9     2  51    4.9382   620.7    2.897      62.801
2015    3        9     2  56    4.9352   620.5    2.897      62.764
2015    3        9     3   1    4.9323   620.3    2.896      62.727
2015    3        9     3   7    4.9294   620.2    2.895      62.690
2015    3        9     3  12    4.9264   620.0    2.895      62.652
2015    3        9     3  17    4.9235   619.9    2.894      62.613
2015    3        9     3  23    4.9205   619.7    2.893      62.574
2015    3        9     3  28    4.9176   619.5    2.892      62.534
2015    3        9     3  33    4.9147   619.4    2.891      62.494
2015    3        9     3  39    4.9117   619.2    2.891      62.453
2015    3        9     3  44    4.9087   619.0    2.890      62.412
2015    3        9     3  49    4.9058   618.9    2.889      62.370
2015    3        9     3  54    4.9028   618.7    2.888      62.328
2015    3        9     4   0    4.8999   618.5    2.887      62.285
2015    3        9     4   5    4.8970   618.3    2.886      62.242
2015    3        9     4  10    4.8941   618.2    2.885      62.199
2015    3        9     4  16    4.8911   618.0    2.884      62.155
2015    3        9     4  21    4.8882   617.8    2.884      62.111
2015    3        9     4  26    4.8853   617.6    2.883      62.066
2015    3        9     4  32    4.8824   617.5    2.882      62.022
2015    3        9     4  37    4.8795   617.3    2.881      61.977
2015    3        9     4  42    4.8766   617.1    2.880      61.932
2015    3        9     4  47    4.8738   616.9    2.879      61.887
2015    3        9     4  53    4.8709   616.8    2.879      61.842
2015    3        9     4  58    4.8681   616.6    2.878      61.797
2015    3        9     5   3    4.8653   616.4    2.877      61.752
2015    3        9     5   9    4.8625   616.2    2.877      61.707
2015    3        9     5  14    4.8596   616.0    2.876      61.662
2015    3        9     5  19    4.8568   615.8    2.875      61.617
2015    3        9     5  25    4.8540   615.7    2.875      61.572
2015    3        9     5  30    4.8513   615.5    2.874      61.527
2015    3        9     5  35    4.8484   615.3    2.874      61.483
2015    3        9     5  41    4.8457   615.1    2.873      61.438
2015    3        9     5  46    4.8429   614.9    2.873      61.394
2015    3        9     5  51    4.8401   614.7    2.872      61.349
2015    3        9     5  56    4.8374   614.5    2.872      61.305
2015    3        9     6   2    4.8346   614.3    2.872      61.261
2015    3        9     6   7    4.8319   614.1    2.871      61.216
2015    3        9     6  12    4.8291   614.0    2.871      61.172
2015    3        9     6  18    4.8263   613.8    2.871      61.127
2015    3        9     6  23    4.8236   613.6    2.871      61.083
2015    3        9     6  28    4.8208   613.4    2.870      61.038
2015    3        9     6  34    4.8180   613.2    2.870      60.994
2015    3        9     6  39    4.8152   613.0    2.870      60.949
2015    3        9     6  44    4.8125   612.8    2.870      60.905
2015    3        9     6  49    4.8097   612.6    2.870      60.860
2015    3        9     6  55    4.8069   612.4    2.869      60.816
2015    3        9     7   0    4.8042   612.2    2.869      60.771
2015    3        9     7   5    4.8014   612.0    2.869      60.727
2015    3        9     7  11    4.7986   611.8    2.869      60.682
2015    3        9     7  16    4.7958   611.6    2.869      60.637
2015    3        9     7  21    4.7931   611.4    2.869      60.593
2015    3        9     7  27    4.7903   611.3    2.869      60.548
2015    3        9     7  32    4.7876   611.1    2.869      60.504
2015    3        9     7  37    4.7848   610.9    2.869      60.460
2015    3        9     7  42    4.7820   610.7    2.869      60.416
2015    3        9     7  48    4.7793   610.5    2.869      60.372
2015    3        9     7  53    4.7765   610.3    2.869      60.328
2015    3        9     7  58    4.7738   610.1    2.869      60.284
2015    3        9     8   4    4.7711   609.9    2.869      60.240
2015    3        9     8   9    4.7683   609.7    2.869      60.197
2015    3        9     8  14    4.7656   609.5    2.869      60.154
2015    3        9     8  20    4.7629   609.3    2.869      60.111
2015    3        9     8  25    4.7602   609.1    2.869      60.069
2015    3        9     8  30    4.7575   608.9    2.869      60.026
2015    3        9     8  35    4.7547   608.7    2.870      59.984
2015    3        9     8  41    4.7520   608.5    2.870      59.942
2015    3        9     8  46    4.7493   608.3    2.870      59.899
2015    3        9     8  51    4.7466   608.1    2.870      59.857
2015    3        9     8  57    4.7439   607.9    2.870      59.815
2015    3        9     9   2    4.7412   607.7    2.870      59.772
2015    3        9     9   7    4.7384   607.5    2.871      59.730
2015    3        9     9  13    4.7357   607.3    2.871      59.687
2015    3        9     9  18    4.7329   607.1    2.871      59.644
2015    3        9     9  23    4.7302   606.9    2.871      59.600
2015    3        9     9  28    4.7274   606.7    2.871      59.557
2015    3        9     9  34    4.7246   606.5    2.871      59.513
2015    3        9     9  39    4.7218   606.3    2.871      59.469
2015    3        9     9  44    4.7191   606.1    2.871      59.424
2015    3        9     9  50    4.7163   605.9    2.871      59.380
2015    3        9     9  55    4.7135   605.7    2.871      59.334
2015    3        9    10   0    4.7107   605.5    2.870      59.289
2015    3        9    10   6    4.7079   605.3    2.870      59.243
2015    3        9    10  11    4.7050   605.1    2.870      59.197
2015    3        9    10  16    4.7022   604.9    2.870      59.151
2015    3        9    10  22    4.6994   604.7    2.870      59.104
2015    3        9    10  27    4.6966   604.5    2.870      59.057
2015    3        9    10  32    4.6938   604.3    2.869      59.010
2015    3        9    10  37    4.6910   604.1    2.869      58.963
2015    3        9    10  43    4.6882   603.9    2.869      58.916
2015    3        9    10  48    4.6855   603.7    2.869      58.868
2015    3        9    10  53    4.6827   603.5    2.868      58.820
2015    3        9    10  59    4.6799   603.3    2.868      58.772
2015    3        9    11   4    4.6771   603.1    2.868      58.723
2015    3        9    11   9    4.6743   602.9    2.867      58.675
2015    3        9    11  15    4.6715   602.7    2.867      58.626
2015    3        9    11  20    4.6688   602.4    2.867      58.577
2015    3        9    11  25    4.6661   602.2    2.866      58.528
2015    3        9    11  30    4.6633   602.0    2.866      58.478
2015    3        9    11  36    4.6605   601.8    2.866      58.429
2015    3        9    11  41    4.6578   601.6    2.865      58.379
2015    3        9    11  46    4.6551   601.4    2.865      58.330
2015    3        9    11  52    4.6523   601.2    2.865      58.280
2015    3        9    11  57    4.6496   601.0    2.864      58.230
2015    3        9    12   2    4.6469   600.8    2.864      58.179
2015    3        9    12   8    4.6442   600.6    2.863      58.129
2015    3        9    12  13    4.6414   600.4    2.863      58.079
2015    3        9    12  18    4.6387   600.2    2.863      58.029
2015    3        9    12  23    4.6359   599.9    2.862      57.978
2015    3        9    12  29    4.6332   599.7    2.862      57.928
2015    3        9    12  34    4.6304   599.5    2.862      57.877
2015    3        9    12  39    4.6277   599.3    2.861      57.827
2015    3        9    12  45    4.6250   599.1    2.861      57.776
2015    3        9    12  50    4.6222   598.9    2.860      57.726
2015    3        9    12  55    4.6195   598.6    2.860      57.675
2015    3        9    13   1    4.6167   598.4    2.860      57.624
2015    3        9    13   6    4.6140   598.2    2.859      57.574
2015    3        9    13  11    4.6113   598.0    2.859      57.523
2015    3        9    13  16    4.6086   597.8    2.859      57.473
2015    3        9    13  22    4.6058   597.5    2.858      57.422
2015    3        9    13  27    4.6031   597.3    2.858      57.372
2015    3        9    13  32    4.6003   597.1    2.858      57.321
2015    3        9    13  38    4.5976   596.9    2.857      57.270
2015    3        9    13  43    4.5948   596.6    2.857      57.219
2015    3        9    13  48    4.5921   596.4    2.857      57.168
2015    3        9    13  54    4.5894   596.2    2.857      57.117
2015    3        9    13  59    4.5866   596.0    2.857      57.066
2015    3        9    14   4    4.5839   595.7    2.856      57.015
2015    3        9    14  10    4.5811   595.5    2.856      56.964
2015    3        9    14  15    4.5784   595.3    2.856      56.912
2015    3        9    14  20    4.5756   595.1    2.856      56.861
2015    3        9    14  25    4.5729   594.8    2.856      56.809
2015    3        9    14  31    4.5701   594.6    2.856      56.758
2015    3        9    14  36    4.5673   594.4    2.856      56.706
2015    3        9    14  41    4.5646   594.1    2.856      56.654
2015    3        9    14  47    4.5618   593.9    2.856      56.602
2015    3        9    14  52    4.5590   593.6    2.856      56.550
2015    3        9    14  57    4.5563   593.4    2.856      56.498
2015    3        9    15   3    4.5535   593.2    2.856      56.446
2015    3        9    15   8    4.5508   592.9    2.856      56.394
2015    3        9    15  13    4.5480   592.7    2.856      56.342
2015    3        9    15  18    4.5453   592.4    2.856      56.291
2015    3        9    15  24    4.5425   592.2    2.856      56.239
2015    3        9    15  29    4.5398   591.9    2.856      56.188
2015    3        9    15  34    4.5371   591.7    2.856      56.136
2015    3        9    15  40    4.5344   591.5    2.857      56.085
2015    3        9    15  45    4.5317   591.2    2.857      56.034
2015    3        9    15  50    4.5290   591.0    2.857      55.983
2015    3        9    15  56    4.5263   590.7    2.857      55.931
2015    3        9    16   1    4.5236   590.5    2.857      55.880
2015    3        9    16   6    4.5210   590.2    2.858      55.830
2015    3        9    16  11    4.5184   590.0    2.858      55.779
2015    3        9    16  17    4.5157   589.7    2.858      55.728
2015    3        9    16  22    4.5131   589.5    2.859      55.677
2015    3        9    16  27    4.5105   589.2    2.859      55.627
2015    3        9    16  33    4.5079   589.0    2.859      55.576
2015    3        9    16  38    4.5053   588.7    2.860      55.526
2015    3        9    16  43    4.5027   588.5    2.860      55.476
2015    3        9    16  49    4.5001   588.2    2.860      55.425
2015    3        9    16  54    4.4976   588.0    2.861      55.376
2015    3        9    16  59    4.4950   587.7    2.861      55.326
2015    3        9    17   4    4.4924   587.5    2.862      55.276
2015    3        9    17  10    4.4898   587.2    2.862      55.227
2015    3        9    17  15    4.4873   587.0    2.862      55.177
2015    3        9    17  20    4.4847   586.7    2.863      55.127
2015    3        9    17  26    4.4821   586.5    2.863      55.077
2015    3        9    17  31    4.4796   586.2    2.864      55.027
2015    3        9    17  36    4.4770   586.0    2.864      54.977
2015    3        9    17  42    4.4744   585.7    2.864      54.927
2015    3        9    17  47    4.4718   585.5    2.865      54.877
2015    3        9    17  52    4.4692   585.2    2.865      54.826
2015    3        9    17  57    4.4666   585.0    2.865      54.776
2015    3        9    18   3    4.4640   584.7    2.866      54.725
2015    3        9    18   8    4.4614   584.5    2.866      54.674
2015    3        9    18  13    4.4588   584.3    2.866      54.623
2015    3        9    18  19    4.4562   584.0    2.866      54.571
2015    3        9    18  24    4.4536   583.8    2.867      54.520
2015    3        9    18  29    4.4510   583.5    2.867      54.468
2015    3        9    18  35    4.4484   583.3    2.867      54.416
2015    3        9    18  40    4.4458   583.0    2.867      54.365
2015    3        9    18  45    4.4432   582.8    2.868      54.313
2015    3        9    18  51    4.4406   582.5    2.868      54.262
2015    3        9    18  56    4.4379   582.3    2.868      54.211
2015    3        9    19   1    4.4353   582.0    2.869      54.160
2015    3        9    19   6    4.4327   581.8    2.869      54.109
2015    3        9    19  12    4.4301   581.5    2.869      54.058
2015    3        9    19  17    4.4275   581.3    2.870      54.008
2015    3        9    19  22    4.4249   581.1    2.870      53.958
2015    3        9    19  28    4.4223   580.8    2.870      53.908
2015    3        9    19  33    4.4197   580.6    2.871      53.858
2015    3        9    19  38    4.4171   580.3    2.871      53.808
2015    3        9    19  44    4.4145   580.1    2.871      53.759
2015    3        9    19  49    4.4119   579.8    2.871      53.709
2015    3        9    19  54    4.4092   579.6    2.872      53.659
2015    3        9    19  59    4.4066   579.3    2.872      53.609
2015    3        9    20   5    4.4040   579.1    2.872      53.559
2015    3        9    20  10    4.4013   578.8    2.873      53.509
2015    3        9    20  15    4.3986   578.6    2.873      53.458
2015    3        9    20  21    4.3960   578.3    2.873      53.407
2015    3        9    20  26    4.3933   578.1    2.873      53.357
2015    3        9    20  31    4.3907   577.8    2.874      53.306
2015    3        9    20  37    4.3880   577.6    2.874      53.254
2015    3        9    20  42    4.3854   577.3    2.874      53.203
2015    3        9    20  47    4.3827   577.1    2.874      53.151
2015    3        9    20  52    4.3800   576.8    2.875      53.100
2015    3        9    20  58    4.3774   576.6    2.875      53.048
2015    3        9    21   3    4.3748   576.3    2.875      52.996
2015    3        9    21   8    4.3722   576.1    2.876      52.944
2015    3        9    21  14    4.3695   575.8    2.876      52.892
2015    3        9    21  19    4.3668   575.5    2.876      52.841
2015    3        9    21  24    4.3642   575.3    2.877      52.789
2015    3        9    21  30    4.3616   575.0    2.877      52.737
2015    3        9    21  35    4.3589   574.8    2.877      52.685
2015    3        9    21  40    4.3563   574.5    2.877      52.633
2015    3        9    21  46    4.3537   574.2    2.878      52.581
2015    3        9    21  51    4.3510   574.0    2.878      52.529
2015    3        9    21  56    4.3484   573.7    2.878      52.476
2015    3        9    22   1    4.3458   573.4    2.878      52.423
2015    3        9    22   7    4.3432   573.2    2.879      52.370
2015    3        9    22  12    4.3405   572.9    2.879      52.317
2015    3        9    22  17    4.3379   572.6    2.879      52.264
2015    3        9    22  23    4.3353   572.3    2.879      52.210
2015    3        9    22  28    4.3328   572.1    2.879      52.156
2015    3        9    22  33    4.3302   571.8    2.880      52.102
2015    3        9    22  39    4.3276   571.5    2.880      52.048
2015    3        9    22  44    4.3251   571.2    2.880      51.994
2015    3        9    22  49    4.3227   571.0    2.880      51.940
2015    3        9    22  54    4.3201   570.7    2.881      51.886
2015    3        9    23   0    4.3176   570.4    2.881      51.832
2015    3        9    23   5    4.3153   570.1    2.881      51.778
2015    3        9    23  10    4.3128   569.8    2.881      51.724
2015    3        9    23  16    4.3104   569.5    2.882      51.671
2015    3        9    23  21    4.3080   569.2    2.882      51.617
2015    3        9    23  26    4.3057   569.0    2.883      51.565
2015    3        9    23  32    4.3034   568.7    2.883      51.512
2015    3        9    23  37    4.3011   568.4    2.884      51.460
2015    3        9    23  42    4.2987   568.1    2.885      51.408
2015    3        9    23  47    4.2965   567.8    2.885      51.357
2015    3        9    23  53    4.2943   567.5    2.886      51.306
2015    3        9    23  58    4.2920   567.2    2.887      51.256
2015    3       10     0   3    4.2898   567.0    2.887      51.207
2015    3       10     0   9    4.2876   566.7    2.888      51.158
2015    3       10     0  14    4.2855   566.4    2.889      51.109
2015    3       10     0  19    4.2832   566.1    2.890      51.060
2015    3       10     0  25    4.2811   565.8    2.891      51.012
2015    3       10     0  30    4.2789   565.5    2.892      50.964
2015    3       10     0  35    4.2767   565.2    2.893      50.916
2015    3       10     0  40    4.2746   564.9    2.894      50.867
2015    3       10     0  46    4.2724   564.7    2.894      50.819
2015    3       10     0  51    4.2703   564.4    2.895      50.770
2015    3       10     0  56    4.2681   564.1    2.896      50.722
2015    3       10     1   2    4.2659   563.8    2.897      50.673
2015    3       10     1   7    4.2638   563.5    2.898      50.624
2015    3       10     1  12    4.2616   563.2    2.899      50.575
2015    3       10     1  18    4.2595   562.9    2.900      50.526
2015    3       10     1  23    4.2573   562.6    2.901      50.477
2015    3       10     1  28    4.2551   562.3    2.901      50.428
2015    3       10     1  34    4.2530   562.0    2.902      50.379
2015    3       10     1  39    4.2509   561.7    2.903      50.330
2015    3       10     1  44    4.2487   561.4    2.904      50.281
2015    3       10     1  49    4.2466   561.2    2.905      50.233
2015    3       10     1  55    4.2445   560.9    2.906      50.184
2015    3       10     2   0    4.2424   560.6    2.907      50.136
2015    3       10     2   5    4.2402   560.3    2.908      50.088
2015    3       10     2  11    4.2382   560.0    2.909      50.040
2015    3       10     2  16    4.2360   559.7    2.911      49.992
2015    3       10     2  21    4.2338   559.4    2.912      49.944
2015    3       10     2  27    4.2317   559.1    2.913      49.895
2015    3       10     2  32    4.2296   558.8    2.914      49.847
2015    3       10     2  37    4.2274   558.5    2.915      49.798
2015    3       10     2  42    4.2252   558.2    2.916      49.750
2015    3       10     2  48    4.2230   557.9    2.917      49.701
2015    3       10     2  53    4.2208   557.6    2.918      49.651
2015    3       10     2  58    4.2186   557.4    2.919      49.602
2015    3       10     3   4    4.2163   557.1    2.920      49.552
2015    3       10     3   9    4.2141   556.8    2.921      49.502
2015    3       10     3  14    4.2119   556.5    2.922      49.452
2015    3       10     3  20    4.2096   556.2    2.923      49.402
2015    3       10     3  25    4.2074   555.9    2.924      49.351
2015    3       10     3  30    4.2052   555.6    2.925      49.300
2015    3       10     3  35    4.2029   555.3    2.926      49.249
2015    3       10     3  41    4.2007   554.9    2.927      49.198
2015    3       10     3  46    4.1984   554.6    2.928      49.147
2015    3       10     3  51    4.1962   554.3    2.929      49.096
2015    3       10     3  57    4.1940   554.0    2.930      49.045
2015    3       10     4   2    4.1918   553.7    2.931      48.993
2015    3       10     4   7    4.1896   553.4    2.932      48.942
2015    3       10     4  13    4.1874   553.1    2.933      48.891
2015    3       10     4  18    4.1852   552.8    2.934      48.840
2015    3       10     4  23    4.1830   552.5    2.936      48.789
2015    3       10     4  28    4.1808   552.2    2.937      48.737
2015    3       10     4  34    4.1787   551.9    2.938      48.686
2015    3       10     4  39    4.1766   551.6    2.939      48.635
2015    3       10     4  44    4.1744   551.3    2.940      48.584
2015    3       10     4  50    4.1723   551.0    2.941      48.533
2015    3       10     4  55    4.1702   550.7    2.942      48.482
2015    3       10     5   0    4.1681   550.4    2.943      48.431
2015    3       10     5   6    4.1660   550.1    2.944      48.380
2015    3       10     5  11    4.1639   549.7    2.946      48.329
2015    3       10     5  16    4.1618   549.4    2.947      48.278
2015    3       10     5  21    4.1598   549.1    2.948      48.228
2015    3       10     5  27    4.1578   548.8    2.949      48.178
2015    3       10     5  32    4.1558   548.5    2.951      48.127
2015    3       10     5  37    4.1537   548.2    2.952      48.078
2015    3       10     5  43    4.1518   547.9    2.953      48.028
2015    3       10     5  48    4.1498   547.6    2.954      47.979
2015    3       10     5  53    4.1479   547.2    2.956      47.930
2015    3       10     5  59    4.1459   546.9    2.957      47.881
2015    3       10     6   4    4.1441   546.6    2.959      47.833
2015    3       10     6   9    4.1422   546.3    2.960      47.785
2015    3       10     6  15    4.1404   546.0    2.962      47.738
2015    3       10     6  20    4.1385   545.7    2.963      47.691
2015    3       10     6  25    4.1367   545.4    2.965      47.645
2015    3       10     6  30    4.1350   545.0    2.967      47.599
2015    3       10     6  36    4.1332   544.7    2.968      47.553
2015    3       10     6  41    4.1316   544.4    2.970      47.508
2015    3       10     6  46    4.1298   544.1    2.972      47.463
2015    3       10     6  52    4.1282   543.8    2.974      47.419
2015    3       10     6  57    4.1265   543.5    2.976      47.375
2015    3       10     7   2    4.1249   543.2    2.977      47.331
2015    3       10     7   8    4.1233   542.9    2.979      47.288
2015    3       10     7  13    4.1216   542.6    2.981      47.245
2015    3       10     7  18    4.1199   542.2    2.983      47.202
2015    3       10     7  23    4.1183   541.9    2.985      47.159
2015    3       10     7  29    4.1167   541.6    2.987      47.116
2015    3       10     7  34    4.1151   541.3    2.989      47.073
2015    3       10     7  39    4.1135   541.0    2.991      47.030
2015    3       10     7  45    4.1118   540.7    2.993      46.987
2015    3       10     7  50    4.1102   540.4    2.995      46.943
2015    3       10     7  55    4.1086   540.0    2.997      46.900
2015    3       10     8   1    4.1069   539.7    2.999      46.856
2015    3       10     8   6    4.1053   539.4    3.001      46.812
2015    3       10     8  11    4.1037   539.1    3.003      46.768
2015    3       10     8  16    4.1021   538.8    3.005      46.724
2015    3       10     8  22    4.1005   538.4    3.007      46.680
2015    3       10     8  27    4.0989   538.1    3.009      46.636
2015    3       10     8  32    4.0974   537.8    3.011      46.592
2015    3       10     8  38    4.0958   537.5    3.013      46.547
2015    3       10     8  43    4.0943   537.1    3.015      46.503
2015    3       10     8  48    4.0927   536.8    3.017      46.459
2015    3       10     8  54    4.0912   536.5    3.019      46.414
2015    3       10     8  59    4.0898   536.2    3.021      46.370
2015    3       10     9   4    4.0883   535.8    3.023      46.325
2015    3       10     9   9    4.0868   535.5    3.025      46.281
2015    3       10     9  15    4.0853   535.2    3.027      46.236
2015    3       10     9  20    4.0839   534.9    3.030      46.192
2015    3       10     9  25    4.0825   534.5    3.032      46.147
2015    3       10     9  31    4.0811   534.2    3.034      46.102
2015    3       10     9  36    4.0796   533.9    3.036      46.057
2015    3       10     9  41    4.0782   533.6    3.038      46.011
2015    3       10     9  47    4.0767   533.2    3.040      45.966
2015    3       10     9  52    4.0753   532.9    3.042      45.919
2015    3       10     9  57    4.0739   532.6    3.045      45.873
2015    3       10    10   3    4.0724   532.3    3.047      45.826
2015    3       10    10   8    4.0711   531.9    3.049      45.778
2015    3       10    10  13    4.0696   531.6    3.051      45.730
2015    3       10    10  18    4.0682   531.3    3.053      45.682
2015    3       10    10  24    4.0669   530.9    3.055      45.634
2015    3       10    10  29    4.0654   530.6    3.058      45.585
2015    3       10    10  34    4.0640   530.2    3.060      45.536
2015    3       10    10  40    4.0626   529.9    3.062      45.487
2015    3       10    10  45    4.0613   529.6    3.064      45.438
2015    3       10    10  50    4.0600   529.2    3.066      45.388
2015    3       10    10  56    4.0587   528.9    3.068      45.339
2015    3       10    11   1    4.0574   528.5    3.070      45.289
2015    3       10    11   6    4.0561   528.2    3.073      45.239
2015    3       10    11  11    4.0548   527.9    3.075      45.190
2015    3       10    11  17    4.0536   527.5    3.077      45.141
2015    3       10    11  22    4.0524   527.2    3.079      45.091
2015    3       10    11  27    4.0513   526.9    3.081      45.042
2015    3       10    11  33    4.0501   526.5    3.084      44.993
2015    3       10    11  38    4.0490   526.2    3.086      44.944
2015    3       10    11  43    4.0478   525.8    3.088      44.896
2015    3       10    11  49    4.0467   525.5    3.091      44.847
2015    3       10    11  54    4.0456   525.2    3.093      44.799
2015    3       10    11  59    4.0446   524.8    3.095      44.751
2015    3       10    12   4    4.0437   524.5    3.098      44.703
2015    3       10    12  10    4.0426   524.1    3.100      44.655
2015    3       10    12  15    4.0416   523.8    3.103      44.607
2015    3       10    12  20    4.0406   523.5    3.105      44.559
2015    3       10    12  26    4.0396   523.1    3.108      44.512
2015    3       10    12  31    4.0387   522.8    3.110      44.465
2015    3       10    12  36    4.0379   522.5    3.113      44.418
2015    3       10    12  42    4.0369   522.1    3.116      44.371
2015    3       10    12  47    4.0361   521.8    3.118      44.325
2015    3       10    12  52    4.0352   521.4    3.121      44.278
2015    3       10    12  57    4.0343   521.1    3.124      44.232
2015    3       10    13   3    4.0335   520.8    3.126      44.187
2015    3       10    13   8    4.0328   520.4    3.129      44.141
2015    3       10    13  13    4.0320   520.1    3.132      44.096
2015    3       10    13  19    4.0313   519.8    3.135      44.051
2015    3       10    13  24    4.0304   519.4    3.138      44.006
2015    3       10    13  29    4.0297   519.1    3.141      43.962
2015    3       10    13  35    4.0290   518.8    3.144      43.918
2015    3       10    13  40    4.0284   518.4    3.147      43.874
2015    3       10    13  45    4.0278   518.1    3.150      43.831
2015    3       10    13  51    4.0271   517.8    3.153      43.788
2015    3       10    13  56    4.0264   517.5    3.157      43.745
2015    3       10    14   1    4.0257   517.1    3.160      43.703
2015    3       10    14   6    4.0251   516.8    3.163      43.661
2015    3       10    14  12    4.0245   516.5    3.166      43.619
2015    3       10    14  17    4.0239   516.2    3.170      43.578
2015    3       10    14  22    4.0232   515.8    3.173      43.536
2015    3       10    14  28    4.0227   515.5    3.176      43.495
2015    3       10    14  33    4.0221   515.2    3.180      43.454
2015    3       10    14  38    4.0214   514.9    3.183      43.413
2015    3       10    14  44    4.0209   514.5    3.186      43.372
2015    3       10    14  49    4.0202   514.2    3.190      43.331
2015    3       10    14  54    4.0196   513.9    3.193      43.290
2015    3       10    14  59    4.0189   513.6    3.197      43.249
2015    3       10    15   5    4.0183   513.2    3.200      43.208
2015    3       10    15  10    4.0178   512.9    3.204      43.166
2015    3       10    15  15    4.0172   512.6    3.207      43.125
2015    3       10    15  21    4.0168   512.2    3.211      43.084
2015    3       10    15  26    4.0162   511.9    3.214      43.043
2015    3       10    15  31    4.0158   511.6    3.218      43.002
2015    3       10    15  37    4.0152   511.3    3.221      42.960
2015    3       10    15  42    4.0148   510.9    3.225      42.919
2015    3       10    15  47    4.0145   510.6    3.228      42.878
2015    3       10    15  52    4.0141   510.3    3.232      42.837
2015    3       10    15  58    4.0136   509.9    3.236      42.795
2015    3       10    16   3    4.0133   509.6    3.239      42.754
2015    3       10    16   8    4.0130   509.3    3.243      42.713
2015    3       10    16  14    4.0127   509.0    3.247      42.673
2015    3       10    16  19    4.0125   508.6    3.251      42.632
2015    3       10    16  24    4.0123   508.3    3.254      42.591
2015    3       10    16  30    4.0121   508.0    3.258      42.550
2015    3       10    16  35    4.0120   507.7    3.262      42.510
2015    3       10    16  40    4.0117   507.4    3.266      42.469
2015    3       10    16  45    4.0117   507.0    3.270      42.428
2015    3       10    16  51    4.0114   506.7    3.274      42.388
2015    3       10    16  56    4.0114   506.4    3.278      42.347
2015    3       10    17   1    4.0113   506.1    3.282      42.306
2015    3       10    17   7    4.0112   505.7    3.286      42.265
2015    3       10    17  12    4.0110   505.4    3.289      42.224
2015    3       10    17  17    4.0109   505.1    3.293      42.183
2015    3       10    17  23    4.0110   504.8    3.297      42.142
2015    3       10    17  28    4.0109   504.5    3.301      42.101
2015    3       10    17  33    4.0108   504.1    3.305      42.059
2015    3       10    17  39    4.0106   503.8    3.309      42.017
2015    3       10    17  44    4.0107   503.5    3.313      41.975
2015    3       10    17  49    4.0107   503.2    3.317      41.933
2015    3       10    17  54    4.0107   502.8    3.321      41.891
2015    3       10    18   0    4.0107   502.5    3.325      41.849
2015    3       10    18   5    4.0106   502.2    3.329      41.807
2015    3       10    18  10    4.0106   501.9    3.333      41.764
2015    3       10    18  16    4.0106   501.5    3.337      41.722
2015    3       10    18  21    4.0107   501.2    3.341      41.679
2015    3       10    18  26    4.0110   500.9    3.345      41.637
2015    3       10    18  32    4.0109   500.6    3.349      41.594
2015    3       10    18  37    4.0111   500.3    3.353      41.552
2015    3       10    18  42    4.0114   499.9    3.357      41.510
2015    3       10    18  47    4.0114   499.6    3.360      41.468
2015    3       10    18  53    4.0116   499.3    3.364      41.425
2015    3       10    18  58    4.0120   499.0    3.368      41.383
2015    3       10    19   3    4.0121   498.7    3.373      41.342
2015    3       10    19   9    4.0124   498.3    3.377      41.300
2015    3       10    19  14    4.0127   498.0    3.381      41.259
2015    3       10    19  19    4.0131   497.7    3.385      41.217
2015    3       10    19  25    4.0136   497.4    3.389      41.176
2015    3       10    19  30    4.0138   497.1    3.393      41.135
2015    3       10    19  35    4.0142   496.8    3.397      41.094
2015    3       10    19  40    4.0148   496.5    3.401      41.053
2015    3       10    19  46    4.0151   496.1    3.405      41.013
2015    3       10    19  51    4.0155   495.8    3.409      40.972
2015    3       10    19  56    4.0160   495.5    3.414      40.931
2015    3       10    20   2    4.0167   495.2    3.418      40.891
2015    3       10    20   7    4.0170   494.9    3.422      40.850
2015    3       10    20  12    4.0175   494.6    3.426      40.810
2015    3       10    20  18    4.0182   494.3    3.430      40.769
2015    3       10    20  23    4.0186   494.0    3.434      40.729
2015    3       10    20  28    4.0193   493.7    3.439      40.689
2015    3       10    20  33    4.0198   493.4    3.443      40.648
2015    3       10    20  39    4.0203   493.0    3.447      40.608
2015    3       10    20  44    4.0210   492.7    3.451      40.567
2015    3       10    20  49    4.0215   492.4    3.455      40.526
2015    3       10    20  55    4.0221   492.1    3.460      40.486
2015    3       10    21   0    4.0228   491.8    3.464      40.445
2015    3       10    21   5    4.0233   491.5    3.468      40.404
2015    3       10    21  11    4.0239   491.2    3.472      40.363
2015    3       10    21  16    4.0245   490.9    3.476      40.322
2015    3       10    21  21    4.0252   490.6    3.481      40.281
2015    3       10    21  26    4.0258   490.3    3.485      40.239
2015    3       10    21  32    4.0265   490.0    3.489      40.198
2015    3       10    21  37    4.0271   489.7    3.493      40.157
2015    3       10    21  42    4.0279   489.4    3.497      40.115
2015    3       10    21  48    4.0285   489.0    3.502      40.074
2015    3       10    21  53    4.0292   488.7    3.506      40.032
2015    3       10    21  58    4.0299   488.4    3.510      39.991
2015    3       10    22   4    4.0306   488.1    3.515      39.949
2015    3       10    22   9    4.0313   487.8    3.519      39.908
2015    3       10    22  14    4.0321   487.5    3.523      39.867
2015    3       10    22  20    4.0330   487.2    3.528      39.825
2015    3       10    22  25    4.0338   486.9    3.532      39.785
2015    3       10    22  30    4.0345   486.6    3.537      39.744
2015    3       10    22  35    4.0354   486.3    3.541      39.703
2015    3       10    22  41    4.0362   486.0    3.546      39.663
2015    3       10    22  46    4.0372   485.7    3.551      39.622
2015    3       10    22  51    4.0380   485.4    3.555      39.583
2015    3       10    22  57    4.0390   485.1    3.560      39.543
2015    3       10    23   2    4.0400   484.8    3.565      39.504
2015    3       10    23   7    4.0411   484.5    3.570      39.465
2015    3       10    23  13    4.0421   484.2    3.575      39.426
2015    3       10    23  18    4.0431   483.9    3.580      39.388
2015    3       10    23  23    4.0442   483.6    3.585      39.350
2015    3       10    23  28    4.0454   483.3    3.590      39.313
2015    3       10    23  34    4.0465   483.0    3.595      39.276
2015    3       10    23  39    4.0477   482.7    3.600      39.239
2015    3       10    23  44    4.0488   482.4    3.605      39.203
2015    3       10    23  50    4.0500   482.1    3.611      39.167
2015    3       10    23  55    4.0514   481.8    3.616      39.131
2015    3       11     0   0    4.0525   481.5    3.622      39.096
2015    3       11     0   6    4.0539   481.2    3.627      39.061
2015    3       11     0  11    4.0552   480.9    3.633      39.026
2015    3       11     0  16    4.0565   480.6    3.638      38.991
2015    3       11     0  21    4.0578   480.3    3.644      38.957
2015    3       11     0  27    4.0590   480.0    3.649      38.923
2015    3       11     0  32    4.0605   479.7    3.655      38.889
2015    3       11     0  37    4.0619   479.5    3.661      38.855
2015    3       11     0  43    4.0631   479.2    3.667      38.821
2015    3       11     0  48    4.0646   478.9    3.672      38.788
2015    3       11     0  53    4.0659   478.6    3.678      38.754
2015    3       11     0  59    4.0674   478.3    3.684      38.721
2015    3       11     1   4    4.0688   478.0    3.690      38.688
2015    3       11     1   9    4.0702   477.7    3.695      38.654
2015    3       11     1  15    4.0716   477.4    3.701      38.621
2015    3       11     1  20    4.0731   477.2    3.707      38.588
2015    3       11     1  25    4.0745   476.9    3.713      38.555
2015    3       11     1  30    4.0760   476.6    3.719      38.522
2015    3       11     1  36    4.0773   476.3    3.724      38.489
2015    3       11     1  41    4.0789   476.0    3.730      38.456
2015    3       11     1  46    4.0804   475.7    3.736      38.422
2015    3       11     1  52    4.0818   475.5    3.742      38.389
2015    3       11     1  57    4.0834   475.2    3.748      38.356
2015    3       11     2   2    4.0848   474.9    3.753      38.323
2015    3       11     2   8    4.0865   474.6    3.759      38.290
2015    3       11     2  13    4.0879   474.3    3.765      38.257
2015    3       11     2  18    4.0896   474.0    3.771      38.224
2015    3       11     2  23    4.0912   473.8    3.776      38.191
2015    3       11     2  29    4.0926   473.5    3.782      38.158
2015    3       11     2  34    4.0942   473.2    3.788      38.124
2015    3       11     2  39    4.0960   472.9    3.794      38.091
2015    3       11     2  45    4.0976   472.6    3.800      38.058
2015    3       11     2  50    4.0991   472.4    3.805      38.025
2015    3       11     2  55    4.1008   472.1    3.811      37.992
2015    3       11     3   1    4.1026   471.8    3.817      37.959
2015    3       11     3   6    4.1043   471.5    3.823      37.925
2015    3       11     3  11    4.1059   471.2    3.828      37.892
2015    3       11     3  16    4.1077   471.0    3.834      37.859
2015    3       11     3  22    4.1094   470.7    3.840      37.826
2015    3       11     3  27    4.1113   470.4    3.846      37.793
2015    3       11     3  32    4.1130   470.1    3.852      37.760
2015    3       11     3  38    4.1147   469.9    3.857      37.727
2015    3       11     3  43    4.1166   469.6    3.863      37.694
2015    3       11     3  48    4.1185   469.3    3.869      37.660
2015    3       11     3  54    4.1203   469.0    3.875      37.628
2015    3       11     3  59    4.1220   468.8    3.881      37.595
2015    3       11     4   4    4.1240   468.5    3.886      37.562
2015    3       11     4   9    4.1258   468.2    3.892      37.529
2015    3       11     4  15    4.1278   468.0    3.898      37.496
2015    3       11     4  20    4.1296   467.7    3.904      37.464
2015    3       11     4  25    4.1316   467.4    3.910      37.431
2015    3       11     4  31    4.1336   467.1    3.916      37.398
2015    3       11     4  36    4.1355   466.9    3.922      37.366
2015    3       11     4  41    4.1375   466.6    3.928      37.334
2015    3       11     4  47    4.1395   466.3    3.933      37.301
2015    3       11     4  52    4.1416   466.1    3.939      37.269
2015    3       11     4  57    4.1436   465.8    3.945      37.237
2015    3       11     5   3    4.1456   465.5    3.951      37.205
2015    3       11     5   8    4.1478   465.3    3.958      37.174
2015    3       11     5  13    4.1499   465.0    3.964      37.142
2015    3       11     5  18    4.1519   464.7    3.970      37.110
2015    3       11     5  24    4.1542   464.5    3.976      37.079
2015    3       11     5  29    4.1563   464.2    3.982      37.048
2015    3       11     5  34    4.1584   463.9    3.988      37.017
2015    3       11     5  40    4.1607   463.7    3.994      36.986
2015    3       11     5  45    4.1627   463.4    4.001      36.955
2015    3       11     5  50    4.1650   463.2    4.007      36.924
2015    3       11     5  56    4.1672   462.9    4.013      36.894
2015    3       11     6   1    4.1695   462.6    4.020      36.864
2015    3       11     6   6    4.1718   462.4    4.026      36.834
2015    3       11     6  11    4.1742   462.1    4.033      36.804
2015    3       11     6  17    4.1764   461.9    4.039      36.774
2015    3       11     6  22    4.1789   461.6    4.046      36.745
2015    3       11     6  27    4.1812   461.3    4.052      36.715
2015    3       11     6  33    4.1835   461.1    4.059      36.686
2015    3       11     6  38    4.1860   460.8    4.066      36.658
2015    3       11     6  43    4.1885   460.6    4.073      36.629
2015    3       11     6  49    4.1908   460.3    4.080      36.601
2015    3       11     6  54    4.1934   460.1    4.087      36.573
2015    3       11     6  59    4.1958   459.8    4.094      36.545
2015    3       11     7   4    4.1984   459.5    4.101      36.518
2015    3       11     7  10    4.2010   459.3    4.108      36.490
2015    3       11     7  15    4.2035   459.0    4.115      36.463
2015    3       11     7  20    4.2061   458.8    4.122      36.437
2015    3       11     7  26    4.2088   458.5    4.130      36.410
2015    3       11     7  31    4.2113   458.3    4.137      36.384
2015    3       11     7  36    4.2140   458.0    4.144      36.358
2015    3       11     7  42    4.2167   457.8    4.152      36.333
2015    3       11     7  47    4.2194   457.6    4.160      36.308
2015    3       11     7  52    4.2222   457.3    4.167      36.283
2015    3       11     7  57    4.2248   457.1    4.175      36.258
2015    3       11     8   3    4.2277   456.8    4.183      36.234
2015    3       11     8   8    4.2303   456.6    4.191      36.210
2015    3       11     8  13    4.2333   456.3    4.199      36.186
2015    3       11     8  19    4.2361   456.1    4.207      36.163
2015    3       11     8  24    4.2390   455.8    4.215      36.139
2015    3       11     8  29    4.2419   455.6    4.223      36.117
2015    3       11     8  35    4.2447   455.4    4.231      36.094
2015    3       11     8  40    4.2477   455.1    4.239      36.072
2015    3       11     8  45    4.2505   454.9    4.247      36.050
2015    3       11     8  51    4.2536   454.6    4.256      36.028
2015    3       11     8  56    4.2565   454.4    4.264      36.007
2015    3       11     9   1    4.2596   454.2    4.273      35.986
2015    3       11     9   6    4.2626   453.9    4.281      35.965
2015    3       11     9  12    4.2656   453.7    4.290      35.944
2015    3       11     9  17    4.2687   453.5    4.298      35.924
2015    3       11     9  22    4.2718   453.2    4.307      35.904
2015    3       11     9  28    4.2749   453.0    4.316      35.885
2015    3       11     9  33    4.2780   452.8    4.324      35.865
2015    3       11     9  38    4.2811   452.6    4.333      35.846
2015    3       11     9  44    4.2843   452.3    4.342      35.827
2015    3       11     9  49    4.2873   452.1    4.350      35.808
2015    3       11     9  54    4.2906   451.9    4.359      35.790
2015    3       11     9  59    4.2937   451.7    4.368      35.772
2015    3       11    10   5    4.2969   451.4    4.377      35.754
2015    3       11    10  10    4.3002   451.2    4.386      35.736
2015    3       11    10  15    4.3035   451.0    4.395      35.718
2015    3       11    10  21    4.3067   450.8    4.403      35.701
2015    3       11    10  26    4.3100   450.6    4.412      35.683
2015    3       11    10  31    4.3132   450.3    4.421      35.666
2015    3       11    10  37    4.3166   450.1    4.430      35.649
2015    3       11    10  42    4.3199   449.9    4.439      35.633
2015    3       11    10  47    4.3232   449.7    4.448      35.616
2015    3       11    10  52    4.3266   449.5    4.457      35.599
2015    3       11    10  58    4.3299   449.3    4.465      35.583
2015    3       11    11   3    4.3333   449.0    4.474      35.567
2015    3       11    11   8    4.3367   448.8    4.483      35.551
2015    3       11    11  14    4.3401   448.6    4.492      35.535
2015    3       11    11  19    4.3435   448.4    4.501      35.520
2015    3       11    11  24    4.3469   448.2    4.509      35.504
2015    3       11    11  30    4.3502   448.0    4.518      35.489
2015    3       11    11  35    4.3538   447.8    4.527      35.474
2015    3       11    11  40    4.3572   447.6    4.536      35.459
2015    3       11    11  45    4.3607   447.4    4.545      35.444
2015    3       11    11  51    4.3642   447.2    4.553      35.429
2015    3       11    11  56    4.3678   447.0    4.562      35.414
2015    3       11    12   1    4.3711   446.8    4.571      35.400
2015    3       11    12   7    4.3747   446.6    4.580      35.386
2015    3       11    12  12    4.3782   446.4    4.588      35.372
2015    3       11    12  17    4.3820   446.2    4.597      35.358
2015    3       11    12  23    4.3854   446.0    4.606      35.344
2015    3       11    12  28    4.3891   445.8    4.615      35.331
2015    3       11    12  33    4.3927   445.6    4.623      35.317
2015    3       11    12  39    4.3963   445.4    4.632      35.304
2015    3       11    12  44    4.4002   445.2    4.641      35.291
2015    3       11    12  49    4.4039   445.0    4.650      35.278
2015    3       11    12  54    4.4074   444.8    4.659      35.266
2015    3       11    13   0    4.4112   444.6    4.668      35.253
2015    3       11    13   5    4.4149   444.4    4.677      35.241
2015    3       11    13  10    4.4189   444.2    4.686      35.229
2015    3       11    13  16    4.4227   444.0    4.695      35.218
2015    3       11    13  21    4.4263   443.8    4.704      35.206
2015    3       11    13  26    4.4302   443.6    4.713      35.195
2015    3       11    13  32    4.4342   443.4    4.722      35.184
2015    3       11    13  37    4.4379   443.3    4.732      35.173
2015    3       11    13  42    4.4420   443.1    4.741      35.162
2015    3       11    13  47    4.4459   442.9    4.750      35.152
2015    3       11    13  53    4.4498   442.7    4.760      35.142
2015    3       11    13  58    4.4538   442.5    4.769      35.132
2015    3       11    14   3    4.4577   442.4    4.779      35.122
2015    3       11    14   9    4.4616   442.2    4.788      35.113
2015    3       11    14  14    4.4658   442.0    4.798      35.103
2015    3       11    14  19    4.4699   441.8    4.808      35.095
2015    3       11    14  25    4.4740   441.6    4.817      35.086
2015    3       11    14  30    4.4780   441.5    4.827      35.078
2015    3       11    14  35    4.4820   441.3    4.837      35.069
2015    3       11    14  40    4.4863   441.1    4.847      35.061
2015    3       11    14  46    4.4904   441.0    4.857      35.054
2015    3       11    14  51    4.4946   440.8    4.867      35.046
2015    3       11    14  56    4.4988   440.6    4.877      35.039
2015    3       11    15   2    4.5028   440.4    4.888      35.032
2015    3       11    15   7    4.5070   440.3    4.898      35.025
2015    3       11    15  12    4.5114   440.1    4.908      35.018
2015    3       11    15  18    4.5156   440.0    4.918      35.012
2015    3       11    15  23    4.5199   439.8    4.929      35.006
2015    3       11    15  28    4.5240   439.6    4.939      35.000
2015    3       11    15  33    4.5285   439.5    4.950      34.994
2015    3       11    15  39    4.5328   439.3    4.960      34.988
2015    3       11    15  44    4.5371   439.1    4.971      34.983
2015    3       11    15  49    4.5414   439.0    4.981      34.978
2015    3       11    15  55    4.5458   438.8    4.992      34.973
2015    3       11    16   0    4.5500   438.7    5.003      34.968
2015    3       11    16   5    4.5545   438.5    5.014      34.963
2015    3       11    16  11    4.5589   438.4    5.024      34.959
2015    3       11    16  16    4.5633   438.2    5.035      34.955
2015    3       11    16  21    4.5676   438.1    5.046      34.950
2015    3       11    16  27    4.5721   437.9    5.057      34.947
2015    3       11    16  32    4.5766   437.8    5.068      34.943
2015    3       11    16  37    4.5810   437.6    5.078      34.939
2015    3       11    16  42    4.5854   437.5    5.089      34.936
2015    3       11    16  48    4.5900   437.3    5.100      34.932
2015    3       11    16  53    4.5945   437.2    5.111      34.929
2015    3       11    16  58    4.5990   437.1    5.122      34.926
2015    3       11    17   4    4.6035   436.9    5.133      34.924
2015    3       11    17   9    4.6079   436.8    5.144      34.921
2015    3       11    17  14    4.6124   436.6    5.155      34.919
2015    3       11    17  20    4.6170   436.5    5.166      34.916
2015    3       11    17  25    4.6217   436.4    5.177      34.914
2015    3       11    17  30    4.6261   436.2    5.187      34.913
2015    3       11    17  35    4.6307   436.1    5.198      34.911
2015    3       11    17  41    4.6353   435.9    5.209      34.910
2015    3       11    17  46    4.6400   435.8    5.220      34.908
2015    3       11    17  51    4.6446   435.7    5.231      34.907
2015    3       11    17  57    4.6491   435.5    5.242      34.906
2015    3       11    18   2    4.6539   435.4    5.252      34.906
2015    3       11    18   7    4.6584   435.3    5.263      34.905
2015    3       11    18  13    4.6632   435.2    5.274      34.905
2015    3       11    18  18    4.6678   435.0    5.285      34.905
2015    3       11    18  23    4.6725   434.9    5.295      34.906
2015    3       11    18  28    4.6772   434.8    5.306      34.906
2015    3       11    18  34    4.6819   434.6    5.317      34.907
2015    3       11    18  39    4.6864   434.5    5.327      34.908
2015    3       11    18  44    4.6911   434.4    5.338      34.909
2015    3       11    18  50    4.6960   434.3    5.348      34.911
2015    3       11    18  55    4.7007   434.2    5.359      34.912
2015    3       11    19   0    4.7053   434.0    5.369      34.914
2015    3       11    19   6    4.7101   433.9    5.380      34.916
2015    3       11    19  11    4.7149   433.8    5.390      34.919
2015    3       11    19  16    4.7196   433.7    5.401      34.921
2015    3       11    19  21    4.7244   433.6    5.411      34.924
2015    3       11    19  27    4.7291   433.4    5.422      34.926
2015    3       11    19  32    4.7339   433.3    5.432      34.930
2015    3       11    19  37    4.7387   433.2    5.442      34.933
2015    3       11    19  43    4.7435   433.1    5.453      34.936
2015    3       11    19  48    4.7483   433.0    5.463      34.940
2015    3       11    19  53    4.7530   432.9    5.474      34.944
2015    3       11    19  59    4.7579   432.8    5.484      34.948
2015    3       11    20   4    4.7626   432.7    5.494      34.952
2015    3       11    20   9    4.7676   432.5    5.505      34.956
2015    3       11    20  15    4.7724   432.4    5.515      34.960
2015    3       11    20  20    4.7773   432.3    5.526      34.965
2015    3       11    20  25    4.7820   432.2    5.536      34.970
2015    3       11    20  30    4.7870   432.1    5.547      34.974
2015    3       11    20  36    4.7919   432.0    5.557      34.979
2015    3       11    20  41    4.7966   431.9    5.567      34.984
2015    3       11    20  46    4.8016   431.8    5.578      34.990
2015    3       11    20  52    4.8064   431.7    5.588      34.995
2015    3       11    20  57    4.8114   431.6    5.599      35.001
2015    3       11    21   2    4.8163   431.5    5.609      35.007
2015    3       11    21   8    4.8213   431.4    5.620      35.013
2015    3       11    21  13    4.8262   431.3    5.630      35.019
2015    3       11    21  18    4.8311   431.2    5.641      35.025
2015    3       11    21  23    4.8361   431.1    5.651      35.032
2015    3       11    21  29    4.8410   431.0    5.661      35.039
2015    3       11    21  34    4.8460   431.0    5.672      35.046
2015    3       11    21  39    4.8509   430.9    5.682      35.053
2015    3       11    21  45    4.8558   430.8    5.693      35.060
2015    3       11    21  50    4.8607   430.7    5.703      35.068
2015    3       11    21  55    4.8658   430.6    5.713      35.075
2015    3       11    22   1    4.8707   430.5    5.723      35.083
2015    3       11    22   6    4.8757   430.4    5.734      35.091
2015    3       11    22  11    4.8806   430.3    5.744      35.099
2015    3       11    22  16    4.8855   430.3    5.754      35.106
2015    3       11    22  22    4.8905   430.2    5.764      35.114
2015    3       11    22  27    4.8955   430.1    5.774      35.122
2015    3       11    22  32    4.9004   430.0    5.784      35.130
2015    3       11    22  38    4.9054   429.9    5.794      35.138
2015    3       11    22  43    4.9104   429.8    5.804      35.145
2015    3       11    22  48    4.9153   429.8    5.814      35.153
2015    3       11    22  54    4.9202   429.7    5.824      35.161
2015    3       11    22  59    4.9252   429.6    5.834      35.168
2015    3       11    23   4    4.9302   429.5    5.844      35.175
2015    3       11    23  10    4.9351   429.4    5.854      35.183
2015    3       11    23  15    4.9401   429.4    5.863      35.190
2015    3       11    23  20    4.9450   429.3    5.873      35.197
2015    3       11    23  25    4.9500   429.2    5.883      35.204
2015    3       11    23  31    4.9549   429.1    5.893      35.211
2015    3       11    23  36    4.9599   429.1    5.902      35.217
2015    3       11    23  41    4.9649   429.0    5.912      35.224
2015    3       11    23  47    4.9698   428.9    5.921      35.231
2015    3       11    23  52    4.9748   428.8    5.931      35.237
2015    3       11    23  57    4.9797   428.8    5.941      35.243
2015    3       12     0   3    4.9846   428.7    5.950      35.250
2015    3       12     0   8    4.9896   428.6    5.960      35.256
2015    3       12     0  13    4.9946   428.5    5.969      35.262
2015    3       12     0  18    4.9996   428.5    5.978      35.269
2015    3       12     0  24    5.0045   428.4    5.988      35.275
2015    3       12     0  29    5.0095   428.3    5.997      35.281
2015    3       12     0  34    5.0145   428.3    6.006      35.287
2015    3       12     0  40    5.0194   428.2    6.016      35.293
2015    3       12     0  45    5.0244   428.1    6.025      35.299
2015    3       12     0  50    5.0294   428.1    6.034      35.306
2015    3       12     0  56    5.0344   428.0    6.043      35.312
2015    3       12     1   1    5.0394   427.9    6.052      35.318
2015    3       12     1   6    5.0443   427.9    6.062      35.325
2015    3       12     1  11    5.0493   427.8    6.071      35.331
2015    3       12     1  17    5.0543   427.7    6.080      35.338
2015    3       12     1  22    5.0593   427.7    6.089      35.345
2015    3       12     1  27    5.0643   427.6    6.098      35.352
2015    3       12     1  33    5.0693   427.5    6.107      35.359
2015    3       12     1  38    5.0743   427.5    6.116      35.366
2015    3       12     1  43    5.0793   427.4    6.125      35.374
2015    3       12     1  49    5.0843   427.3    6.134      35.381
2015    3       12     1  54    5.0893   427.3    6.143      35.389
2015    3       12     1  59    5.0944   427.2    6.152      35.397
2015    3       12     2   4    5.0994   427.2    6.160      35.406
2015    3       12     2  10    5.1044   427.1    6.169      35.414
2015    3       12     2  15    5.1094   427.0    6.178      35.423
2015    3       12     2  20    5.1144   427.0    6.187      35.432
2015    3       12     2  26    5.1194   426.9    6.196      35.441
2015    3       12     2  31    5.1244   426.9    6.204      35.450
2015    3       12     2  36    5.1294   426.8    6.213      35.460
2015    3       12     2  42    5.1344   426.7    6.222      35.470
2015    3       12     2  47    5.1394   426.7    6.231      35.480
2015    3       12     2  52    5.1444   426.6    6.239      35.490
2015    3       12     2  57    5.1494   426.6    6.248      35.500
2015    3       12     3   3    5.1544   426.5    6.257      35.510
2015    3       12     3   8    5.1594   426.5    6.265      35.521
2015    3       12     3  13    5.1643   426.4    6.274      35.531
2015    3       12     3  19    5.1693   426.4    6.282      35.542
2015    3       12     3  24    5.1743   426.3    6.291      35.553
2015    3       12     3  29    5.1793   426.3    6.300      35.564
2015    3       12     3  35    5.1843   426.2    6.308      35.575
2015    3       12     3  40    5.1893   426.2    6.317      35.586
2015    3       12     3  45    5.1942   426.1    6.325      35.597
2015    3       12     3  51    5.1992   426.1    6.334      35.608
2015    3       12     3  56    5.2042   426.0    6.342      35.620
2015    3       12     4   1    5.2092   426.0    6.351      35.631
2015    3       12     4   6    5.2141   425.9    6.359      35.643
2015    3       12     4  12    5.2191   425.9    6.368      35.654
2015    3       12     4  17    5.2241   425.8    6.376      35.666
2015    3       12     4  22    5.2290   425.8    6.385      35.678
2015    3       12     4  28    5.2340   425.7    6.393      35.690
2015    3       12     4  33    5.2390   425.7    6.401      35.702
2015    3       12     4  38    5.2440   425.6    6.410      35.714
2015    3       12     4  44    5.2489   425.6    6.418      35.727
2015    3       12     4  49    5.2539   425.6    6.426      35.739
2015    3       12     4  54    5.2588   425.5    6.434      35.752
2015    3       12     4  59    5.2638   425.5    6.442      35.764
2015    3       12     5   5    5.2687   425.4    6.450      35.777
2015    3       12     5  10    5.2737   425.4    6.458      35.790
2015    3       12     5  15    5.2786   425.4    6.466      35.803
2015    3       12     5  21    5.2836   425.3    6.474      35.816
2015    3       12     5  26    5.2885   425.3    6.482      35.829
2015    3       12     5  31    5.2935   425.2    6.490      35.842
2015    3       12     5  37    5.2984   425.2    6.497      35.855
2015    3       12     5  42    5.3034   425.2    6.505      35.868
2015    3       12     5  47    5.3083   425.1    6.513      35.881
2015    3       12     5  52    5.3133   425.1    6.521      35.894
2015    3       12     5  58    5.3182   425.0    6.528      35.907
2015    3       12     6   3    5.3232   425.0    6.536      35.920
2015    3       12     6   8    5.3281   425.0    6.543      35.932
2015    3       12     6  14    5.3331   424.9    6.551      35.945
2015    3       12     6  19    5.3380   424.9    6.558      35.957
2015    3       12     6  24    5.3430   424.9    6.566      35.970
2015    3       12     6  30    5.3479   424.8    6.574      35.982
2015    3       12     6  35    5.3529   424.8    6.581      35.994
2015    3       12     6  40    5.3578   424.7    6.588      36.007
2015    3       12     6  46    5.3628   424.7    6.596      36.019
2015    3       12     6  51    5.3678   424.7    6.603      36.031
2015    3       12     6  56    5.3727   424.6    6.611      36.043
2015    3       12     7   1    5.3777   424.6    6.618      36.055
2015    3       12     7   7    5.3827   424.6    6.626      36.067
2015    3       12     7  12    5.3877   424.5    6.633      36.080
2015    3       12     7  17    5.3927   424.5    6.641      36.092
2015    3       12     7  23    5.3976   424.5    6.648      36.104
2015    3       12     7  28    5.4026   424.5    6.655      36.117
2015    3       12     7  33    5.4075   424.4    6.663      36.130
2015    3       12     7  39    5.4125   424.4    6.670      36.143
2015    3       12     7  44    5.4174   424.4    6.677      36.157
2015    3       12     7  49    5.4224   424.3    6.684      36.170
2015    3       12     7  54    5.4274   424.3    6.691      36.184
2015    3       12     8   0    5.4323   424.3    6.698      36.198
2015    3       12     8   5    5.4372   424.3    6.705      36.213
2015    3       12     8  10    5.4421   424.2    6.712      36.227
2015    3       12     8  16    5.4470   424.2    6.719      36.242
2015    3       12     8  21    5.4520   424.2    6.726      36.257
2015    3       12     8  26    5.4568   424.2    6.732      36.273
2015    3       12     8  32    5.4618   424.1    6.739      36.288
2015    3       12     8  37    5.4666   424.1    6.745      36.304
2015    3       12     8  42    5.4715   424.1    6.752      36.320
2015    3       12     8  47    5.4763   424.1    6.758      36.336
2015    3       12     8  53    5.4812   424.1    6.765      36.352
2015    3       12     8  58    5.4860   424.0    6.771      36.368
2015    3       12     9   3    5.4909   424.0    6.777      36.384
2015    3       12     9   9    5.4957   424.0    6.784      36.401
2015    3       12     9  14    5.5006   424.0    6.790      36.417
2015    3       12     9  19    5.5054   423.9    6.796      36.434
2015    3       12     9  25    5.5102   423.9    6.802      36.450
2015    3       12     9  30    5.5150   423.9    6.808      36.467
2015    3       12     9  35    5.5198   423.9    6.814      36.484
2015    3       12     9  40    5.5246   423.9    6.820      36.501
2015    3       12     9  46    5.5294   423.8    6.826      36.517
2015    3       12     9  51    5.5342   423.8    6.832      36.534
2015    3       12     9  56    5.5390   423.8    6.838      36.551
2015    3       12    10   2    5.5437   423.8    6.844      36.568
2015    3       12    10   7    5.5485   423.8    6.850      36.585
2015    3       12    10  12    5.5533   423.7    6.856      36.602
2015    3       12    10  18    5.5581   423.7    6.861      36.619
2015    3       12    10  23    5.5628   423.7    6.867      36.636
2015    3       12    10  28    5.5676   423.7    6.873      36.653
2015    3       12    10  34    5.5724   423.7    6.879      36.670
2015    3       12    10  39    5.5772   423.7    6.884      36.687
2015    3       12    10  44    5.5819   423.6    6.890      36.705
2015    3       12    10  49    5.5867   423.6    6.896      36.722
2015    3       12    10  55    5.5915   423.6    6.901      36.739
2015    3       12    11   0    5.5962   423.6    6.907      36.756
2015    3       12    11   5    5.6010   423.6    6.912      36.773
2015    3       12    11  11    5.6058   423.6    6.918      36.791
2015    3       12    11  16    5.6105   423.5    6.924      36.808
2015    3       12    11  21    5.6153   423.5    6.929      36.825
2015    3       12    11  27    5.6201   423.5    6.935      36.843
2015    3       12    11  32    5.6249   423.5    6.940      36.860
2015    3       12    11  37    5.6297   423.5    6.946      36.878
2015    3       12    11  42    5.6345   423.5    6.951      36.895
2015    3       12    11  48    5.6392   423.4    6.957      36.913
2015    3       12    11  53    5.6441   423.4    6.963      36.931
2015    3       12    11  58    5.6489   423.4    6.968      36.948
2015    3       12    12   4    5.6537   423.4    6.974      36.966
2015    3       12    12   9    5.6585   423.4    6.980      36.984
2015    3       12    12  14    5.6634   423.4    6.985      37.002
2015    3       12    12  20    5.6682   423.4    6.991      37.020
2015    3       12    12  25    5.6731   423.4    6.997      37.038
2015    3       12    12  30    5.6780   423.4    7.003      37.056
2015    3       12    12  35    5.6828   423.3    7.009      37.074
2015    3       12    12  41    5.6876   423.3    7.014      37.092
2015    3       12    12  46    5.6926   423.3    7.020      37.110
2015    3       12    12  51    5.6974   423.3    7.026      37.129
2015    3       12    12  57    5.7024   423.3    7.033      37.147
2015    3       12    13   2    5.7073   423.3    7.039      37.165
2015    3       12    13   7    5.7122   423.3    7.045      37.183
2015    3       12    13  13    5.7171   423.3    7.051      37.202
2015    3       12    13  18    5.7220   423.3    7.057      37.220
2015    3       12    13  23    5.7270   423.3    7.064      37.238
2015    3       12    13  29    5.7319   423.3    7.070      37.257
2015    3       12    13  34    5.7368   423.3    7.077      37.275
2015    3       12    13  39    5.7418   423.3    7.084      37.293
2015    3       12    13  44    5.7467   423.3    7.090      37.312
2015    3       12    13  50    5.7516   423.3    7.097      37.331
2015    3       12    13  55    5.7565   423.3    7.104      37.350
2015    3       12    14   0    5.7614   423.3    7.111      37.369
2015    3       12    14   6    5.7663   423.3    7.118      37.389
2015    3       12    14  11    5.7712   423.3    7.125      37.409
2015    3       12    14  16    5.7761   423.3    7.132      37.430
2015    3       12    14  22    5.7809   423.3    7.139      37.452
2015    3       12    14  27    5.7858   423.3    7.145      37.474
2015    3       12    14  32    5.7905   423.3    7.152      37.497
2015    3       12    14  37    5.7953   423.3    7.158      37.520
2015    3       12    14  43    5.8001   423.3    7.165      37.544
2015    3       12    14  48    5.8048   423.3    7.171      37.569
2015    3       12    14  53    5.8095   423.3    7.177      37.595
2015    3       12    14  59    5.8142   423.3    7.183      37.621
2015    3       12    15   4    5.8188   423.3    7.189      37.648
2015    3       12    15   9    5.8235   423.3    7.195      37.675
2015    3       12    15  15    5.8281   423.3    7.201      37.703
2015    3       12    15  20    5.8327   423.3    7.206      37.731
2015    3       12    15  25    5.8373   423.4    7.212      37.759
2015    3       12    15  30    5.8418   423.4    7.217      37.788
2015    3       12    15  36    5.8464   423.4    7.222      37.816
2015    3       12    15  41    5.8509   423.4    7.227      37.845
2015    3       12    15  46    5.8554   423.4    7.231      37.874
2015    3       12    15  52    5.8599   423.4    7.236      37.903
2015    3       12    15  57    5.8644   423.4    7.241      37.932
2015    3       12    16   2    5.8689   423.4    7.245      37.961
2015    3       12    16   8    5.8733   423.4    7.250      37.990
2015    3       12    16  13    5.8778   423.4    7.254      38.019
2015    3       12    16  18    5.8822   423.4    7.258      38.047
2015    3       12    16  23    5.8867   423.4    7.262      38.076
2015    3       12    16  29    5.8911   423.5    7.266      38.104
2015    3       12    16  34    5.8956   423.5    7.270      38.132
2015    3       12    16  39    5.9000   423.5    7.274      38.160
2015    3       12    16  45    5.9043   423.5    7.278      38.188
2015    3       12    16  50    5.9088   423.5    7.281      38.216
2015    3       12    16  55    5.9132   423.5    7.285      38.243
2015    3       12    17   1    5.9175   423.5    7.289      38.271
2015    3       12    17   6    5.9219   423.5    7.292      38.298
2015    3       12    17  11    5.9264   423.5    7.296      38.325
2015    3       12    17  17    5.9307   423.5    7.299      38.351
2015    3       12    17  22    5.9351   423.6    7.303      38.378
2015    3       12    17  27    5.9395   423.6    7.306      38.404
2015    3       12    17  32    5.9440   423.6    7.310      38.430
2015    3       12    17  38    5.9484   423.6    7.313      38.456
2015    3       12    17  43    5.9527   423.6    7.316      38.482
2015    3       12    17  48    5.9572   423.6    7.319      38.507
2015    3       12    17  54    5.9617   423.6    7.323      38.533
2015    3       12    17  59    5.9661   423.6    7.326      38.558
2015    3       12    18   4    5.9705   423.6    7.329      38.583
2015    3       12    18  10    5.9749   423.6    7.332      38.608
2015    3       12    18  15    5.9794   423.7    7.335      38.633
2015    3       12    18  20    5.9839   423.7    7.338      38.658
2015    3       12    18  25    5.9883   423.7    7.341      38.682
2015    3       12    18  31    5.9928   423.7    7.344      38.707
2015    3       12    18  36    5.9973   423.7    7.348      38.731
2015    3       12    18  41    6.0019   423.7    7.351      38.756
2015    3       12    18  47    6.0064   423.7    7.354      38.781
2015    3       12    18  52    6.0110   423.8    7.357      38.805
2015    3       12    18  57    6.0156   423.8    7.360      38.830
2015    3       12    19   3    6.0201   423.8    7.363      38.855
2015    3       12    19   8    6.0247   423.8    7.366      38.880
2015    3       12    19  13    6.0293   423.8    7.369      38.904
2015    3       12    19  18    6.0340   423.8    7.373      38.929
2015    3       12    19  24    6.0386   423.8    7.376      38.955
2015    3       12    19  29    6.0434   423.9    7.379      38.980
2015    3       12    19  34    6.0481   423.9    7.383      39.005
2015    3       12    19  40    6.0528   423.9    7.386      39.030
2015    3       12    19  45    6.0575   423.9    7.390      39.056
2015    3       12    19  50    6.0623   423.9    7.393      39.082
2015    3       12    19  56    6.0671   424.0    7.397      39.108
2015    3       12    20   1    6.0719   424.0    7.401      39.134
2015    3       12    20   6    6.0767   424.0    7.404      39.160
2015    3       12    20  11    6.0814   424.0    7.408      39.186
2015    3       12    20  17    6.0864   424.0    7.413      39.213
2015    3       12    20  22    6.0912   424.1    7.417      39.239
2015    3       12    20  27    6.0960   424.1    7.421      39.266
2015    3       12    20  33    6.1009   424.1    7.425      39.293
2015    3       12    20  38    6.1059   424.1    7.430      39.320
2015    3       12    20  43    6.1107   424.2    7.435      39.347
2015    3       12    20  49    6.1157   424.2    7.439      39.374
2015    3       12    20  54    6.1205   424.2    7.444      39.402
2015    3       12    20  59    6.1254   424.2    7.450      39.430
2015    3       12    21   4    6.1303   424.3    7.455      39.458
2015    3       12    21  10    6.1352   424.3    7.460      39.486
2015    3       12    21  15    6.1400   424.3    7.466      39.514
2015    3       12    21  20    6.1448   424.4    7.471      39.543
2015    3       12    21  26    6.1496   424.4    7.477      39.573
2015    3       12    21  31    6.1544   424.4    7.482      39.603
2015    3       12    21  36    6.1592   424.5    7.488      39.635
2015    3       12    21  42    6.1639   424.5    7.494      39.667
2015    3       12    21  47    6.1686   424.5    7.499      39.700
2015    3       12    21  52    6.1733   424.6    7.505      39.733
2015    3       12    21  58    6.1779   424.6    7.510      39.768
2015    3       12    22   3    6.1825   424.7    7.515      39.804
2015    3       12    22   8    6.1870   424.7    7.521      39.841
2015    3       12    22  13    6.1916   424.8    7.526      39.879
2015    3       12    22  19    6.1961   424.8    7.531      39.917
2015    3       12    22  24    6.2006   424.8    7.535      39.956
2015    3       12    22  29    6.2050   424.9    7.540      39.996
2015    3       12    22  35    6.2095   424.9    7.544      40.036
2015    3       12    22  40    6.2138   425.0    7.548      40.077
2015    3       12    22  45    6.2182   425.0    7.552      40.118
2015    3       12    22  51    6.2226   425.0    7.556      40.160
2015    3       12    22  56    6.2269   425.1    7.560      40.201
2015    3       12    23   1    6.2312   425.1    7.563      40.242
2015    3       12    23   6    6.2356   425.2    7.567      40.284
2015    3       12    23  12    6.2398   425.2    7.570      40.325
2015    3       12    23  17    6.2441   425.3    7.573      40.366
2015    3       12    23  22    6.2484   425.3    7.576      40.407
2015    3       12    23  28    6.2527   425.3    7.578      40.448
2015    3       12    23  33    6.2569   425.4    7.581      40.489
2015    3       12    23  38    6.2611   425.4    7.584      40.529
2015    3       12    23  44    6.2653   425.5    7.586      40.569
2015    3       12    23  49    6.2696   425.5    7.588      40.609
2015    3       12    23  54    6.2738   425.5    7.590      40.649
2015    3       12    23  59    6.2780   425.6    7.592      40.688
2015    3       13     0   5    6.2822   425.6    7.594      40.727
