year    month   day   hour  minute  B_enl V_enl   n_enl       T_enl
[year] [month] [day] [hour][minute] [nT]  [km/s]  [cm-3]      [kK]
2015    3       27     0   3    4.4138   626.2    3.417      64.704
2015    3       27     0   9    4.4086   626.2    3.412      64.658
2015    3       27     0  14    4.4035   626.2    3.408      64.612
2015    3       27     0  20    4.3984   626.2    3.403      64.567
2015    3       27     0  26    4.3932   626.2    3.399      64.522
2015    3       27     0  32    4.3881   626.2    3.395      64.476
2015    3       27     0  37    4.3830   626.2    3.391      64.431
2015    3       27     0  43    4.3778   626.2    3.386      64.386
2015    3       27     0  49    4.3727   626.2    3.382      64.342
2015    3       27     0  55    4.3677   626.1    3.379      64.298
2015    3       27     1   0    4.3626   626.1    3.375      64.255
2015    3       27     1   6    4.3575   626.1    3.371      64.212
2015    3       27     1  12    4.3525   626.1    3.368      64.170
2015    3       27     1  18    4.3474   626.0    3.364      64.129
2015    3       27     1  23    4.3424   626.0    3.361      64.089
2015    3       27     1  29    4.3374   625.9    3.357      64.050
2015    3       27     1  35    4.3325   625.9    3.354      64.012
2015    3       27     1  41    4.3275   625.9    3.351      63.975
2015    3       27     1  46    4.3226   625.8    3.348      63.939
2015    3       27     1  52    4.3177   625.8    3.345      63.904
2015    3       27     1  58    4.3128   625.7    3.343      63.870
2015    3       27     2   4    4.3079   625.7    3.340      63.836
2015    3       27     2  10    4.3031   625.6    3.337      63.803
2015    3       27     2  15    4.2983   625.6    3.335      63.770
2015    3       27     2  21    4.2935   625.5    3.332      63.738
2015    3       27     2  27    4.2887   625.5    3.329      63.705
2015    3       27     2  33    4.2839   625.4    3.326      63.671
2015    3       27     2  38    4.2791   625.4    3.323      63.636
2015    3       27     2  44    4.2743   625.3    3.320      63.600
2015    3       27     2  50    4.2695   625.3    3.317      63.562
2015    3       27     2  56    4.2647   625.2    3.314      63.522
2015    3       27     3   1    4.2599   625.2    3.311      63.482
2015    3       27     3   7    4.2551   625.1    3.308      63.440
2015    3       27     3  13    4.2503   625.1    3.305      63.397
2015    3       27     3  19    4.2454   625.0    3.301      63.352
2015    3       27     3  24    4.2406   625.0    3.298      63.307
2015    3       27     3  30    4.2358   624.9    3.294      63.261
2015    3       27     3  36    4.2309   624.8    3.291      63.213
2015    3       27     3  42    4.2261   624.8    3.287      63.165
2015    3       27     3  47    4.2213   624.7    3.284      63.116
2015    3       27     3  53    4.2164   624.7    3.280      63.066
2015    3       27     3  59    4.2116   624.6    3.276      63.015
2015    3       27     4   5    4.2068   624.5    3.272      62.964
2015    3       27     4  10    4.2020   624.5    3.269      62.912
2015    3       27     4  16    4.1971   624.4    3.265      62.859
2015    3       27     4  22    4.1924   624.3    3.261      62.806
2015    3       27     4  28    4.1875   624.2    3.257      62.752
2015    3       27     4  33    4.1828   624.2    3.253      62.698
2015    3       27     4  39    4.1780   624.1    3.250      62.643
2015    3       27     4  45    4.1732   624.0    3.246      62.588
2015    3       27     4  51    4.1684   623.9    3.242      62.532
2015    3       27     4  57    4.1637   623.9    3.238      62.475
2015    3       27     5   2    4.1589   623.8    3.234      62.418
2015    3       27     5   8    4.1541   623.7    3.230      62.361
2015    3       27     5  14    4.1494   623.6    3.226      62.303
2015    3       27     5  20    4.1447   623.5    3.222      62.245
2015    3       27     5  25    4.1399   623.4    3.218      62.186
2015    3       27     5  31    4.1352   623.3    3.214      62.126
2015    3       27     5  37    4.1305   623.2    3.210      62.066
2015    3       27     5  43    4.1258   623.1    3.206      62.006
2015    3       27     5  48    4.1211   623.0    3.202      61.946
2015    3       27     5  54    4.1164   623.0    3.198      61.885
2015    3       27     6   0    4.1117   622.8    3.194      61.824
2015    3       27     6   6    4.1070   622.7    3.190      61.762
2015    3       27     6  11    4.1023   622.6    3.186      61.700
2015    3       27     6  17    4.0977   622.5    3.182      61.638
2015    3       27     6  23    4.0930   622.4    3.178      61.576
2015    3       27     6  29    4.0883   622.3    3.174      61.513
2015    3       27     6  34    4.0837   622.2    3.170      61.450
2015    3       27     6  40    4.0790   622.1    3.166      61.387
2015    3       27     6  46    4.0744   622.0    3.162      61.324
2015    3       27     6  52    4.0698   621.8    3.158      61.260
2015    3       27     6  57    4.0652   621.7    3.154      61.196
2015    3       27     7   3    4.0605   621.6    3.150      61.133
2015    3       27     7   9    4.0559   621.5    3.146      61.068
2015    3       27     7  15    4.0513   621.3    3.143      61.004
2015    3       27     7  21    4.0467   621.2    3.139      60.940
2015    3       27     7  26    4.0422   621.1    3.135      60.876
2015    3       27     7  32    4.0376   620.9    3.132      60.811
2015    3       27     7  38    4.0330   620.8    3.128      60.747
2015    3       27     7  44    4.0285   620.7    3.125      60.683
2015    3       27     7  49    4.0239   620.5    3.121      60.618
2015    3       27     7  55    4.0194   620.4    3.118      60.554
2015    3       27     8   1    4.0149   620.2    3.115      60.490
2015    3       27     8   7    4.0104   620.1    3.112      60.426
2015    3       27     8  12    4.0059   619.9    3.109      60.363
2015    3       27     8  18    4.0015   619.8    3.106      60.300
2015    3       27     8  24    3.9971   619.6    3.103      60.237
2015    3       27     8  30    3.9926   619.5    3.100      60.174
2015    3       27     8  35    3.9882   619.3    3.097      60.112
2015    3       27     8  41    3.9838   619.1    3.095      60.051
2015    3       27     8  47    3.9795   619.0    3.092      59.989
2015    3       27     8  53    3.9752   618.8    3.090      59.929
2015    3       27     8  58    3.9708   618.6    3.087      59.868
2015    3       27     9   4    3.9665   618.5    3.085      59.809
2015    3       27     9  10    3.9623   618.3    3.083      59.749
2015    3       27     9  16    3.9580   618.1    3.081      59.690
2015    3       27     9  21    3.9537   618.0    3.078      59.631
2015    3       27     9  27    3.9495   617.8    3.076      59.572
2015    3       27     9  33    3.9453   617.6    3.074      59.514
2015    3       27     9  39    3.9411   617.4    3.072      59.455
2015    3       27     9  44    3.9369   617.2    3.070      59.397
2015    3       27     9  50    3.9327   617.1    3.068      59.338
2015    3       27     9  56    3.9285   616.9    3.066      59.279
2015    3       27    10   2    3.9243   616.7    3.064      59.219
2015    3       27    10   8    3.9202   616.5    3.063      59.159
2015    3       27    10  13    3.9160   616.3    3.061      59.098
2015    3       27    10  19    3.9118   616.1    3.059      59.037
2015    3       27    10  25    3.9077   615.9    3.057      58.976
2015    3       27    10  31    3.9035   615.7    3.055      58.914
2015    3       27    10  36    3.8994   615.5    3.053      58.852
2015    3       27    10  42    3.8953   615.4    3.051      58.789
2015    3       27    10  48    3.8911   615.2    3.049      58.726
2015    3       27    10  54    3.8870   615.0    3.047      58.663
2015    3       27    10  59    3.8829   614.8    3.045      58.599
2015    3       27    11   5    3.8788   614.6    3.043      58.534
2015    3       27    11  11    3.8747   614.4    3.041      58.469
2015    3       27    11  17    3.8706   614.2    3.039      58.404
2015    3       27    11  22    3.8666   614.0    3.037      58.338
2015    3       27    11  28    3.8625   613.7    3.035      58.272
2015    3       27    11  34    3.8585   613.5    3.033      58.205
2015    3       27    11  40    3.8544   613.3    3.031      58.137
2015    3       27    11  45    3.8504   613.1    3.029      58.069
2015    3       27    11  51    3.8464   612.9    3.027      58.001
2015    3       27    11  57    3.8424   612.7    3.025      57.932
2015    3       27    12   3    3.8384   612.5    3.023      57.863
2015    3       27    12   8    3.8344   612.3    3.021      57.792
2015    3       27    12  14    3.8304   612.1    3.019      57.722
2015    3       27    12  20    3.8264   611.8    3.017      57.651
2015    3       27    12  26    3.8225   611.6    3.015      57.580
2015    3       27    12  31    3.8185   611.4    3.013      57.508
2015    3       27    12  37    3.8146   611.2    3.011      57.435
2015    3       27    12  43    3.8107   611.0    3.009      57.362
2015    3       27    12  49    3.8068   610.7    3.007      57.289
2015    3       27    12  55    3.8028   610.5    3.004      57.216
2015    3       27    13   0    3.7990   610.3    3.002      57.142
2015    3       27    13   6    3.7951   610.1    3.000      57.067
2015    3       27    13  12    3.7912   609.8    2.998      56.993
2015    3       27    13  18    3.7874   609.6    2.996      56.918
2015    3       27    13  23    3.7835   609.4    2.994      56.843
2015    3       27    13  29    3.7797   609.1    2.992      56.768
2015    3       27    13  35    3.7759   608.9    2.990      56.692
2015    3       27    13  41    3.7721   608.6    2.988      56.617
2015    3       27    13  46    3.7683   608.4    2.986      56.542
2015    3       27    13  52    3.7645   608.2    2.984      56.466
2015    3       27    13  58    3.7607   607.9    2.982      56.391
2015    3       27    14   4    3.7570   607.7    2.980      56.316
2015    3       27    14   9    3.7532   607.4    2.978      56.240
2015    3       27    14  15    3.7495   607.2    2.976      56.165
2015    3       27    14  21    3.7458   606.9    2.974      56.090
2015    3       27    14  27    3.7420   606.7    2.972      56.015
2015    3       27    14  32    3.7383   606.4    2.970      55.940
2015    3       27    14  38    3.7347   606.2    2.968      55.865
2015    3       27    14  44    3.7310   605.9    2.967      55.791
2015    3       27    14  50    3.7273   605.7    2.965      55.716
2015    3       27    14  55    3.7237   605.4    2.963      55.642
2015    3       27    15   1    3.7200   605.2    2.961      55.567
2015    3       27    15   7    3.7164   604.9    2.960      55.492
2015    3       27    15  13    3.7128   604.6    2.958      55.418
2015    3       27    15  18    3.7092   604.4    2.956      55.344
2015    3       27    15  24    3.7056   604.1    2.954      55.269
2015    3       27    15  30    3.7020   603.9    2.953      55.195
2015    3       27    15  36    3.6985   603.6    2.951      55.120
2015    3       27    15  42    3.6949   603.3    2.950      55.046
2015    3       27    15  47    3.6914   603.1    2.948      54.971
2015    3       27    15  53    3.6879   602.8    2.946      54.897
2015    3       27    15  59    3.6844   602.5    2.945      54.822
2015    3       27    16   5    3.6809   602.3    2.943      54.748
2015    3       27    16  10    3.6775   602.0    2.942      54.674
2015    3       27    16  16    3.6740   601.7    2.940      54.600
2015    3       27    16  22    3.6706   601.4    2.939      54.526
2015    3       27    16  28    3.6672   601.2    2.937      54.452
2015    3       27    16  33    3.6638   600.9    2.936      54.379
2015    3       27    16  39    3.6604   600.6    2.935      54.305
2015    3       27    16  45    3.6571   600.3    2.934      54.232
2015    3       27    16  51    3.6538   600.0    2.932      54.159
2015    3       27    16  56    3.6504   599.8    2.931      54.087
2015    3       27    17   2    3.6471   599.5    2.930      54.014
2015    3       27    17   8    3.6439   599.2    2.929      53.942
2015    3       27    17  14    3.6406   598.9    2.928      53.870
2015    3       27    17  19    3.6373   598.6    2.927      53.798
2015    3       27    17  25    3.6341   598.3    2.926      53.727
2015    3       27    17  31    3.6309   598.0    2.925      53.656
2015    3       27    17  37    3.6277   597.8    2.924      53.584
2015    3       27    17  42    3.6245   597.5    2.923      53.513
2015    3       27    17  48    3.6213   597.2    2.922      53.443
2015    3       27    17  54    3.6182   596.9    2.921      53.372
2015    3       27    18   0    3.6150   596.6    2.920      53.301
2015    3       27    18   5    3.6119   596.3    2.920      53.230
2015    3       27    18  11    3.6087   596.0    2.919      53.159
2015    3       27    18  17    3.6056   595.7    2.918      53.088
2015    3       27    18  23    3.6025   595.4    2.917      53.017
2015    3       27    18  29    3.5994   595.1    2.917      52.946
2015    3       27    18  34    3.5963   594.8    2.916      52.875
2015    3       27    18  40    3.5933   594.5    2.915      52.803
2015    3       27    18  46    3.5902   594.2    2.915      52.732
2015    3       27    18  52    3.5871   593.9    2.914      52.660
2015    3       27    18  57    3.5841   593.6    2.914      52.588
2015    3       27    19   3    3.5810   593.3    2.913      52.515
2015    3       27    19   9    3.5780   593.0    2.912      52.443
2015    3       27    19  15    3.5750   592.7    2.912      52.370
2015    3       27    19  20    3.5720   592.4    2.911      52.297
2015    3       27    19  26    3.5690   592.1    2.911      52.224
2015    3       27    19  32    3.5660   591.8    2.910      52.150
2015    3       27    19  38    3.5630   591.5    2.910      52.076
2015    3       27    19  43    3.5600   591.1    2.910      52.002
2015    3       27    19  49    3.5571   590.8    2.909      51.928
2015    3       27    19  55    3.5541   590.5    2.909      51.853
2015    3       27    20   1    3.5512   590.2    2.909      51.779
2015    3       27    20   6    3.5482   589.9    2.908      51.704
2015    3       27    20  12    3.5453   589.6    2.908      51.629
2015    3       27    20  18    3.5423   589.3    2.908      51.554
2015    3       27    20  24    3.5394   589.0    2.907      51.479
2015    3       27    20  29    3.5365   588.7    2.907      51.404
2015    3       27    20  35    3.5336   588.3    2.907      51.329
2015    3       27    20  41    3.5307   588.0    2.907      51.253
2015    3       27    20  47    3.5278   587.7    2.906      51.178
2015    3       27    20  52    3.5249   587.4    2.906      51.103
2015    3       27    20  58    3.5220   587.1    2.906      51.028
2015    3       27    21   4    3.5191   586.8    2.906      50.953
2015    3       27    21  10    3.5162   586.4    2.906      50.878
2015    3       27    21  16    3.5133   586.1    2.906      50.803
2015    3       27    21  21    3.5105   585.8    2.906      50.729
2015    3       27    21  27    3.5076   585.5    2.905      50.655
2015    3       27    21  33    3.5047   585.2    2.905      50.581
2015    3       27    21  39    3.5019   584.8    2.905      50.507
2015    3       27    21  44    3.4990   584.5    2.905      50.433
2015    3       27    21  50    3.4962   584.2    2.905      50.359
2015    3       27    21  56    3.4933   583.9    2.905      50.286
2015    3       27    22   2    3.4905   583.6    2.905      50.212
2015    3       27    22   7    3.4877   583.2    2.905      50.139
2015    3       27    22  13    3.4849   582.9    2.905      50.066
2015    3       27    22  19    3.4821   582.6    2.905      49.993
2015    3       27    22  25    3.4793   582.3    2.905      49.920
2015    3       27    22  30    3.4765   581.9    2.905      49.848
2015    3       27    22  36    3.4737   581.6    2.905      49.775
2015    3       27    22  42    3.4710   581.3    2.905      49.702
2015    3       27    22  48    3.4682   581.0    2.904      49.630
2015    3       27    22  53    3.4655   580.6    2.904      49.557
2015    3       27    22  59    3.4627   580.3    2.904      49.484
2015    3       27    23   5    3.4600   580.0    2.904      49.412
2015    3       27    23  11    3.4573   579.7    2.904      49.339
2015    3       27    23  16    3.4546   579.3    2.904      49.266
2015    3       27    23  22    3.4519   579.0    2.904      49.193
2015    3       27    23  28    3.4492   578.7    2.904      49.119
2015    3       27    23  34    3.4465   578.3    2.903      49.046
2015    3       27    23  39    3.4439   578.0    2.903      48.972
2015    3       27    23  45    3.4412   577.7    2.903      48.898
2015    3       27    23  51    3.4386   577.4    2.903      48.824
2015    3       27    23  57    3.4360   577.0    2.902      48.749
2015    3       28     0   3    3.4333   576.7    2.902      48.675
2015    3       28     0   8    3.4307   576.4    2.902      48.600
2015    3       28     0  14    3.4281   576.0    2.902      48.526
2015    3       28     0  20    3.4255   575.7    2.901      48.451
2015    3       28     0  26    3.4229   575.4    2.901      48.377
2015    3       28     0  31    3.4203   575.0    2.901      48.302
2015    3       28     0  37    3.4177   574.7    2.900      48.227
2015    3       28     0  43    3.4152   574.4    2.900      48.153
2015    3       28     0  49    3.4126   574.0    2.900      48.078
2015    3       28     0  54    3.4101   573.7    2.899      48.003
2015    3       28     1   0    3.4075   573.3    2.899      47.928
2015    3       28     1   6    3.4050   573.0    2.899      47.853
2015    3       28     1  12    3.4024   572.7    2.898      47.779
2015    3       28     1  17    3.3999   572.3    2.898      47.704
2015    3       28     1  23    3.3974   572.0    2.897      47.629
2015    3       28     1  29    3.3949   571.7    2.897      47.554
2015    3       28     1  35    3.3924   571.3    2.897      47.479
2015    3       28     1  40    3.3899   571.0    2.896      47.404
2015    3       28     1  46    3.3874   570.6    2.896      47.328
2015    3       28     1  52    3.3849   570.3    2.895      47.253
2015    3       28     1  58    3.3825   569.9    2.895      47.178
2015    3       28     2   3    3.3800   569.6    2.895      47.102
2015    3       28     2   9    3.3775   569.3    2.894      47.027
2015    3       28     2  15    3.3751   568.9    2.894      46.952
2015    3       28     2  21    3.3727   568.6    2.893      46.876
2015    3       28     2  26    3.3702   568.2    2.893      46.800
2015    3       28     2  32    3.3678   567.9    2.893      46.725
2015    3       28     2  38    3.3654   567.5    2.892      46.649
2015    3       28     2  44    3.3630   567.2    2.892      46.574
2015    3       28     2  49    3.3606   566.8    2.892      46.498
2015    3       28     2  55    3.3582   566.5    2.891      46.422
2015    3       28     3   1    3.3558   566.1    2.891      46.346
2015    3       28     3   7    3.3534   565.8    2.891      46.271
2015    3       28     3  13    3.3510   565.4    2.891      46.195
2015    3       28     3  18    3.3487   565.1    2.890      46.119
2015    3       28     3  24    3.3463   564.7    2.890      46.044
2015    3       28     3  30    3.3440   564.4    2.890      45.968
2015    3       28     3  36    3.3417   564.0    2.890      45.893
2015    3       28     3  41    3.3393   563.7    2.890      45.818
2015    3       28     3  47    3.3370   563.3    2.890      45.742
2015    3       28     3  53    3.3347   563.0    2.890      45.667
2015    3       28     3  59    3.3324   562.6    2.889      45.592
2015    3       28     4   4    3.3301   562.2    2.889      45.518
2015    3       28     4  10    3.3278   561.9    2.889      45.443
2015    3       28     4  16    3.3255   561.5    2.889      45.369
2015    3       28     4  22    3.3232   561.2    2.890      45.295
2015    3       28     4  27    3.3209   560.8    2.890      45.221
2015    3       28     4  33    3.3187   560.4    2.890      45.148
2015    3       28     4  39    3.3164   560.1    2.890      45.075
2015    3       28     4  45    3.3142   559.7    2.890      45.003
2015    3       28     4  50    3.3120   559.3    2.890      44.931
2015    3       28     4  56    3.3097   559.0    2.891      44.859
2015    3       28     5   2    3.3075   558.6    2.891      44.788
2015    3       28     5   8    3.3053   558.2    2.891      44.717
2015    3       28     5  13    3.3031   557.8    2.892      44.646
2015    3       28     5  19    3.3009   557.5    2.892      44.576
2015    3       28     5  25    3.2988   557.1    2.893      44.506
2015    3       28     5  31    3.2966   556.7    2.893      44.436
2015    3       28     5  37    3.2944   556.3    2.894      44.367
2015    3       28     5  42    3.2923   556.0    2.894      44.299
2015    3       28     5  48    3.2902   555.6    2.895      44.230
2015    3       28     5  54    3.2881   555.2    2.896      44.163
2015    3       28     6   0    3.2860   554.8    2.896      44.095
2015    3       28     6   5    3.2839   554.4    2.897      44.028
2015    3       28     6  11    3.2818   554.1    2.898      43.961
2015    3       28     6  17    3.2797   553.7    2.899      43.894
2015    3       28     6  23    3.2777   553.3    2.900      43.827
2015    3       28     6  28    3.2756   552.9    2.900      43.761
2015    3       28     6  34    3.2736   552.6    2.901      43.694
2015    3       28     6  40    3.2716   552.2    2.902      43.627
2015    3       28     6  46    3.2696   551.8    2.903      43.561
2015    3       28     6  51    3.2675   551.4    2.904      43.494
2015    3       28     6  57    3.2655   551.0    2.905      43.427
2015    3       28     7   3    3.2635   550.7    2.906      43.360
2015    3       28     7   9    3.2616   550.3    2.907      43.293
2015    3       28     7  14    3.2595   549.9    2.908      43.226
2015    3       28     7  20    3.2576   549.5    2.909      43.158
2015    3       28     7  26    3.2556   549.1    2.910      43.091
2015    3       28     7  32    3.2536   548.8    2.911      43.024
2015    3       28     7  38    3.2516   548.4    2.912      42.957
2015    3       28     7  43    3.2496   548.0    2.913      42.890
2015    3       28     7  49    3.2477   547.6    2.914      42.822
2015    3       28     7  55    3.2457   547.2    2.914      42.755
2015    3       28     8   1    3.2437   546.9    2.915      42.689
2015    3       28     8   6    3.2418   546.5    2.916      42.622
2015    3       28     8  12    3.2398   546.1    2.917      42.555
2015    3       28     8  18    3.2379   545.7    2.918      42.489
2015    3       28     8  24    3.2359   545.3    2.919      42.422
2015    3       28     8  29    3.2340   544.9    2.920      42.356
2015    3       28     8  35    3.2321   544.5    2.921      42.290
2015    3       28     8  41    3.2302   544.2    2.922      42.224
2015    3       28     8  47    3.2282   543.8    2.923      42.158
2015    3       28     8  52    3.2263   543.4    2.924      42.092
2015    3       28     8  58    3.2244   543.0    2.925      42.027
2015    3       28     9   4    3.2226   542.6    2.926      41.962
2015    3       28     9  10    3.2207   542.2    2.927      41.897
2015    3       28     9  15    3.2188   541.8    2.928      41.832
2015    3       28     9  21    3.2169   541.4    2.930      41.767
2015    3       28     9  27    3.2151   541.1    2.931      41.703
2015    3       28     9  33    3.2132   540.7    2.932      41.638
2015    3       28     9  38    3.2114   540.3    2.933      41.574
2015    3       28     9  44    3.2096   539.9    2.934      41.509
2015    3       28     9  50    3.2078   539.5    2.935      41.445
2015    3       28     9  56    3.2060   539.1    2.936      41.381
2015    3       28    10   1    3.2042   538.7    2.937      41.316
2015    3       28    10   7    3.2024   538.3    2.938      41.252
2015    3       28    10  13    3.2006   537.9    2.939      41.188
2015    3       28    10  19    3.1989   537.5    2.940      41.123
2015    3       28    10  24    3.1971   537.1    2.942      41.059
2015    3       28    10  30    3.1953   536.7    2.943      40.994
2015    3       28    10  36    3.1936   536.3    2.944      40.930
2015    3       28    10  42    3.1919   535.9    2.945      40.865
2015    3       28    10  47    3.1902   535.5    2.946      40.800
2015    3       28    10  53    3.1884   535.1    2.947      40.736
2015    3       28    10  59    3.1867   534.7    2.948      40.670
2015    3       28    11   5    3.1850   534.3    2.949      40.605
2015    3       28    11  10    3.1833   533.9    2.950      40.539
2015    3       28    11  16    3.1816   533.5    2.951      40.474
2015    3       28    11  22    3.1800   533.1    2.952      40.408
2015    3       28    11  28    3.1783   532.7    2.953      40.342
2015    3       28    11  33    3.1766   532.3    2.954      40.276
2015    3       28    11  39    3.1750   531.9    2.955      40.210
2015    3       28    11  45    3.1733   531.5    2.956      40.144
2015    3       28    11  51    3.1717   531.1    2.957      40.078
2015    3       28    11  56    3.1701   530.7    2.958      40.013
2015    3       28    12   2    3.1685   530.3    2.959      39.947
2015    3       28    12   8    3.1669   529.9    2.960      39.881
2015    3       28    12  14    3.1653   529.5    2.962      39.816
2015    3       28    12  19    3.1638   529.0    2.963      39.750
2015    3       28    12  25    3.1622   528.6    2.964      39.685
2015    3       28    12  31    3.1607   528.2    2.965      39.620
2015    3       28    12  37    3.1592   527.8    2.966      39.555
2015    3       28    12  42    3.1577   527.4    2.968      39.490
2015    3       28    12  48    3.1562   527.0    2.969      39.425
2015    3       28    12  54    3.1547   526.5    2.970      39.361
2015    3       28    13   0    3.1533   526.1    2.972      39.297
2015    3       28    13   5    3.1518   525.7    2.973      39.233
2015    3       28    13  11    3.1504   525.3    2.975      39.169
2015    3       28    13  17    3.1490   524.9    2.976      39.106
2015    3       28    13  23    3.1477   524.4    2.978      39.043
2015    3       28    13  28    3.1463   524.0    2.979      38.980
2015    3       28    13  34    3.1449   523.6    2.981      38.918
2015    3       28    13  40    3.1436   523.1    2.983      38.856
2015    3       28    13  46    3.1423   522.7    2.984      38.794
2015    3       28    13  51    3.1410   522.3    2.986      38.733
2015    3       28    13  57    3.1397   521.9    2.988      38.672
2015    3       28    14   3    3.1385   521.4    2.990      38.611
2015    3       28    14   9    3.1372   521.0    2.992      38.551
2015    3       28    14  14    3.1360   520.6    2.994      38.491
2015    3       28    14  20    3.1348   520.1    2.996      38.431
2015    3       28    14  26    3.1336   519.7    2.998      38.372
2015    3       28    14  32    3.1324   519.3    3.000      38.313
2015    3       28    14  37    3.1312   518.8    3.003      38.255
2015    3       28    14  43    3.1301   518.4    3.005      38.197
2015    3       28    14  49    3.1289   518.0    3.007      38.139
2015    3       28    14  55    3.1278   517.5    3.010      38.082
2015    3       28    15   1    3.1267   517.1    3.012      38.025
2015    3       28    15   6    3.1256   516.7    3.015      37.968
2015    3       28    15  12    3.1245   516.2    3.017      37.912
2015    3       28    15  18    3.1235   515.8    3.020      37.857
2015    3       28    15  24    3.1224   515.3    3.022      37.801
2015    3       28    15  29    3.1214   514.9    3.025      37.747
2015    3       28    15  35    3.1204   514.5    3.028      37.692
2015    3       28    15  41    3.1194   514.0    3.031      37.639
2015    3       28    15  47    3.1185   513.6    3.034      37.585
2015    3       28    15  52    3.1175   513.1    3.037      37.532
2015    3       28    15  58    3.1166   512.7    3.040      37.480
2015    3       28    16   4    3.1157   512.2    3.043      37.428
2015    3       28    16  10    3.1149   511.8    3.047      37.377
2015    3       28    16  15    3.1140   511.3    3.050      37.326
2015    3       28    16  21    3.1132   510.9    3.053      37.276
2015    3       28    16  27    3.1124   510.4    3.057      37.226
2015    3       28    16  33    3.1116   510.0    3.061      37.176
2015    3       28    16  38    3.1109   509.6    3.064      37.127
2015    3       28    16  44    3.1101   509.1    3.068      37.078
2015    3       28    16  50    3.1094   508.7    3.072      37.030
2015    3       28    16  56    3.1088   508.2    3.076      36.982
2015    3       28    17   2    3.1081   507.8    3.080      36.935
2015    3       28    17   7    3.1075   507.3    3.084      36.887
2015    3       28    17  13    3.1069   506.9    3.088      36.840
2015    3       28    17  19    3.1063   506.4    3.092      36.793
2015    3       28    17  25    3.1058   506.0    3.096      36.746
2015    3       28    17  30    3.1052   505.5    3.100      36.700
2015    3       28    17  36    3.1047   505.1    3.104      36.653
2015    3       28    17  42    3.1043   504.6    3.109      36.607
2015    3       28    17  48    3.1038   504.2    3.113      36.560
2015    3       28    17  53    3.1034   503.8    3.117      36.514
2015    3       28    17  59    3.1029   503.3    3.122      36.468
2015    3       28    18   5    3.1026   502.9    3.126      36.421
2015    3       28    18  11    3.1022   502.4    3.131      36.374
2015    3       28    18  16    3.1018   502.0    3.135      36.328
2015    3       28    18  22    3.1015   501.5    3.140      36.281
2015    3       28    18  28    3.1012   501.1    3.144      36.233
2015    3       28    18  34    3.1009   500.6    3.149      36.186
2015    3       28    18  39    3.1006   500.2    3.153      36.138
2015    3       28    18  45    3.1004   499.8    3.158      36.091
2015    3       28    18  51    3.1001   499.3    3.162      36.043
2015    3       28    18  57    3.0999   498.9    3.167      35.995
2015    3       28    19   2    3.0997   498.4    3.171      35.947
2015    3       28    19   8    3.0996   498.0    3.176      35.898
2015    3       28    19  14    3.0994   497.5    3.180      35.850
2015    3       28    19  20    3.0993   497.1    3.185      35.801
2015    3       28    19  25    3.0992   496.7    3.189      35.753
2015    3       28    19  31    3.0991   496.2    3.194      35.704
2015    3       28    19  37    3.0991   495.8    3.198      35.656
2015    3       28    19  43    3.0990   495.3    3.203      35.607
2015    3       28    19  49    3.0991   494.9    3.208      35.558
2015    3       28    19  54    3.0991   494.4    3.212      35.509
2015    3       28    20   0    3.0991   494.0    3.217      35.461
2015    3       28    20   6    3.0992   493.6    3.222      35.412
2015    3       28    20  12    3.0993   493.1    3.227      35.364
2015    3       28    20  17    3.0994   492.7    3.231      35.315
2015    3       28    20  23    3.0996   492.2    3.236      35.267
2015    3       28    20  29    3.0998   491.8    3.241      35.219
2015    3       28    20  35    3.1000   491.4    3.246      35.171
2015    3       28    20  40    3.1003   490.9    3.251      35.124
2015    3       28    20  46    3.1006   490.5    3.256      35.076
2015    3       28    20  52    3.1009   490.0    3.261      35.029
2015    3       28    20  58    3.1012   489.6    3.266      34.983
2015    3       28    21   3    3.1016   489.2    3.272      34.936
2015    3       28    21   9    3.1020   488.7    3.277      34.891
2015    3       28    21  15    3.1024   488.3    3.282      34.845
2015    3       28    21  21    3.1029   487.9    3.288      34.800
2015    3       28    21  26    3.1034   487.4    3.293      34.755
2015    3       28    21  32    3.1039   487.0    3.299      34.711
2015    3       28    21  38    3.1045   486.5    3.304      34.667
2015    3       28    21  44    3.1051   486.1    3.310      34.623
2015    3       28    21  49    3.1057   485.7    3.316      34.580
2015    3       28    21  55    3.1064   485.2    3.322      34.538
2015    3       28    22   1    3.1070   484.8    3.328      34.495
2015    3       28    22   7    3.1077   484.4    3.334      34.454
2015    3       28    22  13    3.1085   483.9    3.340      34.412
2015    3       28    22  18    3.1093   483.5    3.346      34.371
2015    3       28    22  24    3.1101   483.1    3.352      34.331
2015    3       28    22  30    3.1109   482.6    3.358      34.290
2015    3       28    22  36    3.1117   482.2    3.365      34.251
2015    3       28    22  41    3.1126   481.8    3.371      34.211
2015    3       28    22  47    3.1135   481.4    3.378      34.172
2015    3       28    22  53    3.1145   480.9    3.384      34.133
2015    3       28    22  59    3.1155   480.5    3.391      34.094
2015    3       28    23   4    3.1165   480.1    3.397      34.056
2015    3       28    23  10    3.1175   479.6    3.404      34.018
2015    3       28    23  16    3.1186   479.2    3.411      33.981
2015    3       28    23  22    3.1197   478.8    3.418      33.944
2015    3       28    23  27    3.1208   478.4    3.425      33.906
2015    3       28    23  33    3.1220   477.9    3.432      33.870
2015    3       28    23  39    3.1232   477.5    3.439      33.833
2015    3       28    23  45    3.1244   477.1    3.446      33.797
2015    3       28    23  50    3.1257   476.7    3.453      33.761
2015    3       28    23  56    3.1270   476.3    3.460      33.725
2015    3       29     0   2    3.1283   475.8    3.467      33.689
2015    3       29     0   8    3.1297   475.4    3.475      33.654
2015    3       29     0  13    3.1311   475.0    3.482      33.618
2015    3       29     0  19    3.1325   474.6    3.489      33.584
2015    3       29     0  25    3.1340   474.2    3.497      33.549
2015    3       29     0  31    3.1355   473.8    3.504      33.514
2015    3       29     0  37    3.1371   473.4    3.512      33.480
2015    3       29     0  42    3.1387   472.9    3.520      33.445
2015    3       29     0  48    3.1403   472.5    3.527      33.411
2015    3       29     0  54    3.1420   472.1    3.535      33.377
2015    3       29     1   0    3.1437   471.7    3.543      33.344
2015    3       29     1   5    3.1454   471.3    3.551      33.310
2015    3       29     1  11    3.1472   470.9    3.559      33.276
2015    3       29     1  17    3.1490   470.5    3.567      33.243
2015    3       29     1  23    3.1509   470.1    3.575      33.210
2015    3       29     1  28    3.1528   469.7    3.583      33.177
2015    3       29     1  34    3.1547   469.3    3.591      33.144
2015    3       29     1  40    3.1566   468.9    3.599      33.111
2015    3       29     1  46    3.1587   468.5    3.607      33.079
2015    3       29     1  51    3.1607   468.1    3.615      33.046
2015    3       29     1  57    3.1628   467.7    3.624      33.014
2015    3       29     2   3    3.1649   467.3    3.632      32.982
2015    3       29     2   9    3.1671   466.9    3.640      32.950
2015    3       29     2  14    3.1692   466.5    3.649      32.918
2015    3       29     2  20    3.1715   466.1    3.657      32.886
2015    3       29     2  26    3.1737   465.7    3.666      32.855
2015    3       29     2  32    3.1761   465.3    3.674      32.823
2015    3       29     2  37    3.1784   464.9    3.683      32.792
2015    3       29     2  43    3.1808   464.5    3.692      32.761
2015    3       29     2  49    3.1832   464.1    3.700      32.730
2015    3       29     2  55    3.1856   463.8    3.709      32.700
2015    3       29     3   0    3.1881   463.4    3.718      32.669
2015    3       29     3   6    3.1907   463.0    3.727      32.639
2015    3       29     3  12    3.1932   462.6    3.736      32.609
2015    3       29     3  18    3.1958   462.2    3.745      32.580
2015    3       29     3  23    3.1985   461.8    3.754      32.551
2015    3       29     3  29    3.2012   461.5    3.763      32.522
2015    3       29     3  35    3.2039   461.1    3.772      32.493
2015    3       29     3  41    3.2066   460.7    3.781      32.465
2015    3       29     3  47    3.2094   460.3    3.791      32.437
2015    3       29     3  52    3.2123   459.9    3.800      32.410
2015    3       29     3  58    3.2151   459.6    3.809      32.383
2015    3       29     4   4    3.2181   459.2    3.819      32.356
2015    3       29     4  10    3.2210   458.8    3.828      32.329
2015    3       29     4  15    3.2240   458.4    3.838      32.303
2015    3       29     4  21    3.2270   458.1    3.848      32.278
2015    3       29     4  27    3.2301   457.7    3.858      32.253
2015    3       29     4  33    3.2332   457.3    3.868      32.228
2015    3       29     4  38    3.2363   457.0    3.877      32.203
2015    3       29     4  44    3.2394   456.6    3.887      32.179
2015    3       29     4  50    3.2426   456.3    3.898      32.156
2015    3       29     4  56    3.2458   455.9    3.908      32.132
2015    3       29     5   1    3.2491   455.5    3.918      32.109
2015    3       29     5   7    3.2524   455.2    3.928      32.087
2015    3       29     5  13    3.2557   454.8    3.939      32.064
2015    3       29     5  19    3.2591   454.5    3.949      32.042
2015    3       29     5  24    3.2625   454.1    3.959      32.020
2015    3       29     5  30    3.2659   453.8    3.970      31.999
2015    3       29     5  36    3.2693   453.4    3.981      31.978
2015    3       29     5  42    3.2728   453.1    3.991      31.957
2015    3       29     5  48    3.2763   452.8    4.002      31.936
2015    3       29     5  53    3.2798   452.4    4.013      31.915
2015    3       29     5  59    3.2833   452.1    4.023      31.895
2015    3       29     6   5    3.2869   451.7    4.034      31.874
2015    3       29     6  11    3.2905   451.4    4.045      31.854
2015    3       29     6  16    3.2941   451.1    4.056      31.834
2015    3       29     6  22    3.2978   450.7    4.067      31.814
2015    3       29     6  28    3.3015   450.4    4.078      31.794
2015    3       29     6  34    3.3052   450.1    4.090      31.774
2015    3       29     6  39    3.3089   449.7    4.101      31.755
2015    3       29     6  45    3.3127   449.4    4.112      31.735
2015    3       29     6  51    3.3165   449.1    4.123      31.716
2015    3       29     6  57    3.3203   448.7    4.135      31.696
2015    3       29     7   2    3.3242   448.4    4.146      31.677
2015    3       29     7   8    3.3281   448.1    4.158      31.658
2015    3       29     7  14    3.3320   447.8    4.169      31.638
2015    3       29     7  20    3.3360   447.4    4.181      31.619
2015    3       29     7  25    3.3400   447.1    4.193      31.600
2015    3       29     7  31    3.3440   446.8    4.205      31.582
2015    3       29     7  37    3.3481   446.5    4.216      31.563
2015    3       29     7  43    3.3522   446.2    4.228      31.544
2015    3       29     7  48    3.3563   445.8    4.240      31.526
2015    3       29     7  54    3.3605   445.5    4.253      31.508
2015    3       29     8   0    3.3647   445.2    4.265      31.490
2015    3       29     8   6    3.3690   444.9    4.277      31.473
2015    3       29     8  11    3.3733   444.6    4.290      31.455
2015    3       29     8  17    3.3776   444.2    4.303      31.438
2015    3       29     8  23    3.3820   443.9    4.315      31.421
2015    3       29     8  29    3.3865   443.6    4.328      31.405
2015    3       29     8  35    3.3909   443.3    4.341      31.389
2015    3       29     8  40    3.3955   443.0    4.355      31.373
2015    3       29     8  46    3.4000   442.7    4.368      31.358
2015    3       29     8  52    3.4047   442.4    4.382      31.344
2015    3       29     8  58    3.4093   442.0    4.395      31.330
2015    3       29     9   3    3.4141   441.7    4.409      31.316
2015    3       29     9   9    3.4189   441.4    4.423      31.303
2015    3       29     9  15    3.4237   441.1    4.438      31.291
2015    3       29     9  21    3.4286   440.8    4.452      31.279
2015    3       29     9  26    3.4336   440.5    4.467      31.269
2015    3       29     9  32    3.4386   440.2    4.482      31.259
2015    3       29     9  38    3.4437   439.9    4.498      31.249
2015    3       29     9  44    3.4488   439.6    4.513      31.241
2015    3       29     9  49    3.4541   439.3    4.529      31.233
2015    3       29     9  55    3.4593   438.9    4.545      31.227
2015    3       29    10   1    3.4647   438.6    4.561      31.221
2015    3       29    10   7    3.4701   438.3    4.578      31.216
2015    3       29    10  12    3.4756   438.1    4.595      31.213
2015    3       29    10  18    3.4811   437.8    4.612      31.211
2015    3       29    10  24    3.4868   437.5    4.629      31.210
2015    3       29    10  30    3.4924   437.2    4.647      31.210
2015    3       29    10  35    3.4982   436.9    4.665      31.211
2015    3       29    10  41    3.5041   436.6    4.682      31.214
2015    3       29    10  47    3.5100   436.3    4.701      31.218
2015    3       29    10  53    3.5160   436.1    4.719      31.223
2015    3       29    10  58    3.5220   435.8    4.737      31.229
2015    3       29    11   4    3.5281   435.5    4.755      31.237
2015    3       29    11  10    3.5342   435.3    4.773      31.247
2015    3       29    11  16    3.5404   435.0    4.791      31.258
2015    3       29    11  21    3.5466   434.8    4.809      31.270
2015    3       29    11  27    3.5527   434.5    4.827      31.284
2015    3       29    11  33    3.5590   434.3    4.845      31.299
2015    3       29    11  39    3.5652   434.0    4.862      31.314
2015    3       29    11  45    3.5714   433.8    4.880      31.328
2015    3       29    11  50    3.5777   433.5    4.897      31.343
2015    3       29    11  56    3.5840   433.3    4.914      31.357
2015    3       29    12   2    3.5902   433.1    4.931      31.371
2015    3       29    12   8    3.5965   432.8    4.948      31.384
2015    3       29    12  13    3.6028   432.6    4.965      31.396
2015    3       29    12  19    3.6092   432.4    4.982      31.409
2015    3       29    12  25    3.6155   432.2    4.998      31.421
2015    3       29    12  31    3.6219   431.9    5.015      31.433
2015    3       29    12  36    3.6282   431.7    5.031      31.444
2015    3       29    12  42    3.6347   431.5    5.048      31.455
2015    3       29    12  48    3.6411   431.3    5.064      31.466
2015    3       29    12  54    3.6475   431.1    5.081      31.477
2015    3       29    12  59    3.6540   430.9    5.097      31.487
2015    3       29    13   5    3.6605   430.6    5.113      31.497
2015    3       29    13  11    3.6669   430.4    5.130      31.507
2015    3       29    13  17    3.6735   430.2    5.146      31.516
2015    3       29    13  22    3.6800   430.0    5.162      31.526
2015    3       29    13  28    3.6866   429.8    5.178      31.535
2015    3       29    13  34    3.6932   429.6    5.195      31.544
2015    3       29    13  40    3.6998   429.4    5.211      31.553
2015    3       29    13  45    3.7064   429.2    5.227      31.562
2015    3       29    13  51    3.7131   429.0    5.243      31.571
2015    3       29    13  57    3.7197   428.8    5.260      31.579
2015    3       29    14   3    3.7265   428.6    5.276      31.588
2015    3       29    14   9    3.7332   428.5    5.292      31.596
2015    3       29    14  14    3.7400   428.3    5.309      31.605
2015    3       29    14  20    3.7468   428.1    5.325      31.614
2015    3       29    14  26    3.7537   427.9    5.341      31.622
2015    3       29    14  32    3.7605   427.7    5.358      31.631
2015    3       29    14  37    3.7675   427.5    5.375      31.640
2015    3       29    14  43    3.7744   427.3    5.391      31.649
2015    3       29    14  49    3.7814   427.2    5.408      31.659
2015    3       29    14  55    3.7884   427.0    5.425      31.669
2015    3       29    15   0    3.7955   426.8    5.442      31.679
2015    3       29    15   6    3.8025   426.6    5.459      31.689
2015    3       29    15  12    3.8097   426.5    5.476      31.700
2015    3       29    15  18    3.8168   426.3    5.494      31.712
2015    3       29    15  23    3.8241   426.1    5.511      31.723
2015    3       29    15  29    3.8313   426.0    5.529      31.735
2015    3       29    15  35    3.8386   425.8    5.547      31.748
2015    3       29    15  41    3.8459   425.6    5.565      31.762
2015    3       29    15  46    3.8533   425.5    5.583      31.776
2015    3       29    15  52    3.8608   425.3    5.602      31.790
2015    3       29    15  58    3.8683   425.2    5.620      31.806
2015    3       29    16   4    3.8758   425.0    5.639      31.822
2015    3       29    16   9    3.8834   424.8    5.659      31.839
2015    3       29    16  15    3.8910   424.7    5.678      31.856
2015    3       29    16  21    3.8987   424.5    5.698      31.875
2015    3       29    16  27    3.9064   424.4    5.718      31.894
2015    3       29    16  32    3.9143   424.2    5.738      31.914
2015    3       29    16  38    3.9221   424.1    5.759      31.935
2015    3       29    16  44    3.9301   423.9    5.780      31.957
2015    3       29    16  50    3.9381   423.8    5.801      31.980
2015    3       29    16  56    3.9462   423.7    5.823      32.004
2015    3       29    17   1    3.9543   423.5    5.845      32.028
2015    3       29    17   7    3.9626   423.4    5.868      32.054
2015    3       29    17  13    3.9709   423.3    5.891      32.082
2015    3       29    17  19    3.9793   423.1    5.914      32.110
2015    3       29    17  24    3.9877   423.0    5.938      32.140
2015    3       29    17  30    3.9963   422.9    5.962      32.171
2015    3       29    17  36    4.0050   422.7    5.987      32.204
2015    3       29    17  42    4.0137   422.6    6.012      32.238
2015    3       29    17  47    4.0225   422.5    6.038      32.274
2015    3       29    17  53    4.0315   422.4    6.063      32.311
2015    3       29    17  59    4.0405   422.3    6.089      32.351
2015    3       29    18   5    4.0497   422.2    6.116      32.392
2015    3       29    18  10    4.0589   422.1    6.142      32.436
2015    3       29    18  16    4.0682   422.0    6.169      32.482
2015    3       29    18  22    4.0776   421.9    6.196      32.530
2015    3       29    18  28    4.0870   421.8    6.223      32.581
2015    3       29    18  33    4.0966   421.7    6.250      32.634
2015    3       29    18  39    4.1061   421.6    6.276      32.690
2015    3       29    18  45    4.1157   421.5    6.303      32.747
2015    3       29    18  51    4.1254   421.5    6.329      32.808
2015    3       29    18  56    4.1350   421.4    6.354      32.870
2015    3       29    19   2    4.1447   421.3    6.379      32.933
2015    3       29    19   8    4.1544   421.3    6.404      32.997
2015    3       29    19  14    4.1641   421.2    6.429      33.061
2015    3       29    19  19    4.1738   421.2    6.453      33.126
2015    3       29    19  25    4.1835   421.1    6.477      33.189
2015    3       29    19  31    4.1932   421.1    6.500      33.251
2015    3       29    19  37    4.2028   421.0    6.523      33.311
2015    3       29    19  43    4.2124   421.0    6.546      33.371
2015    3       29    19  48    4.2221   420.9    6.568      33.429
2015    3       29    19  54    4.2316   420.9    6.590      33.486
2015    3       29    20   0    4.2412   420.9    6.611      33.543
2015    3       29    20   6    4.2508   420.8    6.632      33.598
2015    3       29    20  11    4.2603   420.8    6.653      33.652
2015    3       29    20  17    4.2698   420.8    6.674      33.705
2015    3       29    20  23    4.2793   420.7    6.694      33.757
2015    3       29    20  29    4.2888   420.7    6.714      33.808
2015    3       29    20  34    4.2983   420.7    6.733      33.858
2015    3       29    20  40    4.3077   420.6    6.753      33.907
2015    3       29    20  46    4.3172   420.6    6.772      33.954
2015    3       29    20  52    4.3266   420.6    6.790      34.001
2015    3       29    20  57    4.3361   420.6    6.809      34.047
2015    3       29    21   3    4.3455   420.6    6.827      34.092
2015    3       29    21   9    4.3549   420.6    6.845      34.136
2015    3       29    21  15    4.3643   420.5    6.863      34.179
2015    3       29    21  20    4.3737   420.5    6.881      34.222
2015    3       29    21  26    4.3831   420.5    6.898      34.264
2015    3       29    21  32    4.3925   420.5    6.915      34.305
2015    3       29    21  38    4.4019   420.5    6.932      34.346
2015    3       29    21  43    4.4114   420.5    6.949      34.386
2015    3       29    21  49    4.4208   420.5    6.966      34.426
2015    3       29    21  55    4.4303   420.5    6.982      34.466
2015    3       29    22   1    4.4397   420.5    6.999      34.505
2015    3       29    22   7    4.4492   420.5    7.015      34.544
2015    3       29    22  12    4.4586   420.5    7.031      34.582
2015    3       29    22  18    4.4681   420.5    7.048      34.620
2015    3       29    22  24    4.4776   420.5    7.064      34.658
2015    3       29    22  30    4.4871   420.5    7.080      34.696
2015    3       29    22  35    4.4966   420.5    7.096      34.734
2015    3       29    22  41    4.5061   420.5    7.112      34.772
2015    3       29    22  47    4.5157   420.5    7.128      34.809
2015    3       29    22  53    4.5252   420.6    7.144      34.847
2015    3       29    22  58    4.5348   420.6    7.159      34.885
2015    3       29    23   4    4.5444   420.6    7.175      34.923
2015    3       29    23  10    4.5540   420.6    7.191      34.961
2015    3       29    23  16    4.5637   420.6    7.207      34.999
2015    3       29    23  21    4.5733   420.7    7.223      35.037
2015    3       29    23  27    4.5830   420.7    7.239      35.075
2015    3       29    23  33    4.5927   420.7    7.256      35.114
2015    3       29    23  39    4.6024   420.7    7.272      35.153
2015    3       29    23  44    4.6122   420.8    7.288      35.192
2015    3       29    23  50    4.6219   420.8    7.304      35.231
2015    3       29    23  56    4.6317   420.8    7.321      35.270
2015    3       30     0   2    4.6415   420.8    7.338      35.310
2015    3       30     0   7    4.6514   420.9    7.354      35.350
2015    3       30     0  13    4.6612   420.9    7.371      35.391
2015    3       30     0  19    4.6712   420.9    7.388      35.432
2015    3       30     0  25    4.6811   421.0    7.405      35.473
2015    3       30     0  30    4.6911   421.0    7.423      35.516
2015    3       30     0  36    4.7011   421.1    7.441      35.559
2015    3       30     0  42    4.7112   421.1    7.459      35.603
2015    3       30     0  48    4.7213   421.1    7.477      35.647
2015    3       30     0  53    4.7314   421.2    7.495      35.693
2015    3       30     0  59    4.7417   421.2    7.514      35.740
2015    3       30     1   5    4.7519   421.3    7.533      35.788
2015    3       30     1  11    4.7623   421.3    7.553      35.837
2015    3       30     1  17    4.7726   421.4    7.573      35.889
2015    3       30     1  22    4.7831   421.4    7.593      35.941
2015    3       30     1  28    4.7936   421.4    7.613      35.996
2015    3       30     1  34    4.8042   421.5    7.634      36.052
2015    3       30     1  40    4.8149   421.5    7.655      36.110
2015    3       30     1  45    4.8257   421.6    7.677      36.170
2015    3       30     1  51    4.8365   421.7    7.699      36.233
2015    3       30     1  57    4.8473   421.7    7.721      36.298
2015    3       30     2   3    4.8583   421.8    7.743      36.367
2015    3       30     2   8    4.8692   421.9    7.765      36.437
2015    3       30     2  14    4.8802   421.9    7.787      36.511
2015    3       30     2  20    4.8913   422.0    7.809      36.587
2015    3       30     2  26    4.9024   422.1    7.831      36.666
2015    3       30     2  31    4.9134   422.2    7.853      36.747
2015    3       30     2  37    4.9245   422.3    7.876      36.829
2015    3       30     2  43    4.9356   422.4    7.898      36.912
2015    3       30     2  49    4.9467   422.5    7.920      36.996
2015    3       30     2  54    4.9578   422.5    7.943      37.080
2015    3       30     3   0    4.9689   422.6    7.965      37.165
2015    3       30     3   6    4.9800   422.7    7.987      37.252
2015    3       30     3  12    4.9911   422.9    8.008      37.340
2015    3       30     3  17    5.0021   423.0    8.030      37.430
2015    3       30     3  23    5.0131   423.1    8.051      37.520
2015    3       30     3  29    5.0240   423.2    8.071      37.611
2015    3       30     3  35    5.0350   423.3    8.091      37.703
2015    3       30     3  40    5.0458   423.5    8.111      37.795
2015    3       30     3  46    5.0566   423.6    8.130      37.885
2015    3       30     3  52    5.0673   423.7    8.148      37.973
2015    3       30     3  58    5.0780   423.9    8.166      38.059
2015    3       30     4   4    5.0886   424.0    8.183      38.144
2015    3       30     4   9    5.0991   424.1    8.199      38.226
2015    3       30     4  15    5.1096   424.3    8.216      38.308
2015    3       30     4  21    5.1201   424.4    8.231      38.388
2015    3       30     4  27    5.1304   424.5    8.246      38.466
2015    3       30     4  32    5.1408   424.7    8.261      38.543
2015    3       30     4  38    5.1511   424.8    8.275      38.618
2015    3       30     4  44    5.1613   424.9    8.289      38.692
2015    3       30     4  50    5.1716   425.1    8.302      38.765
2015    3       30     4  55    5.1817   425.2    8.315      38.837
2015    3       30     5   1    5.1919   425.4    8.327      38.908
2015    3       30     5   7    5.2020   425.5    8.339      38.977
2015    3       30     5  13    5.2121   425.7    8.351      39.046
2015    3       30     5  18    5.2221   425.8    8.362      39.113
2015    3       30     5  24    5.2321   426.0    8.373      39.180
2015    3       30     5  30    5.2421   426.2    8.383      39.245
2015    3       30     5  36    5.2521   426.3    8.393      39.309
2015    3       30     5  41    5.2619   426.5    8.403      39.373
2015    3       30     5  47    5.2718   426.6    8.412      39.435
2015    3       30     5  53    5.2816   426.8    8.421      39.496
2015    3       30     5  59    5.2914   427.0    8.430      39.557
2015    3       30     6   4    5.3012   427.1    8.438      39.616
2015    3       30     6  10    5.3109   427.3    8.446      39.675
2015    3       30     6  16    5.3206   427.5    8.454      39.733
2015    3       30     6  22    5.3302   427.7    8.461      39.791
2015    3       30     6  27    5.3399   427.8    8.468      39.847
2015    3       30     6  33    5.3495   428.0    8.475      39.904
2015    3       30     6  39    5.3590   428.2    8.481      39.959
2015    3       30     6  45    5.3686   428.4    8.488      40.014
2015    3       30     6  51    5.3781   428.5    8.494      40.069
2015    3       30     6  56    5.3877   428.7    8.500      40.123
2015    3       30     7   2    5.3972   428.9    8.505      40.176
2015    3       30     7   8    5.4067   429.1    8.511      40.230
2015    3       30     7  14    5.4161   429.3    8.516      40.283
2015    3       30     7  19    5.4256   429.4    8.521      40.336
2015    3       30     7  25    5.4351   429.6    8.526      40.388
2015    3       30     7  31    5.4446   429.8    8.531      40.441
2015    3       30     7  37    5.4541   430.0    8.536      40.493
2015    3       30     7  42    5.4636   430.2    8.540      40.546
2015    3       30     7  48    5.4731   430.3    8.545      40.599
2015    3       30     7  54    5.4826   430.5    8.549      40.651
2015    3       30     8   0    5.4921   430.7    8.554      40.704
2015    3       30     8   5    5.5017   430.9    8.558      40.758
2015    3       30     8  11    5.5112   431.1    8.563      40.811
2015    3       30     8  17    5.5208   431.2    8.567      40.865
2015    3       30     8  23    5.5304   431.4    8.572      40.919
2015    3       30     8  28    5.5401   431.6    8.577      40.974
2015    3       30     8  34    5.5497   431.8    8.581      41.029
2015    3       30     8  40    5.5594   432.0    8.586      41.085
2015    3       30     8  46    5.5691   432.2    8.591      41.142
2015    3       30     8  51    5.5789   432.3    8.596      41.199
2015    3       30     8  57    5.5886   432.5    8.602      41.257
2015    3       30     9   3    5.5984   432.7    8.607      41.315
2015    3       30     9   9    5.6082   432.9    8.613      41.374
2015    3       30     9  14    5.6181   433.1    8.619      41.434
2015    3       30     9  20    5.6280   433.3    8.626      41.495
2015    3       30     9  26    5.6380   433.5    8.632      41.557
2015    3       30     9  32    5.6479   433.6    8.639      41.619
2015    3       30     9  38    5.6579   433.8    8.646      41.684
2015    3       30     9  43    5.6680   434.0    8.654      41.749
2015    3       30     9  49    5.6781   434.2    8.662      41.817
2015    3       30     9  55    5.6882   434.4    8.670      41.885
2015    3       30    10   1    5.6983   434.6    8.678      41.954
2015    3       30    10   6    5.7085   434.8    8.687      42.024
2015    3       30    10  12    5.7187   435.0    8.696      42.096
2015    3       30    10  18    5.7289   435.2    8.705      42.170
2015    3       30    10  24    5.7391   435.4    8.714      42.246
2015    3       30    10  29    5.7493   435.6    8.724      42.323
2015    3       30    10  35    5.7595   435.8    8.733      42.402
2015    3       30    10  41    5.7696   436.0    8.742      42.483
2015    3       30    10  47    5.7797   436.2    8.752      42.565
2015    3       30    10  52    5.7898   436.4    8.760      42.648
2015    3       30    10  58    5.7998   436.6    8.769      42.732
2015    3       30    11   4    5.8098   436.8    8.777      42.814
2015    3       30    11  10    5.8197   437.0    8.786      42.896
2015    3       30    11  15    5.8295   437.3    8.794      42.977
2015    3       30    11  21    5.8393   437.5    8.802      43.058
2015    3       30    11  27    5.8491   437.7    8.809      43.139
2015    3       30    11  33    5.8587   437.9    8.817      43.219
2015    3       30    11  38    5.8684   438.1    8.824      43.299
2015    3       30    11  44    5.8780   438.3    8.831      43.378
2015    3       30    11  50    5.8875   438.6    8.838      43.458
2015    3       30    11  56    5.8970   438.8    8.845      43.538
2015    3       30    12   1    5.9065   439.0    8.852      43.617
2015    3       30    12   7    5.9159   439.2    8.859      43.697
2015    3       30    12  13    5.9253   439.5    8.866      43.776
2015    3       30    12  19    5.9347   439.7    8.872      43.856
2015    3       30    12  25    5.9440   439.9    8.879      43.935
2015    3       30    12  30    5.9532   440.1    8.885      44.015
2015    3       30    12  36    5.9625   440.4    8.891      44.095
2015    3       30    12  42    5.9717   440.6    8.897      44.175
2015    3       30    12  48    5.9808   440.8    8.903      44.255
2015    3       30    12  53    5.9899   441.1    8.909      44.335
2015    3       30    12  59    5.9990   441.3    8.914      44.415
2015    3       30    13   5    6.0080   441.5    8.920      44.495
2015    3       30    13  11    6.0171   441.8    8.925      44.574
2015    3       30    13  16    6.0260   442.0    8.930      44.654
2015    3       30    13  22    6.0350   442.2    8.935      44.733
2015    3       30    13  28    6.0439   442.5    8.939      44.813
2015    3       30    13  34    6.0528   442.7    8.944      44.892
2015    3       30    13  39    6.0617   443.0    8.948      44.972
2015    3       30    13  45    6.0705   443.2    8.952      45.051
2015    3       30    13  51    6.0794   443.4    8.956      45.129
2015    3       30    13  57    6.0882   443.7    8.960      45.208
2015    3       30    14   2    6.0971   443.9    8.963      45.286
2015    3       30    14   8    6.1059   444.2    8.967      45.364
2015    3       30    14  14    6.1148   444.4    8.971      45.443
2015    3       30    14  20    6.1237   444.7    8.974      45.520
2015    3       30    14  25    6.1326   444.9    8.978      45.598
2015    3       30    14  31    6.1415   445.2    8.981      45.676
2015    3       30    14  37    6.1505   445.4    8.985      45.755
2015    3       30    14  43    6.1596   445.7    8.988      45.835
2015    3       30    14  48    6.1688   445.9    8.992      45.915
2015    3       30    14  54    6.1780   446.2    8.996      45.996
2015    3       30    15   0    6.1874   446.4    9.000      46.079
2015    3       30    15   6    6.1968   446.7    9.004      46.162
2015    3       30    15  11    6.2063   447.0    9.008      46.247
2015    3       30    15  17    6.2160   447.2    9.012      46.335
2015    3       30    15  23    6.2257   447.5    9.016      46.425
2015    3       30    15  29    6.2355   447.8    9.020      46.518
2015    3       30    15  35    6.2454   448.2    9.024      46.613
2015    3       30    15  40    6.2553   448.5    9.028      46.710
2015    3       30    15  46    6.2652   448.8    9.032      46.810
2015    3       30    15  52    6.2751   449.1    9.035      46.909
2015    3       30    15  58    6.2849   449.5    9.038      47.008
2015    3       30    16   3    6.2947   449.8    9.040      47.107
2015    3       30    16   9    6.3043   450.1    9.042      47.205
2015    3       30    16  15    6.3139   450.5    9.044      47.304
2015    3       30    16  21    6.3234   450.8    9.045      47.402
2015    3       30    16  26    6.3327   451.2    9.046      47.499
2015    3       30    16  32    6.3420   451.5    9.046      47.597
2015    3       30    16  38    6.3512   451.9    9.046      47.694
2015    3       30    16  44    6.3603   452.2    9.046      47.791
2015    3       30    16  49    6.3692   452.6    9.045      47.888
2015    3       30    16  55    6.3781   452.9    9.043      47.983
2015    3       30    17   1    6.3868   453.3    9.042      48.079
2015    3       30    17   7    6.3955   453.6    9.039      48.173
2015    3       30    17  12    6.4040   454.0    9.037      48.266
2015    3       30    17  18    6.4124   454.4    9.033      48.359
2015    3       30    17  24    6.4207   454.7    9.030      48.450
2015    3       30    17  30    6.4288   455.1    9.026      48.540
2015    3       30    17  35    6.4368   455.5    9.021      48.629
2015    3       30    17  41    6.4447   455.8    9.016      48.718
2015    3       30    17  47    6.4524   456.2    9.011      48.804
2015    3       30    17  53    6.4601   456.6    9.005      48.890
2015    3       30    17  58    6.4677   456.9    9.000      48.975
2015    3       30    18   4    6.4751   457.3    8.994      49.060
2015    3       30    18  10    6.4825   457.6    8.988      49.143
2015    3       30    18  16    6.4898   458.0    8.981      49.226
2015    3       30    18  22    6.4970   458.4    8.975      49.308
2015    3       30    18  27    6.5042   458.7    8.968      49.390
2015    3       30    18  33    6.5113   459.1    8.962      49.471
2015    3       30    18  39    6.5183   459.4    8.955      49.553
2015    3       30    18  45    6.5253   459.7    8.949      49.634
2015    3       30    18  50    6.5324   460.1    8.943      49.716
2015    3       30    18  56    6.5393   460.4    8.936      49.798
2015    3       30    19   2    6.5463   460.8    8.930      49.881
2015    3       30    19   8    6.5532   461.1    8.924      49.964
2015    3       30    19  13    6.5602   461.4    8.918      50.048
2015    3       30    19  19    6.5671   461.8    8.912      50.133
2015    3       30    19  25    6.5740   462.1    8.907      50.218
2015    3       30    19  31    6.5809   462.4    8.901      50.305
2015    3       30    19  36    6.5877   462.8    8.895      50.392
2015    3       30    19  42    6.5946   463.1    8.890      50.479
2015    3       30    19  48    6.6015   463.5    8.885      50.568
2015    3       30    19  54    6.6084   463.8    8.879      50.657
2015    3       30    19  59    6.6153   464.1    8.874      50.747
2015    3       30    20   5    6.6222   464.5    8.869      50.838
2015    3       30    20  11    6.6291   464.8    8.865      50.929
2015    3       30    20  17    6.6361   465.1    8.860      51.020
2015    3       30    20  22    6.6431   465.4    8.856      51.113
2015    3       30    20  28    6.6501   465.8    8.851      51.206
2015    3       30    20  34    6.6571   466.1    8.847      51.300
2015    3       30    20  40    6.6643   466.4    8.843      51.395
2015    3       30    20  45    6.6714   466.8    8.839      51.490
2015    3       30    20  51    6.6787   467.1    8.835      51.586
2015    3       30    20  57    6.6860   467.4    8.832      51.682
2015    3       30    21   3    6.6933   467.7    8.828      51.779
2015    3       30    21   9    6.7008   468.1    8.825      51.877
2015    3       30    21  14    6.7082   468.4    8.822      51.975
2015    3       30    21  20    6.7158   468.8    8.818      52.075
2015    3       30    21  26    6.7233   469.1    8.815      52.174
2015    3       30    21  32    6.7310   469.5    8.811      52.273
2015    3       30    21  37    6.7387   469.9    8.808      52.374
2015    3       30    21  43    6.7464   470.2    8.804      52.475
2015    3       30    21  49    6.7542   470.6    8.799      52.575
2015    3       30    21  55    6.7619   471.0    8.795      52.673
2015    3       30    22   0    6.7697   471.4    8.790      52.771
2015    3       30    22   6    6.7774   471.8    8.786      52.868
2015    3       30    22  12    6.7852   472.2    8.781      52.964
2015    3       30    22  18    6.7928   472.6    8.775      53.059
2015    3       30    22  23    6.8003   473.0    8.770      53.154
2015    3       30    22  29    6.8078   473.4    8.764      53.248
2015    3       30    22  35    6.8152   473.8    8.758      53.341
2015    3       30    22  41    6.8225   474.2    8.752      53.434
2015    3       30    22  46    6.8298   474.6    8.745      53.526
2015    3       30    22  52    6.8369   475.0    8.739      53.617
2015    3       30    22  58    6.8440   475.5    8.732      53.707
2015    3       30    23   4    6.8510   475.9    8.725      53.797
2015    3       30    23   9    6.8579   476.3    8.717      53.888
2015    3       30    23  15    6.8648   476.8    8.709      53.977
2015    3       30    23  21    6.8715   477.2    8.701      54.066
2015    3       30    23  27    6.8780   477.7    8.692      54.154
2015    3       30    23  32    6.8845   478.1    8.683      54.243
2015    3       30    23  38    6.8908   478.6    8.673      54.333
2015    3       30    23  44    6.8970   479.1    8.662      54.422
2015    3       30    23  50    6.9029   479.6    8.651      54.511
2015    3       30    23  55    6.9087   480.1    8.639      54.597
2015    3       31     0   1    6.9142   480.6    8.627      54.685
2015    3       31     0   7    6.9196   481.1    8.613      54.773
2015    3       31     0  13    6.9248   481.6    8.599      54.864
2015    3       31     0  18    6.9298   482.2    8.584      54.955
2015    3       31     0  24    6.9345   482.7    8.568      55.045
2015    3       31     0  30    6.9389   483.2    8.552      55.131
2015    3       31     0  36    6.9429   483.7    8.535      55.216
2015    3       31     0  42    6.9468   484.2    8.517      55.298
2015    3       31     0  47    6.9505   484.7    8.499      55.378
2015    3       31     0  53    6.9541   485.2    8.481      55.454
2015    3       31     0  59    6.9575   485.6    8.464      55.526
2015    3       31     1   5    6.9610   486.0    8.447      55.599
2015    3       31     1  10    6.9646   486.5    8.431      55.672
2015    3       31     1  16    6.9683   486.9    8.415      55.748
2015    3       31     1  22    6.9720   487.3    8.399      55.826
2015    3       31     1  28    6.9759   487.8    8.384      55.904
2015    3       31     1  33    6.9800   488.2    8.369      55.984
2015    3       31     1  39    6.9841   488.6    8.355      56.066
2015    3       31     1  45    6.9883   489.1    8.341      56.152
2015    3       31     1  51    6.9927   489.5    8.328      56.242
2015    3       31     1  56    6.9972   489.9    8.315      56.336
2015    3       31     2   2    7.0019   490.4    8.302      56.433
2015    3       31     2   8    7.0065   490.8    8.289      56.535
2015    3       31     2  14    7.0113   491.3    8.277      56.644
2015    3       31     2  19    7.0163   491.7    8.265      56.761
2015    3       31     2  25    7.0213   492.2    8.252      56.883
2015    3       31     2  31    7.0265   492.7    8.240      57.009
2015    3       31     2  37    7.0316   493.3    8.227      57.136
2015    3       31     2  42    7.0369   493.8    8.215      57.265
2015    3       31     2  48    7.0421   494.3    8.202      57.396
2015    3       31     2  54    7.0473   494.9    8.189      57.522
2015    3       31     3   0    7.0524   495.4    8.177      57.643
2015    3       31     3   6    7.0573   495.9    8.163      57.758
2015    3       31     3  11    7.0620   496.4    8.150      57.870
2015    3       31     3  17    7.0666   496.9    8.136      57.979
2015    3       31     3  23    7.0711   497.4    8.122      58.086
2015    3       31     3  29    7.0755   497.9    8.107      58.191
2015    3       31     3  34    7.0797   498.4    8.092      58.296
2015    3       31     3  40    7.0839   498.9    8.077      58.399
2015    3       31     3  46    7.0880   499.5    8.061      58.502
2015    3       31     3  52    7.0920   500.0    8.045      58.605
2015    3       31     3  57    7.0959   500.6    8.028      58.708
2015    3       31     4   3    7.0996   501.2    8.010      58.811
2015    3       31     4   9    7.1032   501.8    7.993      58.914
2015    3       31     4  15    7.1067   502.4    7.974      59.015
2015    3       31     4  20    7.1100   503.0    7.955      59.117
2015    3       31     4  26    7.1131   503.7    7.935      59.218
2015    3       31     4  32    7.1159   504.3    7.915      59.319
2015    3       31     4  38    7.1184   504.9    7.894      59.419
2015    3       31     4  43    7.1207   505.6    7.872      59.517
2015    3       31     4  49    7.1227   506.3    7.849      59.617
2015    3       31     4  55    7.1243   506.9    7.825      59.716
2015    3       31     5   1    7.1255   507.6    7.801      59.809
2015    3       31     5   6    7.1262   508.2    7.775      59.894
2015    3       31     5  12    7.1265   508.8    7.750      59.975
2015    3       31     5  18    7.1264   509.4    7.723      60.051
2015    3       31     5  24    7.1260   510.0    7.697      60.123
2015    3       31     5  29    7.1255   510.6    7.670      60.192
2015    3       31     5  35    7.1246   511.2    7.643      60.254
2015    3       31     5  41    7.1237   511.7    7.618      60.312
2015    3       31     5  47    7.1226   512.2    7.592      60.372
2015    3       31     5  52    7.1217   512.8    7.567      60.433
2015    3       31     5  58    7.1208   513.4    7.542      60.495
2015    3       31     6   4    7.1199   513.9    7.517      60.557
2015    3       31     6  10    7.1189   514.5    7.492      60.618
2015    3       31     6  15    7.1180   515.1    7.468      60.678
2015    3       31     6  21    7.1171   515.6    7.444      60.738
2015    3       31     6  27    7.1162   516.2    7.420      60.797
2015    3       31     6  33    7.1152   516.7    7.396      60.855
2015    3       31     6  39    7.1143   517.3    7.373      60.912
2015    3       31     6  44    7.1133   517.9    7.350      60.968
2015    3       31     6  50    7.1125   518.4    7.328      61.022
2015    3       31     6  56    7.1116   518.9    7.306      61.074
2015    3       31     7   2    7.1109   519.5    7.285      61.125
2015    3       31     7   7    7.1102   520.0    7.264      61.175
2015    3       31     7  13    7.1097   520.5    7.244      61.224
2015    3       31     7  19    7.1092   521.0    7.224      61.273
2015    3       31     7  25    7.1089   521.5    7.205      61.322
2015    3       31     7  30    7.1086   522.0    7.187      61.372
2015    3       31     7  36    7.1085   522.5    7.169      61.422
2015    3       31     7  42    7.1085   523.0    7.151      61.473
2015    3       31     7  48    7.1085   523.5    7.134      61.526
2015    3       31     7  53    7.1086   524.0    7.117      61.580
2015    3       31     7  59    7.1087   524.5    7.101      61.637
2015    3       31     8   5    7.1089   525.0    7.084      61.698
2015    3       31     8  11    7.1090   525.5    7.068      61.762
2015    3       31     8  16    7.1091   526.1    7.051      61.830
2015    3       31     8  22    7.1091   526.7    7.034      61.905
2015    3       31     8  28    7.1089   527.3    7.017      61.984
2015    3       31     8  34    7.1087   527.9    7.000      62.069
2015    3       31     8  39    7.1082   528.5    6.982      62.157
2015    3       31     8  45    7.1075   529.1    6.963      62.248
2015    3       31     8  51    7.1066   529.8    6.945      62.341
2015    3       31     8  57    7.1056   530.5    6.925      62.438
2015    3       31     9   2    7.1042   531.1    6.905      62.531
2015    3       31     9   8    7.1025   531.7    6.884      62.618
2015    3       31     9  14    7.1004   532.4    6.863      62.700
2015    3       31     9  20    7.0981   533.0    6.841      62.777
2015    3       31     9  26    7.0955   533.6    6.819      62.851
2015    3       31     9  31    7.0928   534.1    6.798      62.919
2015    3       31     9  37    7.0898   534.7    6.777      62.981
2015    3       31     9  43    7.0869   535.2    6.756      63.045
2015    3       31     9  49    7.0841   535.8    6.737      63.109
2015    3       31     9  54    7.0815   536.3    6.717      63.174
2015    3       31    10   0    7.0790   536.8    6.698      63.238
2015    3       31    10   6    7.0766   537.4    6.680      63.302
2015    3       31    10  12    7.0743   537.9    6.662      63.366
2015    3       31    10  17    7.0721   538.5    6.645      63.430
2015    3       31    10  23    7.0699   539.0    6.628      63.492
2015    3       31    10  29    7.0678   539.5    6.611      63.554
2015    3       31    10  35    7.0656   540.1    6.594      63.618
2015    3       31    10  40    7.0634   540.7    6.577      63.683
2015    3       31    10  46    7.0611   541.2    6.559      63.748
2015    3       31    10  52    7.0588   541.8    6.542      63.817
2015    3       31    10  58    7.0562   542.3    6.525      63.887
2015    3       31    11   3    7.0534   542.9    6.507      63.963
2015    3       31    11   9    7.0503   543.5    6.488      64.044
2015    3       31    11  15    7.0471   544.1    6.469      64.125
2015    3       31    11  21    7.0437   544.7    6.450      64.203
2015    3       31    11  26    7.0402   545.2    6.431      64.278
2015    3       31    11  32    7.0366   545.7    6.412      64.348
2015    3       31    11  38    7.0332   546.2    6.394      64.412
2015    3       31    11  44    7.0300   546.7    6.376      64.470
2015    3       31    11  49    7.0269   547.2    6.359      64.525
2015    3       31    11  55    7.0240   547.7    6.342      64.576
2015    3       31    12   1    7.0212   548.2    6.325      64.626
2015    3       31    12   7    7.0186   548.6    6.309      64.675
2015    3       31    12  12    7.0160   549.1    6.293      64.723
2015    3       31    12  18    7.0135   549.6    6.277      64.771
2015    3       31    12  24    7.0111   550.1    6.261      64.819
2015    3       31    12  30    7.0086   550.6    6.245      64.872
2015    3       31    12  36    7.0061   551.1    6.229      64.928
2015    3       31    12  41    7.0035   551.7    6.212      64.986
2015    3       31    12  47    7.0007   552.3    6.195      65.048
2015    3       31    12  53    6.9977   552.9    6.177      65.115
2015    3       31    12  59    6.9945   553.6    6.158      65.186
2015    3       31    13   4    6.9910   554.3    6.139      65.261
2015    3       31    13  10    6.9872   555.0    6.119      65.341
2015    3       31    13  16    6.9831   555.7    6.099      65.422
2015    3       31    13  22    6.9785   556.5    6.077      65.492
2015    3       31    13  27    6.9735   557.1    6.055      65.554
2015    3       31    13  33    6.9682   557.8    6.032      65.604
2015    3       31    13  39    6.9627   558.4    6.009      65.645
2015    3       31    13  45    6.9569   559.0    5.987      65.677
2015    3       31    13  50    6.9511   559.5    5.965      65.697
2015    3       31    13  56    6.9452   560.0    5.945      65.716
2015    3       31    14   2    6.9396   560.5    5.925      65.739
2015    3       31    14   8    6.9342   561.1    5.905      65.768
2015    3       31    14  13    6.9289   561.6    5.887      65.801
2015    3       31    14  19    6.9238   562.1    5.869      65.837
2015    3       31    14  25    6.9189   562.6    5.852      65.876
2015    3       31    14  31    6.9142   563.1    5.836      65.917
2015    3       31    14  36    6.9095   563.6    5.820      65.960
2015    3       31    14  42    6.9051   564.1    5.805      66.005
2015    3       31    14  48    6.9007   564.6    5.790      66.052
2015    3       31    14  54    6.8964   565.1    5.775      66.099
2015    3       31    14  59    6.8920   565.6    5.761      66.147
2015    3       31    15   5    6.8877   566.1    5.747      66.198
2015    3       31    15  11    6.8834   566.5    5.733      66.250
2015    3       31    15  17    6.8790   567.0    5.719      66.304
2015    3       31    15  22    6.8745   567.5    5.704      66.359
2015    3       31    15  28    6.8700   568.0    5.690      66.419
2015    3       31    15  34    6.8652   568.5    5.676      66.482
2015    3       31    15  40    6.8604   569.1    5.661      66.547
2015    3       31    15  46    6.8554   569.6    5.646      66.612
2015    3       31    15  51    6.8503   570.1    5.631      66.676
2015    3       31    15  57    6.8451   570.6    5.616      66.736
2015    3       31    16   3    6.8399   571.1    5.602      66.793
2015    3       31    16   9    6.8348   571.5    5.587      66.844
2015    3       31    16  14    6.8297   572.0    5.573      66.891
2015    3       31    16  20    6.8248   572.4    5.560      66.936
2015    3       31    16  26    6.8199   572.8    5.546      66.979
2015    3       31    16  32    6.8151   573.2    5.533      67.023
2015    3       31    16  37    6.8105   573.6    5.520      67.068
2015    3       31    16  43    6.8060   574.1    5.507      67.115
2015    3       31    16  49    6.8014   574.5    5.495      67.165
2015    3       31    16  55    6.7969   575.0    5.482      67.218
2015    3       31    17   0    6.7924   575.5    5.469      67.275
2015    3       31    17   6    6.7878   576.1    5.456      67.336
2015    3       31    17  12    6.7832   576.6    5.443      67.401
2015    3       31    17  18    6.7784   577.2    5.430      67.466
2015    3       31    17  23    6.7736   577.8    5.416      67.528
2015    3       31    17  29    6.7685   578.4    5.402      67.587
2015    3       31    17  35    6.7632   579.0    5.387      67.639
2015    3       31    17  41    6.7576   579.6    5.372      67.687
2015    3       31    17  46    6.7519   580.2    5.357      67.734
2015    3       31    17  52    6.7457   580.8    5.340      67.778
2015    3       31    17  58    6.7392   581.4    5.323      67.815
2015    3       31    18   4    6.7322   582.0    5.305      67.845
2015    3       31    18   9    6.7251   582.6    5.287      67.869
2015    3       31    18  15    6.7177   583.1    5.269      67.885
2015    3       31    18  21    6.7103   583.6    5.251      67.892
2015    3       31    18  27    6.7030   584.0    5.234      67.892
2015    3       31    18  33    6.6959   584.5    5.218      67.888
2015    3       31    18  38    6.6891   584.9    5.202      67.884
2015    3       31    18  44    6.6827   585.2    5.188      67.881
2015    3       31    18  50    6.6765   585.6    5.174      67.880
2015    3       31    18  56    6.6706   585.9    5.161      67.883
2015    3       31    19   1    6.6649   586.3    5.148      67.889
2015    3       31    19   7    6.6595   586.6    5.136      67.900
2015    3       31    19  13    6.6542   586.9    5.125      67.916
2015    3       31    19  19    6.6491   587.3    5.115      67.941
2015    3       31    19  24    6.6441   587.7    5.104      67.972
2015    3       31    19  30    6.6391   588.1    5.094      68.011
2015    3       31    19  36    6.6341   588.5    5.084      68.057
2015    3       31    19  42    6.6292   588.9    5.074      68.113
2015    3       31    19  47    6.6241   589.4    5.065      68.176
2015    3       31    19  53    6.6190   589.9    5.055      68.240
2015    3       31    19  59    6.6137   590.4    5.045      68.305
2015    3       31    20   5    6.6085   590.9    5.034      68.368
2015    3       31    20  10    6.6030   591.4    5.024      68.429
2015    3       31    20  16    6.5975   591.8    5.014      68.482
2015    3       31    20  22    6.5918   592.3    5.003      68.529
2015    3       31    20  28    6.5859   592.7    4.992      68.572
2015    3       31    20  33    6.5800   593.1    4.981      68.611
2015    3       31    20  39    6.5738   593.6    4.969      68.647
2015    3       31    20  45    6.5676   594.0    4.958      68.681
2015    3       31    20  51    6.5614   594.4    4.946      68.714
2015    3       31    20  56    6.5551   594.9    4.934      68.746
2015    3       31    21   2    6.5488   595.3    4.922      68.779
2015    3       31    21   8    6.5426   595.8    4.910      68.811
2015    3       31    21  14    6.5363   596.3    4.898      68.844
2015    3       31    21  19    6.5301   596.7    4.887      68.877
2015    3       31    21  25    6.5240   597.2    4.875      68.910
2015    3       31    21  31    6.5179   597.7    4.863      68.942
2015    3       31    21  37    6.5118   598.2    4.851      68.974
2015    3       31    21  43    6.5058   598.7    4.839      69.004
2015    3       31    21  48    6.4998   599.1    4.827      69.034
2015    3       31    21  54    6.4937   599.6    4.816      69.064
2015    3       31    22   0    6.4877   600.1    4.804      69.092
2015    3       31    22   6    6.4817   600.5    4.792      69.117
2015    3       31    22  11    6.4757   600.9    4.781      69.141
2015    3       31    22  17    6.4697   601.4    4.769      69.163
2015    3       31    22  23    6.4637   601.8    4.758      69.184
2015    3       31    22  29    6.4576   602.2    4.747      69.207
2015    3       31    22  34    6.4516   602.7    4.735      69.230
2015    3       31    22  40    6.4456   603.1    4.724      69.254
2015    3       31    22  46    6.4396   603.5    4.713      69.279
2015    3       31    22  52    6.4336   604.0    4.702      69.303
2015    3       31    22  57    6.4276   604.4    4.691      69.327
2015    3       31    23   3    6.4217   604.9    4.680      69.351
2015    3       31    23   9    6.4158   605.3    4.669      69.374
2015    3       31    23  15    6.4098   605.7    4.658      69.397
2015    3       31    23  20    6.4039   606.1    4.647      69.419
2015    3       31    23  26    6.3979   606.6    4.636      69.443
2015    3       31    23  32    6.3919   607.0    4.626      69.467
2015    3       31    23  38    6.3859   607.4    4.615      69.493
2015    3       31    23  43    6.3800   607.9    4.604      69.520
2015    3       31    23  49    6.3740   608.3    4.594      69.548
2015    3       31    23  55    6.3680   608.7    4.584      69.576
2015    4        1     0   1    6.3621   609.2    4.573      69.606
2015    4        1     0   6    6.3560   609.6    4.563      69.636
2015    4        1     0  12    6.3500   610.1    4.552      69.665
2015    4        1     0  18    6.3439   610.6    4.542      69.694
2015    4        1     0  24    6.3378   611.0    4.531      69.719
2015    4        1     0  30    6.3317   611.5    4.520      69.742
2015    4        1     0  35    6.3255   611.9    4.509      69.761
2015    4        1     0  41    6.3192   612.3    4.498      69.779
2015    4        1     0  47    6.3129   612.8    4.487      69.793
2015    4        1     0  53    6.3067   613.2    4.476      69.803
2015    4        1     0  58    6.3005   613.5    4.465      69.809
2015    4        1     1   4    6.2944   613.9    4.454      69.812
2015    4        1     1  10    6.2885   614.3    4.444      69.812
2015    4        1     1  16    6.2827   614.6    4.434      69.811
2015    4        1     1  21    6.2771   614.9    4.424      69.813
2015    4        1     1  27    6.2716   615.2    4.415      69.818
2015    4        1     1  33    6.2662   615.5    4.406      69.828
2015    4        1     1  39    6.2609   615.8    4.397      69.843
2015    4        1     1  44    6.2556   616.2    4.388      69.864
2015    4        1     1  50    6.2504   616.6    4.380      69.893
2015    4        1     1  56    6.2453   617.0    4.372      69.927
2015    4        1     2   2    6.2401   617.4    4.363      69.965
2015    4        1     2   7    6.2349   617.8    4.355      70.004
2015    4        1     2  13    6.2297   618.2    4.347      70.044
2015    4        1     2  19    6.2245   618.7    4.339      70.081
2015    4        1     2  25    6.2192   619.1    4.330      70.112
2015    4        1     2  30    6.2138   619.5    4.322      70.138
2015    4        1     2  36    6.2084   619.9    4.313      70.160
2015    4        1     2  42    6.2028   620.2    4.305      70.179
2015    4        1     2  48    6.1972   620.6    4.296      70.197
2015    4        1     2  53    6.1916   621.0    4.287      70.213
2015    4        1     2  59    6.1858   621.4    4.278      70.229
2015    4        1     3   5    6.1801   621.8    4.269      70.246
2015    4        1     3  11    6.1743   622.1    4.260      70.263
2015    4        1     3  16    6.1685   622.5    4.251      70.279
2015    4        1     3  22    6.1628   622.9    4.243      70.295
2015    4        1     3  28    6.1571   623.3    4.234      70.311
2015    4        1     3  34    6.1514   623.7    4.226      70.325
2015    4        1     3  39    6.1459   624.0    4.217      70.339
2015    4        1     3  45    6.1403   624.4    4.209      70.352
2015    4        1     3  51    6.1349   624.7    4.201      70.365
2015    4        1     3  57    6.1294   625.0    4.192      70.378
2015    4        1     4   3    6.1240   625.4    4.184      70.392
2015    4        1     4   8    6.1186   625.7    4.177      70.407
2015    4        1     4  14    6.1132   626.1    4.169      70.424
2015    4        1     4  20    6.1078   626.5    4.161      70.444
2015    4        1     4  26    6.1024   626.9    4.153      70.466
2015    4        1     4  31    6.0969   627.2    4.145      70.488
2015    4        1     4  37    6.0915   627.6    4.137      70.511
2015    4        1     4  43    6.0861   628.0    4.129      70.533
2015    4        1     4  49    6.0806   628.4    4.121      70.552
2015    4        1     4  54    6.0752   628.8    4.113      70.568
2015    4        1     5   0    6.0697   629.1    4.105      70.582
2015    4        1     5   6    6.0641   629.5    4.097      70.595
2015    4        1     5  12    6.0586   629.8    4.089      70.607
2015    4        1     5  17    6.0530   630.2    4.081      70.618
2015    4        1     5  23    6.0474   630.6    4.073      70.628
2015    4        1     5  29    6.0418   630.9    4.064      70.638
2015    4        1     5  35    6.0363   631.3    4.056      70.647
2015    4        1     5  40    6.0308   631.6    4.048      70.655
2015    4        1     5  46    6.0254   631.9    4.040      70.662
2015    4        1     5  52    6.0200   632.3    4.032      70.670
2015    4        1     5  58    6.0146   632.6    4.024      70.678
2015    4        1     6   3    6.0092   632.9    4.016      70.686
2015    4        1     6   9    6.0039   633.3    4.009      70.694
2015    4        1     6  15    5.9986   633.6    4.001      70.703
2015    4        1     6  21    5.9933   633.9    3.993      70.712
2015    4        1     6  26    5.9880   634.2    3.985      70.722
2015    4        1     6  32    5.9827   634.6    3.978      70.733
2015    4        1     6  38    5.9775   634.9    3.970      70.744
2015    4        1     6  44    5.9722   635.2    3.963      70.756
2015    4        1     6  50    5.9670   635.6    3.955      70.768
2015    4        1     6  55    5.9618   635.9    3.948      70.780
2015    4        1     7   1    5.9566   636.2    3.940      70.791
2015    4        1     7   7    5.9514   636.6    3.933      70.801
2015    4        1     7  13    5.9462   636.9    3.926      70.811
2015    4        1     7  18    5.9410   637.2    3.918      70.820
2015    4        1     7  24    5.9358   637.5    3.911      70.829
2015    4        1     7  30    5.9307   637.9    3.904      70.839
2015    4        1     7  36    5.9256   638.2    3.896      70.848
2015    4        1     7  41    5.9205   638.5    3.889      70.856
2015    4        1     7  47    5.9155   638.8    3.882      70.865
2015    4        1     7  53    5.9105   639.1    3.875      70.874
2015    4        1     7  59    5.9055   639.4    3.868      70.882
2015    4        1     8   4    5.9006   639.7    3.862      70.891
2015    4        1     8  10    5.8957   640.0    3.855      70.901
2015    4        1     8  16    5.8908   640.3    3.848      70.910
2015    4        1     8  22    5.8860   640.6    3.842      70.920
2015    4        1     8  27    5.8812   640.9    3.835      70.930
2015    4        1     8  33    5.8764   641.2    3.829      70.941
2015    4        1     8  39    5.8716   641.5    3.823      70.952
2015    4        1     8  45    5.8669   641.8    3.817      70.963
2015    4        1     8  50    5.8621   642.1    3.811      70.974
2015    4        1     8  56    5.8574   642.4    3.804      70.985
2015    4        1     9   2    5.8526   642.7    3.798      70.997
2015    4        1     9   8    5.8479   643.0    3.793      71.008
2015    4        1     9  13    5.8432   643.2    3.787      71.019
2015    4        1     9  19    5.8385   643.5    3.781      71.030
2015    4        1     9  25    5.8338   643.8    3.775      71.041
2015    4        1     9  31    5.8291   644.1    3.769      71.052
2015    4        1     9  36    5.8244   644.4    3.763      71.063
2015    4        1     9  42    5.8198   644.7    3.758      71.073
2015    4        1     9  48    5.8151   645.0    3.752      71.083
2015    4        1     9  54    5.8105   645.2    3.746      71.093
2015    4        1    10   0    5.8059   645.5    3.741      71.103
2015    4        1    10   5    5.8013   645.8    3.735      71.113
2015    4        1    10  11    5.7967   646.1    3.729      71.122
2015    4        1    10  17    5.7921   646.4    3.724      71.131
2015    4        1    10  23    5.7875   646.6    3.718      71.139
2015    4        1    10  28    5.7829   646.9    3.712      71.148
2015    4        1    10  34    5.7784   647.2    3.707      71.156
2015    4        1    10  40    5.7738   647.5    3.701      71.164
2015    4        1    10  46    5.7693   647.7    3.695      71.172
2015    4        1    10  51    5.7647   648.0    3.690      71.179
2015    4        1    10  57    5.7602   648.3    3.684      71.187
2015    4        1    11   3    5.7557   648.5    3.679      71.194
2015    4        1    11   9    5.7512   648.8    3.673      71.201
2015    4        1    11  14    5.7466   649.1    3.668      71.207
2015    4        1    11  20    5.7421   649.3    3.662      71.214
2015    4        1    11  26    5.7376   649.6    3.657      71.220
2015    4        1    11  32    5.7331   649.9    3.651      71.226
2015    4        1    11  37    5.7286   650.1    3.646      71.232
2015    4        1    11  43    5.7241   650.4    3.640      71.238
2015    4        1    11  49    5.7197   650.6    3.635      71.244
2015    4        1    11  55    5.7152   650.9    3.629      71.250
2015    4        1    12   0    5.7107   651.2    3.624      71.255
2015    4        1    12   6    5.7063   651.4    3.619      71.260
2015    4        1    12  12    5.7019   651.7    3.613      71.265
2015    4        1    12  18    5.6974   651.9    3.608      71.270
2015    4        1    12  23    5.6930   652.2    3.602      71.275
2015    4        1    12  29    5.6886   652.4    3.597      71.279
2015    4        1    12  35    5.6842   652.7    3.592      71.283
2015    4        1    12  41    5.6799   652.9    3.586      71.287
2015    4        1    12  46    5.6755   653.2    3.581      71.291
2015    4        1    12  52    5.6711   653.4    3.576      71.294
2015    4        1    12  58    5.6668   653.7    3.570      71.297
2015    4        1    13   4    5.6625   653.9    3.565      71.300
2015    4        1    13  10    5.6582   654.1    3.560      71.303
2015    4        1    13  15    5.6539   654.4    3.554      71.306
2015    4        1    13  21    5.6496   654.6    3.549      71.308
2015    4        1    13  27    5.6454   654.9    3.544      71.311
2015    4        1    13  33    5.6411   655.1    3.538      71.313
2015    4        1    13  38    5.6369   655.3    3.533      71.316
2015    4        1    13  44    5.6327   655.6    3.528      71.318
2015    4        1    13  50    5.6285   655.8    3.523      71.321
2015    4        1    13  56    5.6244   656.0    3.518      71.323
2015    4        1    14   1    5.6202   656.3    3.513      71.326
2015    4        1    14   7    5.6161   656.5    3.508      71.329
2015    4        1    14  13    5.6120   656.7    3.503      71.332
2015    4        1    14  19    5.6079   656.9    3.498      71.335
2015    4        1    14  24    5.6039   657.2    3.493      71.339
2015    4        1    14  30    5.5998   657.4    3.488      71.342
2015    4        1    14  36    5.5958   657.6    3.483      71.346
2015    4        1    14  42    5.5918   657.8    3.478      71.351
2015    4        1    14  47    5.5878   658.1    3.474      71.355
2015    4        1    14  53    5.5839   658.3    3.469      71.360
2015    4        1    14  59    5.5799   658.5    3.464      71.365
2015    4        1    15   5    5.5760   658.7    3.460      71.371
2015    4        1    15  10    5.5721   658.9    3.455      71.376
2015    4        1    15  16    5.5682   659.2    3.451      71.382
2015    4        1    15  22    5.5643   659.4    3.447      71.389
2015    4        1    15  28    5.5604   659.6    3.442      71.395
2015    4        1    15  33    5.5566   659.8    3.438      71.402
2015    4        1    15  39    5.5528   660.0    3.434      71.408
2015    4        1    15  45    5.5489   660.2    3.430      71.415
2015    4        1    15  51    5.5451   660.5    3.426      71.422
2015    4        1    15  56    5.5414   660.7    3.422      71.428
2015    4        1    16   2    5.5376   660.9    3.418      71.435
2015    4        1    16   8    5.5339   661.1    3.414      71.442
2015    4        1    16  14    5.5301   661.3    3.410      71.449
2015    4        1    16  20    5.5264   661.5    3.406      71.455
2015    4        1    16  25    5.5227   661.7    3.402      71.461
2015    4        1    16  31    5.5190   661.9    3.398      71.468
2015    4        1    16  37    5.5153   662.2    3.394      71.474
2015    4        1    16  43    5.5116   662.4    3.390      71.479
2015    4        1    16  48    5.5079   662.6    3.386      71.485
2015    4        1    16  54    5.5042   662.8    3.382      71.490
2015    4        1    17   0    5.5006   663.0    3.379      71.496
2015    4        1    17   6    5.4970   663.2    3.375      71.500
2015    4        1    17  11    5.4933   663.4    3.371      71.505
2015    4        1    17  17    5.4897   663.6    3.367      71.509
2015    4        1    17  23    5.4860   663.8    3.363      71.513
2015    4        1    17  29    5.4824   664.0    3.359      71.517
2015    4        1    17  34    5.4788   664.2    3.356      71.521
2015    4        1    17  40    5.4752   664.4    3.352      71.524
2015    4        1    17  46    5.4716   664.6    3.348      71.527
2015    4        1    17  52    5.4680   664.8    3.344      71.530
2015    4        1    17  57    5.4644   665.0    3.340      71.533
2015    4        1    18   3    5.4608   665.2    3.337      71.535
2015    4        1    18   9    5.4572   665.4    3.333      71.538
2015    4        1    18  15    5.4537   665.6    3.329      71.540
2015    4        1    18  20    5.4501   665.8    3.325      71.541
2015    4        1    18  26    5.4466   665.9    3.321      71.543
2015    4        1    18  32    5.4430   666.1    3.318      71.544
2015    4        1    18  38    5.4395   666.3    3.314      71.545
2015    4        1    18  43    5.4359   666.5    3.310      71.546
2015    4        1    18  49    5.4324   666.7    3.306      71.546
2015    4        1    18  55    5.4289   666.9    3.302      71.547
2015    4        1    19   1    5.4254   667.1    3.299      71.547
2015    4        1    19   6    5.4219   667.2    3.295      71.547
2015    4        1    19  12    5.4184   667.4    3.291      71.546
2015    4        1    19  18    5.4149   667.6    3.287      71.546
2015    4        1    19  24    5.4115   667.8    3.283      71.545
2015    4        1    19  30    5.4080   668.0    3.279      71.544
2015    4        1    19  35    5.4046   668.1    3.276      71.543
2015    4        1    19  41    5.4011   668.3    3.272      71.541
2015    4        1    19  47    5.3977   668.5    3.268      71.540
2015    4        1    19  53    5.3943   668.7    3.264      71.539
2015    4        1    19  58    5.3909   668.8    3.260      71.537
2015    4        1    20   4    5.3875   669.0    3.257      71.536
2015    4        1    20  10    5.3841   669.2    3.253      71.534
2015    4        1    20  16    5.3808   669.4    3.249      71.533
2015    4        1    20  21    5.3774   669.5    3.245      71.532
2015    4        1    20  27    5.3741   669.7    3.242      71.531
2015    4        1    20  33    5.3708   669.9    3.238      71.530
2015    4        1    20  39    5.3675   670.0    3.234      71.529
2015    4        1    20  44    5.3642   670.2    3.231      71.528
2015    4        1    20  50    5.3609   670.4    3.227      71.528
2015    4        1    20  56    5.3576   670.5    3.224      71.528
2015    4        1    21   2    5.3544   670.7    3.220      71.529
2015    4        1    21   7    5.3512   670.9    3.217      71.529
2015    4        1    21  13    5.3480   671.0    3.213      71.530
2015    4        1    21  19    5.3448   671.2    3.210      71.532
2015    4        1    21  25    5.3416   671.3    3.206      71.534
2015    4        1    21  30    5.3385   671.5    3.203      71.536
2015    4        1    21  36    5.3353   671.7    3.200      71.539
2015    4        1    21  42    5.3322   671.8    3.196      71.542
2015    4        1    21  48    5.3291   672.0    3.193      71.546
2015    4        1    21  53    5.3260   672.1    3.190      71.549
2015    4        1    21  59    5.3229   672.3    3.187      71.554
2015    4        1    22   5    5.3198   672.5    3.184      71.558
2015    4        1    22  11    5.3168   672.6    3.181      71.563
2015    4        1    22  17    5.3138   672.8    3.178      71.569
2015    4        1    22  22    5.3107   672.9    3.175      71.574
2015    4        1    22  28    5.3077   673.1    3.172      71.580
2015    4        1    22  34    5.3047   673.2    3.169      71.585
2015    4        1    22  40    5.3017   673.4    3.166      71.591
2015    4        1    22  45    5.2988   673.5    3.163      71.597
2015    4        1    22  51    5.2958   673.7    3.160      71.603
2015    4        1    22  57    5.2929   673.8    3.157      71.610
2015    4        1    23   3    5.2899   674.0    3.155      71.616
2015    4        1    23   8    5.2870   674.2    3.152      71.621
2015    4        1    23  14    5.2841   674.3    3.149      71.627
2015    4        1    23  20    5.2812   674.5    3.146      71.633
2015    4        1    23  26    5.2782   674.6    3.144      71.638
2015    4        1    23  31    5.2753   674.8    3.141      71.643
2015    4        1    23  37    5.2725   674.9    3.138      71.648
2015    4        1    23  43    5.2696   675.1    3.136      71.653
2015    4        1    23  49    5.2667   675.2    3.133      71.657
2015    4        1    23  54    5.2638   675.4    3.130      71.661
2015    4        2     0   0    5.2610   675.5    3.128      71.664
2015    4        2     0   6    5.2581   675.7    3.125      71.668
2015    4        2     0  12    5.2553   675.8    3.123      71.670
2015    4        2     0  17    5.2524   675.9    3.120      71.673
2015    4        2     0  23    5.2496   676.1    3.117      71.674
2015    4        2     0  29    5.2467   676.2    3.115      71.676
2015    4        2     0  35    5.2439   676.4    3.112      71.677
2015    4        2     0  40    5.2411   676.5    3.109      71.678
2015    4        2     0  46    5.2383   676.7    3.107      71.679
2015    4        2     0  52    5.2355   676.8    3.104      71.679
2015    4        2     0  58    5.2327   676.9    3.101      71.679
2015    4        2     1   3    5.2299   677.1    3.099      71.678
2015    4        2     1   9    5.2271   677.2    3.096      71.677
2015    4        2     1  15    5.2243   677.4    3.093      71.677
2015    4        2     1  21    5.2215   677.5    3.091      71.675
2015    4        2     1  26    5.2188   677.6    3.088      71.674
2015    4        2     1  32    5.2160   677.8    3.085      71.672
2015    4        2     1  38    5.2132   677.9    3.083      71.670
2015    4        2     1  44    5.2105   678.0    3.080      71.668
2015    4        2     1  50    5.2077   678.2    3.077      71.666
2015    4        2     1  55    5.2050   678.3    3.074      71.664
2015    4        2     2   1    5.2023   678.4    3.072      71.662
2015    4        2     2   7    5.1996   678.6    3.069      71.659
2015    4        2     2  13    5.1968   678.7    3.066      71.657
2015    4        2     2  18    5.1941   678.8    3.064      71.654
2015    4        2     2  24    5.1914   679.0    3.061      71.652
2015    4        2     2  30    5.1887   679.1    3.058      71.649
2015    4        2     2  36    5.1860   679.2    3.055      71.646
2015    4        2     2  41    5.1834   679.3    3.053      71.644
2015    4        2     2  47    5.1807   679.5    3.050      71.641
2015    4        2     2  53    5.1780   679.6    3.047      71.639
2015    4        2     2  59    5.1754   679.7    3.044      71.636
2015    4        2     3   4    5.1728   679.8    3.042      71.634
2015    4        2     3  10    5.1701   680.0    3.039      71.632
2015    4        2     3  16    5.1675   680.1    3.036      71.630
2015    4        2     3  22    5.1649   680.2    3.034      71.628
2015    4        2     3  27    5.1623   680.3    3.031      71.627
2015    4        2     3  33    5.1597   680.4    3.028      71.626
2015    4        2     3  39    5.1571   680.6    3.026      71.625
2015    4        2     3  45    5.1546   680.7    3.023      71.624
2015    4        2     3  50    5.1520   680.8    3.021      71.624
2015    4        2     3  56    5.1495   680.9    3.018      71.624
2015    4        2     4   2    5.1470   681.0    3.016      71.624
2015    4        2     4   8    5.1444   681.1    3.013      71.625
2015    4        2     4  13    5.1419   681.2    3.011      71.626
2015    4        2     4  19    5.1394   681.4    3.008      71.627
2015    4        2     4  25    5.1370   681.5    3.006      71.629
2015    4        2     4  31    5.1345   681.6    3.003      71.631
2015    4        2     4  37    5.1320   681.7    3.001      71.634
2015    4        2     4  42    5.1296   681.8    2.999      71.637
2015    4        2     4  48    5.1272   681.9    2.996      71.640
2015    4        2     4  54    5.1247   682.0    2.994      71.644
2015    4        2     5   0    5.1223   682.1    2.992      71.648
2015    4        2     5   5    5.1199   682.3    2.989      71.652
2015    4        2     5  11    5.1175   682.4    2.987      71.656
2015    4        2     5  17    5.1151   682.5    2.985      71.661
2015    4        2     5  23    5.1128   682.6    2.983      71.666
2015    4        2     5  28    5.1104   682.7    2.981      71.671
2015    4        2     5  34    5.1081   682.8    2.979      71.677
2015    4        2     5  40    5.1057   682.9    2.977      71.682
2015    4        2     5  46    5.1034   683.0    2.974      71.688
2015    4        2     5  51    5.1010   683.1    2.972      71.694
2015    4        2     5  57    5.0987   683.2    2.970      71.699
2015    4        2     6   3    5.0964   683.4    2.968      71.705
2015    4        2     6   9    5.0941   683.5    2.966      71.711
2015    4        2     6  14    5.0918   683.6    2.965      71.717
2015    4        2     6  20    5.0895   683.7    2.963      71.722
2015    4        2     6  26    5.0872   683.8    2.961      71.728
2015    4        2     6  32    5.0850   683.9    2.959      71.733
2015    4        2     6  37    5.0827   684.0    2.957      71.738
2015    4        2     6  43    5.0804   684.1    2.955      71.743
2015    4        2     6  49    5.0782   684.2    2.953      71.748
2015    4        2     6  55    5.0759   684.3    2.951      71.753
2015    4        2     7   0    5.0737   684.4    2.949      71.757
2015    4        2     7   6    5.0714   684.5    2.948      71.761
2015    4        2     7  12    5.0692   684.6    2.946      71.764
2015    4        2     7  18    5.0670   684.8    2.944      71.767
2015    4        2     7  23    5.0648   684.9    2.942      71.770
2015    4        2     7  29    5.0626   685.0    2.940      71.773
2015    4        2     7  35    5.0603   685.1    2.938      71.775
2015    4        2     7  41    5.0581   685.2    2.937      71.776
2015    4        2     7  47    5.0559   685.3    2.935      71.777
2015    4        2     7  52    5.0537   685.4    2.933      71.778
2015    4        2     7  58    5.0516   685.5    2.931      71.779
2015    4        2     8   4    5.0494   685.6    2.929      71.779
2015    4        2     8  10    5.0472   685.7    2.927      71.778
2015    4        2     8  15    5.0450   685.8    2.925      71.778
2015    4        2     8  21    5.0428   685.9    2.924      71.777
2015    4        2     8  27    5.0407   686.0    2.922      71.776
2015    4        2     8  33    5.0385   686.1    2.920      71.774
2015    4        2     8  38    5.0363   686.2    2.918      71.772
2015    4        2     8  44    5.0342   686.3    2.916      71.770
2015    4        2     8  50    5.0320   686.4    2.914      71.768
2015    4        2     8  56    5.0299   686.5    2.912      71.766
2015    4        2     9   1    5.0277   686.6    2.910      71.763
2015    4        2     9   7    5.0256   686.7    2.908      71.761
2015    4        2     9  13    5.0235   686.8    2.906      71.758
2015    4        2     9  19    5.0213   686.9    2.904      71.756
2015    4        2     9  24    5.0192   687.0    2.902      71.753
2015    4        2     9  30    5.0171   687.0    2.900      71.750
2015    4        2     9  36    5.0149   687.1    2.898      71.748
2015    4        2     9  42    5.0128   687.2    2.896      71.745
2015    4        2     9  47    5.0107   687.3    2.894      71.743
2015    4        2     9  53    5.0086   687.4    2.892      71.740
2015    4        2     9  59    5.0065   687.5    2.890      71.738
2015    4        2    10   5    5.0044   687.6    2.888      71.736
2015    4        2    10  10    5.0024   687.7    2.886      71.734
2015    4        2    10  16    5.0003   687.8    2.884      71.733
2015    4        2    10  22    4.9982   687.8    2.882      71.732
2015    4        2    10  28    4.9962   687.9    2.880      71.731
2015    4        2    10  33    4.9941   688.0    2.878      71.730
2015    4        2    10  39    4.9921   688.1    2.876      71.729
2015    4        2    10  45    4.9900   688.2    2.874      71.729
2015    4        2    10  51    4.9880   688.3    2.873      71.729
2015    4        2    10  57    4.9860   688.4    2.871      71.730
2015    4        2    11   2    4.9840   688.4    2.869      71.730
2015    4        2    11   8    4.9820   688.5    2.867      71.731
2015    4        2    11  14    4.9800   688.6    2.865      71.732
2015    4        2    11  20    4.9780   688.7    2.863      71.734
2015    4        2    11  25    4.9760   688.8    2.861      71.736
2015    4        2    11  31    4.9741   688.8    2.860      71.738
2015    4        2    11  37    4.9721   688.9    2.858      71.740
2015    4        2    11  43    4.9701   689.0    2.856      71.742
2015    4        2    11  48    4.9682   689.1    2.854      71.745
2015    4        2    11  54    4.9662   689.2    2.852      71.748
2015    4        2    12   0    4.9643   689.3    2.851      71.751
2015    4        2    12   6    4.9623   689.3    2.849      71.754
2015    4        2    12  11    4.9604   689.4    2.847      71.758
2015    4        2    12  17    4.9585   689.5    2.846      71.761
2015    4        2    12  23    4.9566   689.6    2.844      71.765
2015    4        2    12  29    4.9546   689.6    2.842      71.769
2015    4        2    12  34    4.9527   689.7    2.841      71.773
2015    4        2    12  40    4.9508   689.8    2.839      71.777
2015    4        2    12  46    4.9489   689.9    2.837      71.782
2015    4        2    12  52    4.9470   690.0    2.836      71.786
2015    4        2    12  57    4.9451   690.0    2.834      71.791
2015    4        2    13   3    4.9433   690.1    2.833      71.796
2015    4        2    13   9    4.9414   690.2    2.831      71.801
2015    4        2    13  15    4.9395   690.3    2.830      71.806
2015    4        2    13  20    4.9377   690.3    2.829      71.811
2015    4        2    13  26    4.9358   690.4    2.827      71.816
2015    4        2    13  32    4.9340   690.5    2.826      71.821
2015    4        2    13  38    4.9322   690.6    2.824      71.826
2015    4        2    13  43    4.9303   690.7    2.823      71.831
2015    4        2    13  49    4.9285   690.7    2.822      71.836
2015    4        2    13  55    4.9267   690.8    2.820      71.841
2015    4        2    14   1    4.9249   690.9    2.819      71.846
2015    4        2    14   7    4.9231   691.0    2.818      71.850
2015    4        2    14  12    4.9213   691.0    2.816      71.854
2015    4        2    14  18    4.9195   691.1    2.815      71.858
2015    4        2    14  24    4.9177   691.2    2.814      71.862
2015    4        2    14  30    4.9159   691.3    2.813      71.865
2015    4        2    14  35    4.9142   691.3    2.811      71.868
2015    4        2    14  41    4.9124   691.4    2.810      71.871
2015    4        2    14  47    4.9106   691.5    2.809      71.873
2015    4        2    14  53    4.9088   691.6    2.808      71.875
2015    4        2    14  58    4.9071   691.6    2.806      71.877
2015    4        2    15   4    4.9053   691.7    2.805      71.878
2015    4        2    15  10    4.9035   691.8    2.804      71.878
2015    4        2    15  16    4.9017   691.9    2.802      71.878
2015    4        2    15  21    4.9000   692.0    2.801      71.878
2015    4        2    15  27    4.8982   692.0    2.799      71.877
2015    4        2    15  33    4.8964   692.1    2.798      71.876
2015    4        2    15  39    4.8946   692.2    2.797      71.875
2015    4        2    15  44    4.8929   692.3    2.795      71.873
2015    4        2    15  50    4.8911   692.3    2.794      71.870
2015    4        2    15  56    4.8893   692.4    2.792      71.868
2015    4        2    16   2    4.8876   692.5    2.791      71.865
2015    4        2    16   7    4.8858   692.5    2.789      71.862
2015    4        2    16  13    4.8840   692.6    2.788      71.858
2015    4        2    16  19    4.8822   692.7    2.786      71.855
2015    4        2    16  25    4.8805   692.7    2.785      71.851
2015    4        2    16  30    4.8787   692.8    2.783      71.847
2015    4        2    16  36    4.8769   692.9    2.781      71.844
2015    4        2    16  42    4.8752   693.0    2.780      71.840
2015    4        2    16  48    4.8734   693.0    2.778      71.837
2015    4        2    16  53    4.8717   693.1    2.777      71.834
2015    4        2    16  59    4.8699   693.1    2.775      71.831
2015    4        2    17   5    4.8682   693.2    2.774      71.829
2015    4        2    17  11    4.8664   693.3    2.772      71.826
2015    4        2    17  17    4.8647   693.3    2.770      71.824
2015    4        2    17  22    4.8630   693.4    2.769      71.823
2015    4        2    17  28    4.8612   693.5    2.767      71.821
2015    4        2    17  34    4.8595   693.5    2.766      71.820
2015    4        2    17  40    4.8578   693.6    2.764      71.819
2015    4        2    17  45    4.8561   693.7    2.763      71.819
2015    4        2    17  51    4.8544   693.7    2.761      71.819
2015    4        2    17  57    4.8527   693.8    2.759      71.818
2015    4        2    18   3    4.8510   693.8    2.758      71.819
2015    4        2    18   8    4.8493   693.9    2.756      71.819
2015    4        2    18  14    4.8476   694.0    2.755      71.819
2015    4        2    18  20    4.8459   694.0    2.753      71.819
2015    4        2    18  26    4.8442   694.1    2.752      71.820
2015    4        2    18  31    4.8425   694.2    2.750      71.820
2015    4        2    18  37    4.8408   694.2    2.749      71.821
2015    4        2    18  43    4.8391   694.3    2.747      71.822
2015    4        2    18  49    4.8374   694.3    2.746      71.823
2015    4        2    18  54    4.8357   694.4    2.744      71.823
2015    4        2    19   0    4.8340   694.4    2.743      71.824
2015    4        2    19   6    4.8324   694.5    2.742      71.825
2015    4        2    19  12    4.8307   694.6    2.740      71.826
2015    4        2    19  17    4.8290   694.6    2.739      71.828
2015    4        2    19  23    4.8273   694.7    2.737      71.829
2015    4        2    19  29    4.8257   694.7    2.736      71.830
2015    4        2    19  35    4.8240   694.8    2.735      71.832
2015    4        2    19  40    4.8224   694.8    2.733      71.834
2015    4        2    19  46    4.8207   694.9    2.732      71.836
2015    4        2    19  52    4.8191   694.9    2.731      71.838
2015    4        2    19  58    4.8175   695.0    2.730      71.841
2015    4        2    20   4    4.8158   695.0    2.729      71.844
2015    4        2    20   9    4.8142   695.1    2.727      71.847
2015    4        2    20  15    4.8126   695.1    2.726      71.850
2015    4        2    20  21    4.8110   695.2    2.725      71.853
2015    4        2    20  27    4.8095   695.3    2.724      71.857
2015    4        2    20  32    4.8079   695.3    2.723      71.861
2015    4        2    20  38    4.8063   695.4    2.722      71.865
2015    4        2    20  44    4.8048   695.4    2.721      71.870
2015    4        2    20  50    4.8032   695.5    2.720      71.874
2015    4        2    20  55    4.8017   695.5    2.719      71.879
2015    4        2    21   1    4.8001   695.6    2.719      71.883
2015    4        2    21   7    4.7986   695.6    2.718      71.887
2015    4        2    21  13    4.7970   695.7    2.717      71.892
2015    4        2    21  18    4.7955   695.7    2.716      71.896
2015    4        2    21  24    4.7940   695.8    2.715      71.900
2015    4        2    21  30    4.7925   695.8    2.714      71.903
2015    4        2    21  36    4.7909   695.9    2.713      71.906
2015    4        2    21  41    4.7894   696.0    2.712      71.909
2015    4        2    21  47    4.7879   696.0    2.712      71.911
2015    4        2    21  53    4.7863   696.1    2.711      71.913
2015    4        2    21  59    4.7848   696.1    2.710      71.915
2015    4        2    22   4    4.7832   696.2    2.709      71.916
2015    4        2    22  10    4.7817   696.2    2.708      71.917
2015    4        2    22  16    4.7801   696.3    2.707      71.917
2015    4        2    22  22    4.7786   696.3    2.706      71.916
2015    4        2    22  27    4.7770   696.4    2.704      71.914
2015    4        2    22  33    4.7755   696.4    2.703      71.912
2015    4        2    22  39    4.7739   696.5    2.702      71.909
2015    4        2    22  45    4.7723   696.6    2.701      71.906
2015    4        2    22  50    4.7708   696.6    2.700      71.903
2015    4        2    22  56    4.7692   696.7    2.699      71.898
2015    4        2    23   2    4.7676   696.7    2.697      71.894
2015    4        2    23   8    4.7660   696.8    2.696      71.889
2015    4        2    23  13    4.7645   696.8    2.695      71.884
2015    4        2    23  19    4.7629   696.9    2.694      71.879
2015    4        2    23  25    4.7613   696.9    2.692      71.874
2015    4        2    23  31    4.7598   697.0    2.691      71.868
2015    4        2    23  37    4.7582   697.0    2.690      71.863
2015    4        2    23  42    4.7566   697.1    2.688      71.858
2015    4        2    23  48    4.7550   697.1    2.687      71.853
2015    4        2    23  54    4.7535   697.2    2.686      71.848
2015    4        3     0   0    4.7519   697.2    2.684      71.843
2015    4        3     0   5    4.7504   697.2    2.683      71.839
2015    4        3     0  11    4.7488   697.3    2.681      71.835
2015    4        3     0  17    4.7472   697.3    2.680      71.831
2015    4        3     0  23    4.7457   697.4    2.679      71.828
2015    4        3     0  28    4.7442   697.4    2.678      71.825
2015    4        3     0  34    4.7426   697.5    2.676      71.823
2015    4        3     0  40    4.7411   697.5    2.675      71.821
2015    4        3     0  46    4.7396   697.6    2.674      71.819
2015    4        3     0  51    4.7380   697.6    2.672      71.817
2015    4        3     0  57    4.7365   697.6    2.671      71.816
2015    4        3     1   3    4.7350   697.7    2.670      71.815
2015    4        3     1   9    4.7335   697.7    2.669      71.814
2015    4        3     1  14    4.7319   697.8    2.667      71.813
2015    4        3     1  20    4.7304   697.8    2.666      71.813
2015    4        3     1  26    4.7289   697.8    2.665      71.812
2015    4        3     1  32    4.7274   697.9    2.664      71.811
2015    4        3     1  37    4.7258   697.9    2.663      71.811
2015    4        3     1  43    4.7243   698.0    2.661      71.810
2015    4        3     1  49    4.7228   698.0    2.660      71.809
2015    4        3     1  55    4.7213   698.0    2.659      71.808
2015    4        3     2   0    4.7198   698.1    2.658      71.808
2015    4        3     2   6    4.7183   698.1    2.657      71.807
2015    4        3     2  12    4.7167   698.2    2.655      71.806
2015    4        3     2  18    4.7152   698.2    2.654      71.805
2015    4        3     2  24    4.7137   698.2    2.653      71.804
2015    4        3     2  29    4.7122   698.3    2.652      71.803
2015    4        3     2  35    4.7107   698.3    2.651      71.802
2015    4        3     2  41    4.7092   698.3    2.650      71.802
2015    4        3     2  47    4.7077   698.4    2.649      71.801
2015    4        3     2  52    4.7062   698.4    2.648      71.801
2015    4        3     2  58    4.7048   698.4    2.647      71.801
2015    4        3     3   4    4.7033   698.5    2.646      71.801
2015    4        3     3  10    4.7018   698.5    2.645      71.801
2015    4        3     3  15    4.7004   698.5    2.644      71.801
2015    4        3     3  21    4.6989   698.5    2.643      71.802
2015    4        3     3  27    4.6975   698.6    2.642      71.803
2015    4        3     3  33    4.6960   698.6    2.641      71.805
2015    4        3     3  38    4.6946   698.6    2.640      71.806
2015    4        3     3  44    4.6932   698.7    2.639      71.808
2015    4        3     3  50    4.6918   698.7    2.639      71.810
2015    4        3     3  56    4.6904   698.7    2.638      71.812
2015    4        3     4   1    4.6890   698.8    2.637      71.814
2015    4        3     4   7    4.6876   698.8    2.637      71.817
2015    4        3     4  13    4.6862   698.8    2.636      71.820
2015    4        3     4  19    4.6848   698.9    2.635      71.822
2015    4        3     4  24    4.6834   698.9    2.635      71.825
2015    4        3     4  30    4.6821   698.9    2.634      71.827
2015    4        3     4  36    4.6807   699.0    2.634      71.830
2015    4        3     4  42    4.6793   699.0    2.633      71.832
2015    4        3     4  47    4.6779   699.0    2.632      71.834
2015    4        3     4  53    4.6765   699.1    2.632      71.836
2015    4        3     4  59    4.6751   699.1    2.631      71.837
2015    4        3     5   5    4.6737   699.1    2.631      71.838
2015    4        3     5  10    4.6723   699.2    2.630      71.840
2015    4        3     5  16    4.6709   699.2    2.629      71.840
2015    4        3     5  22    4.6695   699.2    2.629      71.840
2015    4        3     5  28    4.6681   699.3    2.628      71.840
2015    4        3     5  34    4.6666   699.3    2.627      71.839
2015    4        3     5  39    4.6652   699.3    2.626      71.837
2015    4        3     5  45    4.6638   699.4    2.626      71.835
2015    4        3     5  51    4.6623   699.4    2.625      71.832
2015    4        3     5  57    4.6609   699.4    2.624      71.829
2015    4        3     6   2    4.6594   699.5    2.623      71.825
2015    4        3     6   8    4.6580   699.5    2.622      71.821
2015    4        3     6  14    4.6566   699.5    2.621      71.816
2015    4        3     6  20    4.6551   699.6    2.620      71.811
2015    4        3     6  25    4.6537   699.6    2.619      71.805
2015    4        3     6  31    4.6522   699.6    2.618      71.800
2015    4        3     6  37    4.6508   699.7    2.617      71.794
2015    4        3     6  43    4.6493   699.7    2.616      71.787
2015    4        3     6  48    4.6479   699.7    2.615      71.781
2015    4        3     6  54    4.6464   699.8    2.614      71.775
2015    4        3     7   0    4.6450   699.8    2.613      71.768
2015    4        3     7   6    4.6436   699.8    2.612      71.762
2015    4        3     7  11    4.6421   699.8    2.611      71.756
2015    4        3     7  17    4.6407   699.9    2.610      71.750
2015    4        3     7  23    4.6392   699.9    2.608      71.744
2015    4        3     7  29    4.6378   699.9    2.607      71.739
2015    4        3     7  34    4.6364   699.9    2.606      71.733
2015    4        3     7  40    4.6349   700.0    2.605      71.728
2015    4        3     7  46    4.6335   700.0    2.604      71.723
2015    4        3     7  52    4.6321   700.0    2.603      71.718
2015    4        3     7  57    4.6307   700.0    2.602      71.714
2015    4        3     8   3    4.6293   700.1    2.601      71.710
2015    4        3     8   9    4.6278   700.1    2.600      71.706
2015    4        3     8  15    4.6264   700.1    2.599      71.702
2015    4        3     8  20    4.6250   700.1    2.598      71.698
2015    4        3     8  26    4.6236   700.2    2.597      71.694
2015    4        3     8  32    4.6222   700.2    2.596      71.690
2015    4        3     8  38    4.6208   700.2    2.595      71.687
2015    4        3     8  44    4.6193   700.2    2.594      71.683
2015    4        3     8  49    4.6179   700.2    2.593      71.679
2015    4        3     8  55    4.6165   700.3    2.592      71.675
2015    4        3     9   1    4.6151   700.3    2.590      71.671
2015    4        3     9   7    4.6136   700.3    2.589      71.666
2015    4        3     9  12    4.6122   700.3    2.588      71.662
2015    4        3     9  18    4.6108   700.3    2.587      71.657
2015    4        3     9  24    4.6093   700.4    2.586      71.653
2015    4        3     9  30    4.6079   700.4    2.585      71.648
2015    4        3     9  35    4.6065   700.4    2.584      71.643
2015    4        3     9  41    4.6050   700.4    2.583      71.638
2015    4        3     9  47    4.6036   700.4    2.582      71.633
2015    4        3     9  53    4.6022   700.4    2.581      71.628
2015    4        3     9  58    4.6008   700.4    2.580      71.624
2015    4        3    10   4    4.5994   700.5    2.579      71.619
2015    4        3    10  10    4.5979   700.5    2.578      71.614
2015    4        3    10  16    4.5965   700.5    2.577      71.610
2015    4        3    10  21    4.5951   700.5    2.576      71.606
2015    4        3    10  27    4.5937   700.5    2.575      71.602
2015    4        3    10  33    4.5923   700.5    2.575      71.598
2015    4        3    10  39    4.5909   700.5    2.574      71.595
2015    4        3    10  44    4.5895   700.6    2.573      71.592
2015    4        3    10  50    4.5882   700.6    2.572      71.589
2015    4        3    10  56    4.5868   700.6    2.572      71.587
2015    4        3    11   2    4.5854   700.6    2.571      71.585
2015    4        3    11   8    4.5840   700.6    2.570      71.583
2015    4        3    11  13    4.5827   700.6    2.570      71.582
2015    4        3    11  19    4.5813   700.6    2.569      71.581
2015    4        3    11  25    4.5799   700.7    2.569      71.580
2015    4        3    11  31    4.5786   700.7    2.568      71.580
2015    4        3    11  36    4.5772   700.7    2.568      71.579
2015    4        3    11  42    4.5759   700.7    2.567      71.580
2015    4        3    11  48    4.5745   700.7    2.567      71.580
2015    4        3    11  54    4.5732   700.7    2.566      71.581
2015    4        3    11  59    4.5718   700.7    2.566      71.581
2015    4        3    12   5    4.5705   700.7    2.566      71.582
2015    4        3    12  11    4.5691   700.8    2.565      71.583
2015    4        3    12  17    4.5677   700.8    2.565      71.584
2015    4        3    12  22    4.5664   700.8    2.565      71.585
2015    4        3    12  28    4.5650   700.8    2.564      71.586
2015    4        3    12  34    4.5637   700.8    2.564      71.587
2015    4        3    12  40    4.5623   700.8    2.564      71.588
2015    4        3    12  45    4.5610   700.9    2.563      71.589
2015    4        3    12  51    4.5596   700.9    2.563      71.590
2015    4        3    12  57    4.5583   700.9    2.563      71.590
2015    4        3    13   3    4.5569   700.9    2.562      71.590
2015    4        3    13   8    4.5556   700.9    2.562      71.590
2015    4        3    13  14    4.5542   700.9    2.561      71.590
2015    4        3    13  20    4.5528   700.9    2.561      71.589
2015    4        3    13  26    4.5515   701.0    2.560      71.588
2015    4        3    13  31    4.5501   701.0    2.560      71.587
2015    4        3    13  37    4.5487   701.0    2.559      71.586
2015    4        3    13  43    4.5473   701.0    2.558      71.584
2015    4        3    13  49    4.5459   701.0    2.558      71.581
2015    4        3    13  54    4.5445   701.0    2.557      71.577
2015    4        3    14   0    4.5431   701.1    2.556      71.573
2015    4        3    14   6    4.5417   701.1    2.556      71.568
2015    4        3    14  12    4.5403   701.1    2.555      71.563
2015    4        3    14  17    4.5389   701.1    2.554      71.556
2015    4        3    14  23    4.5375   701.1    2.553      71.550
2015    4        3    14  29    4.5361   701.1    2.552      71.542
2015    4        3    14  35    4.5347   701.1    2.551      71.535
2015    4        3    14  41    4.5333   701.1    2.550      71.526
2015    4        3    14  46    4.5319   701.1    2.549      71.518
2015    4        3    14  52    4.5305   701.2    2.548      71.509
2015    4        3    14  58    4.5290   701.2    2.547      71.500
2015    4        3    15   4    4.5276   701.2    2.547      71.490
2015    4        3    15   9    4.5262   701.2    2.546      71.480
2015    4        3    15  15    4.5248   701.2    2.545      71.470
2015    4        3    15  21    4.5234   701.2    2.544      71.460
2015    4        3    15  27    4.5220   701.2    2.542      71.449
2015    4        3    15  32    4.5205   701.2    2.541      71.438
2015    4        3    15  38    4.5191   701.2    2.540      71.427
2015    4        3    15  44    4.5177   701.2    2.539      71.416
2015    4        3    15  50    4.5162   701.2    2.538      71.405
2015    4        3    15  55    4.5148   701.2    2.537      71.393
2015    4        3    16   1    4.5133   701.2    2.536      71.381
2015    4        3    16   7    4.5119   701.2    2.535      71.370
2015    4        3    16  13    4.5104   701.2    2.534      71.358
2015    4        3    16  18    4.5090   701.2    2.533      71.346
2015    4        3    16  24    4.5076   701.2    2.532      71.334
2015    4        3    16  30    4.5061   701.2    2.531      71.322
2015    4        3    16  36    4.5047   701.2    2.530      71.310
2015    4        3    16  41    4.5032   701.2    2.529      71.298
2015    4        3    16  47    4.5018   701.2    2.527      71.286
2015    4        3    16  53    4.5003   701.2    2.526      71.275
2015    4        3    16  59    4.4989   701.2    2.525      71.263
2015    4        3    17   4    4.4975   701.2    2.524      71.252
2015    4        3    17  10    4.4960   701.2    2.523      71.242
2015    4        3    17  16    4.4946   701.2    2.523      71.231
2015    4        3    17  22    4.4932   701.2    2.522      71.221
2015    4        3    17  28    4.4918   701.2    2.521      71.211
2015    4        3    17  33    4.4904   701.2    2.520      71.202
2015    4        3    17  39    4.4889   701.2    2.519      71.193
2015    4        3    17  45    4.4875   701.2    2.518      71.185
2015    4        3    17  51    4.4861   701.2    2.517      71.177
2015    4        3    17  56    4.4847   701.2    2.517      71.169
2015    4        3    18   2    4.4833   701.2    2.516      71.161
2015    4        3    18   8    4.4819   701.2    2.515      71.154
2015    4        3    18  14    4.4805   701.2    2.515      71.147
2015    4        3    18  19    4.4791   701.1    2.514      71.141
2015    4        3    18  25    4.4777   701.1    2.513      71.135
2015    4        3    18  31    4.4763   701.1    2.513      71.129
2015    4        3    18  37    4.4748   701.1    2.512      71.123
2015    4        3    18  42    4.4734   701.1    2.512      71.118
2015    4        3    18  48    4.4720   701.1    2.511      71.113
2015    4        3    18  54    4.4706   701.1    2.511      71.108
2015    4        3    19   0    4.4692   701.1    2.510      71.104
2015    4        3    19   5    4.4678   701.1    2.510      71.100
2015    4        3    19  11    4.4664   701.1    2.509      71.096
2015    4        3    19  17    4.4650   701.0    2.509      71.092
2015    4        3    19  23    4.4636   701.0    2.509      71.089
2015    4        3    19  28    4.4622   701.0    2.508      71.086
2015    4        3    19  34    4.4608   701.0    2.508      71.083
2015    4        3    19  40    4.4594   701.0    2.507      71.081
2015    4        3    19  46    4.4580   701.0    2.507      71.078
2015    4        3    19  51    4.4566   701.0    2.507      71.076
2015    4        3    19  57    4.4552   701.0    2.506      71.075
2015    4        3    20   3    4.4539   701.0    2.506      71.073
2015    4        3    20   9    4.4525   701.0    2.506      71.072
2015    4        3    20  14    4.4511   701.0    2.506      71.070
2015    4        3    20  20    4.4497   701.0    2.505      71.069
2015    4        3    20  26    4.4483   701.0    2.505      71.068
2015    4        3    20  32    4.4469   701.0    2.505      71.067
2015    4        3    20  37    4.4455   701.0    2.504      71.066
2015    4        3    20  43    4.4441   701.0    2.504      71.065
2015    4        3    20  49    4.4427   701.0    2.504      71.064
2015    4        3    20  55    4.4413   701.0    2.503      71.063
2015    4        3    21   1    4.4398   701.0    2.503      71.061
2015    4        3    21   6    4.4384   701.0    2.503      71.058
2015    4        3    21  12    4.4370   701.0    2.502      71.055
2015    4        3    21  18    4.4356   701.0    2.502      71.052
2015    4        3    21  24    4.4341   701.0    2.501      71.047
2015    4        3    21  29    4.4327   701.0    2.501      71.042
2015    4        3    21  35    4.4312   701.0    2.500      71.036
2015    4        3    21  41    4.4298   700.9    2.499      71.030
2015    4        3    21  47    4.4283   700.9    2.499      71.022
2015    4        3    21  52    4.4269   700.9    2.498      71.014
2015    4        3    21  58    4.4254   700.9    2.498      71.006
2015    4        3    22   4    4.4239   700.9    2.497      70.996
2015    4        3    22  10    4.4225   700.9    2.496      70.986
2015    4        3    22  15    4.4210   700.9    2.496      70.975
2015    4        3    22  21    4.4196   700.9    2.495      70.964
2015    4        3    22  27    4.4181   700.9    2.494      70.951
2015    4        3    22  33    4.4166   700.9    2.493      70.938
2015    4        3    22  38    4.4152   700.9    2.493      70.925
2015    4        3    22  44    4.4137   700.8    2.492      70.910
2015    4        3    22  50    4.4122   700.8    2.491      70.895
2015    4        3    22  56    4.4107   700.8    2.490      70.880
2015    4        3    23   1    4.4093   700.8    2.489      70.864
2015    4        3    23   7    4.4078   700.8    2.488      70.847
2015    4        3    23  13    4.4063   700.8    2.488      70.830
2015    4        3    23  19    4.4048   700.7    2.487      70.813
2015    4        3    23  24    4.4034   700.7    2.486      70.796
2015    4        3    23  30    4.4019   700.7    2.485      70.779
2015    4        3    23  36    4.4005   700.7    2.484      70.762
2015    4        3    23  42    4.3990   700.6    2.483      70.745
2015    4        3    23  48    4.3976   700.6    2.482      70.729
2015    4        3    23  53    4.3961   700.6    2.482      70.713
2015    4        3    23  59    4.3947   700.6    2.481      70.698
2015    4        4     0   5    4.3933   700.5    2.480      70.683
2015    4        4     0  11    4.3919   700.5    2.479      70.669
2015    4        4     0  16    4.3905   700.5    2.479      70.656
2015    4        4     0  22    4.3891   700.4    2.478      70.643
2015    4        4     0  28    4.3877   700.4    2.478      70.631
2015    4        4     0  34    4.3863   700.4    2.477      70.620
2015    4        4     0  39    4.3849   700.4    2.476      70.610
2015    4        4     0  45    4.3835   700.3    2.476      70.600
2015    4        4     0  51    4.3821   700.3    2.475      70.590
2015    4        4     0  57    4.3807   700.3    2.475      70.581
2015    4        4     1   2    4.3792   700.3    2.474      70.572
2015    4        4     1   8    4.3778   700.2    2.473      70.564
2015    4        4     1  14    4.3764   700.2    2.473      70.555
2015    4        4     1  20    4.3749   700.2    2.472      70.545
2015    4        4     1  25    4.3735   700.1    2.472      70.534
2015    4        4     1  31    4.3720   700.1    2.471      70.523
2015    4        4     1  37    4.3706   700.1    2.470      70.511
2015    4        4     1  43    4.3691   700.1    2.469      70.499
2015    4        4     1  48    4.3677   700.0    2.469      70.486
2015    4        4     1  54    4.3662   700.0    2.468      70.473
2015    4        4     2   0    4.3647   700.0    2.467      70.459
2015    4        4     2   6    4.3632   699.9    2.466      70.444
2015    4        4     2  11    4.3618   699.9    2.466      70.429
2015    4        4     2  17    4.3603   699.9    2.465      70.414
2015    4        4     2  23    4.3588   699.8    2.464      70.398
2015    4        4     2  29    4.3574   699.8    2.463      70.382
2015    4        4     2  35    4.3559   699.8    2.462      70.366
2015    4        4     2  40    4.3544   699.7    2.462      70.349
2015    4        4     2  46    4.3529   699.7    2.461      70.332
2015    4        4     2  52    4.3515   699.7    2.460      70.314
2015    4        4     2  58    4.3500   699.6    2.459      70.297
2015    4        4     3   3    4.3485   699.6    2.458      70.280
2015    4        4     3   9    4.3470   699.6    2.458      70.262
2015    4        4     3  15    4.3455   699.5    2.457      70.245
2015    4        4     3  21    4.3441   699.5    2.456      70.227
2015    4        4     3  26    4.3426   699.5    2.455      70.210
2015    4        4     3  32    4.3411   699.4    2.455      70.194
2015    4        4     3  38    4.3396   699.4    2.454      70.177
2015    4        4     3  44    4.3381   699.3    2.453      70.161
2015    4        4     3  49    4.3366   699.3    2.453      70.146
2015    4        4     3  55    4.3352   699.3    2.452      70.132
2015    4        4     4   1    4.3337   699.2    2.451      70.118
2015    4        4     4   7    4.3323   699.2    2.451      70.104
2015    4        4     4  12    4.3308   699.1    2.450      70.092
2015    4        4     4  18    4.3293   699.1    2.450      70.080
2015    4        4     4  24    4.3279   699.1    2.450      70.069
2015    4        4     4  30    4.3265   699.0    2.449      70.059
2015    4        4     4  35    4.3250   699.0    2.449      70.050
2015    4        4     4  41    4.3236   699.0    2.449      70.041
2015    4        4     4  47    4.3222   698.9    2.448      70.032
2015    4        4     4  53    4.3208   698.9    2.448      70.025
2015    4        4     4  58    4.3194   698.8    2.448      70.017
2015    4        4     5   4    4.3179   698.8    2.448      70.010
2015    4        4     5  10    4.3165   698.8    2.448      70.003
2015    4        4     5  16    4.3151   698.7    2.447      69.996
2015    4        4     5  21    4.3137   698.7    2.447      69.990
2015    4        4     5  27    4.3123   698.6    2.447      69.984
2015    4        4     5  33    4.3109   698.6    2.447      69.977
2015    4        4     5  39    4.3094   698.6    2.447      69.970
2015    4        4     5  45    4.3080   698.5    2.447      69.964
2015    4        4     5  50    4.3066   698.5    2.447      69.957
2015    4        4     5  56    4.3052   698.5    2.447      69.950
2015    4        4     6   2    4.3037   698.4    2.447      69.942
2015    4        4     6   8    4.3023   698.4    2.447      69.935
2015    4        4     6  13    4.3009   698.3    2.447      69.927
2015    4        4     6  19    4.2994   698.3    2.447      69.919
2015    4        4     6  25    4.2980   698.3    2.447      69.911
2015    4        4     6  31    4.2966   698.2    2.447      69.903
2015    4        4     6  36    4.2951   698.2    2.447      69.894
2015    4        4     6  42    4.2937   698.1    2.447      69.886
2015    4        4     6  48    4.2923   698.1    2.447      69.878
2015    4        4     6  54    4.2909   698.0    2.447      69.870
2015    4        4     6  59    4.2894   698.0    2.447      69.862
2015    4        4     7   5    4.2880   698.0    2.446      69.854
2015    4        4     7  11    4.2866   697.9    2.446      69.847
2015    4        4     7  17    4.2852   697.9    2.446      69.840
2015    4        4     7  22    4.2838   697.8    2.446      69.833
2015    4        4     7  28    4.2824   697.8    2.446      69.826
2015    4        4     7  34    4.2810   697.7    2.446      69.818
2015    4        4     7  40    4.2796   697.7    2.446      69.811
2015    4        4     7  45    4.2782   697.7    2.446      69.803
2015    4        4     7  51    4.2768   697.6    2.446      69.795
2015    4        4     7  57    4.2754   697.6    2.446      69.786
2015    4        4     8   3    4.2739   697.5    2.446      69.777
2015    4        4     8   8    4.2725   697.5    2.446      69.768
2015    4        4     8  14    4.2710   697.5    2.445      69.758
2015    4        4     8  20    4.2696   697.4    2.445      69.748
2015    4        4     8  26    4.2681   697.4    2.445      69.737
2015    4        4     8  32    4.2666   697.3    2.444      69.724
2015    4        4     8  37    4.2652   697.3    2.444      69.709
2015    4        4     8  43    4.2637   697.2    2.443      69.694
2015    4        4     8  49    4.2622   697.2    2.443      69.677
2015    4        4     8  55    4.2607   697.2    2.442      69.659
2015    4        4     9   0    4.2592   697.1    2.441      69.640
2015    4        4     9   6    4.2577   697.1    2.441      69.620
2015    4        4     9  12    4.2562   697.0    2.440      69.599
2015    4        4     9  18    4.2548   697.0    2.439      69.576
2015    4        4     9  23    4.2533   696.9    2.438      69.553
2015    4        4     9  29    4.2518   696.9    2.437      69.530
2015    4        4     9  35    4.2503   696.8    2.436      69.505
2015    4        4     9  41    4.2488   696.8    2.436      69.479
2015    4        4     9  46    4.2473   696.7    2.435      69.453
2015    4        4     9  52    4.2458   696.7    2.434      69.426
2015    4        4     9  58    4.2443   696.6    2.433      69.398
2015    4        4    10   4    4.2428   696.6    2.432      69.369
2015    4        4    10   9    4.2412   696.5    2.431      69.340
2015    4        4    10  15    4.2397   696.4    2.430      69.309
2015    4        4    10  21    4.2382   696.4    2.429      69.279
2015    4        4    10  27    4.2367   696.3    2.428      69.248
2015    4        4    10  32    4.2352   696.3    2.427      69.216
2015    4        4    10  38    4.2337   696.2    2.425      69.184
2015    4        4    10  44    4.2322   696.1    2.424      69.152
2015    4        4    10  50    4.2307   696.0    2.423      69.121
2015    4        4    10  55    4.2292   696.0    2.422      69.089
2015    4        4    11   1    4.2277   695.9    2.421      69.058
2015    4        4    11   7    4.2262   695.8    2.420      69.027
2015    4        4    11  13    4.2247   695.7    2.420      68.997
2015    4        4    11  18    4.2233   695.7    2.419      68.968
2015    4        4    11  24    4.2218   695.6    2.418      68.940
2015    4        4    11  30    4.2204   695.5    2.417      68.913
2015    4        4    11  36    4.2190   695.4    2.417      68.887
2015    4        4    11  41    4.2176   695.4    2.416      68.862
2015    4        4    11  47    4.2162   695.3    2.415      68.839
2015    4        4    11  53    4.2149   695.2    2.415      68.816
2015    4        4    11  59    4.2135   695.1    2.414      68.795
2015    4        4    12   5    4.2122   695.0    2.414      68.775
2015    4        4    12  10    4.2108   695.0    2.414      68.755
2015    4        4    12  16    4.2095   694.9    2.413      68.737
2015    4        4    12  22    4.2082   694.8    2.413      68.719
2015    4        4    12  28    4.2068   694.7    2.413      68.702
2015    4        4    12  33    4.2055   694.7    2.413      68.686
2015    4        4    12  39    4.2042   694.6    2.413      68.670
2015    4        4    12  45    4.2028   694.5    2.413      68.654
2015    4        4    12  51    4.2015   694.4    2.412      68.639
2015    4        4    12  56    4.2001   694.4    2.412      68.625
2015    4        4    13   2    4.1988   694.3    2.412      68.610
2015    4        4    13   8    4.1974   694.2    2.412      68.596
2015    4        4    13  14    4.1960   694.1    2.412      68.583
2015    4        4    13  19    4.1947   694.1    2.412      68.569
2015    4        4    13  25    4.1933   694.0    2.412      68.556
2015    4        4    13  31    4.1919   693.9    2.412      68.543
2015    4        4    13  37    4.1905   693.8    2.412      68.530
2015    4        4    13  42    4.1891   693.8    2.413      68.517
2015    4        4    13  48    4.1877   693.7    2.413      68.505
2015    4        4    13  54    4.1863   693.6    2.413      68.493
2015    4        4    14   0    4.1849   693.5    2.413      68.482
2015    4        4    14   5    4.1834   693.5    2.413      68.471
2015    4        4    14  11    4.1820   693.4    2.413      68.460
2015    4        4    14  17    4.1806   693.3    2.414      68.450
2015    4        4    14  23    4.1792   693.2    2.414      68.440
2015    4        4    14  28    4.1778   693.2    2.414      68.430
2015    4        4    14  34    4.1764   693.1    2.415      68.421
2015    4        4    14  40    4.1749   693.0    2.415      68.412
2015    4        4    14  46    4.1735   692.9    2.415      68.403
2015    4        4    14  52    4.1721   692.9    2.416      68.394
2015    4        4    14  57    4.1707   692.8    2.416      68.385
2015    4        4    15   3    4.1692   692.7    2.416      68.375
2015    4        4    15   9    4.1678   692.6    2.417      68.365
2015    4        4    15  15    4.1664   692.6    2.417      68.356
2015    4        4    15  20    4.1650   692.5    2.418      68.346
2015    4        4    15  26    4.1635   692.4    2.418      68.337
2015    4        4    15  32    4.1621   692.3    2.419      68.328
2015    4        4    15  38    4.1607   692.3    2.419      68.319
2015    4        4    15  43    4.1593   692.2    2.420      68.310
2015    4        4    15  49    4.1579   692.1    2.420      68.301
2015    4        4    15  55    4.1565   692.0    2.421      68.292
2015    4        4    16   1    4.1551   692.0    2.421      68.284
2015    4        4    16   6    4.1536   691.9    2.422      68.276
2015    4        4    16  12    4.1522   691.8    2.422      68.268
2015    4        4    16  18    4.1508   691.7    2.422      68.260
2015    4        4    16  24    4.1494   691.7    2.422      68.250
2015    4        4    16  29    4.1479   691.6    2.423      68.239
2015    4        4    16  35    4.1465   691.5    2.423      68.226
2015    4        4    16  41    4.1450   691.5    2.423      68.212
2015    4        4    16  47    4.1436   691.4    2.423      68.198
2015    4        4    16  52    4.1421   691.3    2.422      68.181
2015    4        4    16  58    4.1407   691.2    2.422      68.164
2015    4        4    17   4    4.1393   691.2    2.422      68.146
2015    4        4    17  10    4.1378   691.1    2.422      68.127
2015    4        4    17  15    4.1364   691.0    2.422      68.106
2015    4        4    17  21    4.1349   691.0    2.421      68.085
2015    4        4    17  27    4.1335   690.9    2.421      68.063
2015    4        4    17  33    4.1320   690.8    2.420      68.040
2015    4        4    17  39    4.1306   690.7    2.420      68.016
2015    4        4    17  44    4.1292   690.7    2.420      67.991
2015    4        4    17  50    4.1277   690.6    2.419      67.965
2015    4        4    17  56    4.1263   690.5    2.419      67.939
2015    4        4    18   2    4.1249   690.4    2.418      67.912
2015    4        4    18   7    4.1234   690.3    2.417      67.884
2015    4        4    18  13    4.1220   690.3    2.417      67.855
2015    4        4    18  19    4.1206   690.2    2.416      67.826
2015    4        4    18  25    4.1192   690.1    2.416      67.796
2015    4        4    18  30    4.1178   690.0    2.415      67.766
2015    4        4    18  36    4.1164   689.9    2.414      67.736
2015    4        4    18  42    4.1150   689.8    2.414      67.705
2015    4        4    18  48    4.1136   689.8    2.413      67.674
2015    4        4    18  53    4.1122   689.7    2.412      67.643
2015    4        4    18  59    4.1108   689.6    2.412      67.611
2015    4        4    19   5    4.1094   689.5    2.411      67.579
2015    4        4    19  11    4.1081   689.4    2.411      67.547
2015    4        4    19  16    4.1067   689.3    2.410      67.514
2015    4        4    19  22    4.1053   689.2    2.409      67.482
2015    4        4    19  28    4.1039   689.1    2.409      67.449
2015    4        4    19  34    4.1026   689.0    2.408      67.415
2015    4        4    19  39    4.1012   688.9    2.407      67.382
2015    4        4    19  45    4.0998   688.8    2.407      67.348
2015    4        4    19  51    4.0984   688.7    2.406      67.314
2015    4        4    19  57    4.0970   688.6    2.406      67.280
2015    4        4    20   2    4.0957   688.5    2.405      67.246
2015    4        4    20   8    4.0943   688.4    2.404      67.212
2015    4        4    20  14    4.0929   688.3    2.404      67.178
2015    4        4    20  20    4.0915   688.2    2.403      67.143
2015    4        4    20  25    4.0901   688.1    2.402      67.109
2015    4        4    20  31    4.0887   688.0    2.402      67.075
2015    4        4    20  37    4.0873   687.8    2.401      67.041
2015    4        4    20  43    4.0859   687.7    2.401      67.008
2015    4        4    20  49    4.0846   687.6    2.400      66.974
2015    4        4    20  54    4.0832   687.5    2.400      66.941
2015    4        4    21   0    4.0818   687.4    2.399      66.909
2015    4        4    21   6    4.0804   687.2    2.399      66.877
2015    4        4    21  12    4.0790   687.1    2.398      66.845
2015    4        4    21  17    4.0777   687.0    2.398      66.814
2015    4        4    21  23    4.0763   686.9    2.398      66.783
2015    4        4    21  29    4.0750   686.8    2.397      66.752
2015    4        4    21  35    4.0736   686.6    2.397      66.722
2015    4        4    21  40    4.0723   686.5    2.397      66.693
2015    4        4    21  46    4.0709   686.4    2.397      66.664
2015    4        4    21  52    4.0695   686.3    2.397      66.635
2015    4        4    21  58    4.0682   686.1    2.397      66.608
2015    4        4    22   3    4.0669   686.0    2.397      66.580
2015    4        4    22   9    4.0655   685.9    2.397      66.553
2015    4        4    22  15    4.0642   685.8    2.397      66.527
2015    4        4    22  21    4.0629   685.6    2.397      66.501
2015    4        4    22  26    4.0616   685.5    2.397      66.476
2015    4        4    22  32    4.0602   685.4    2.398      66.451
2015    4        4    22  38    4.0589   685.3    2.398      66.427
2015    4        4    22  44    4.0576   685.1    2.399      66.404
2015    4        4    22  49    4.0563   685.0    2.399      66.383
2015    4        4    22  55    4.0550   684.9    2.400      66.362
2015    4        4    23   1    4.0537   684.8    2.400      66.343
2015    4        4    23   7    4.0524   684.7    2.401      66.325
2015    4        4    23  12    4.0511   684.5    2.402      66.308
2015    4        4    23  18    4.0498   684.4    2.403      66.292
2015    4        4    23  24    4.0485   684.3    2.403      66.278
2015    4        4    23  30    4.0472   684.2    2.404      66.264
2015    4        4    23  36    4.0458   684.1    2.405      66.252
2015    4        4    23  41    4.0445   683.9    2.406      66.240
2015    4        4    23  47    4.0431   683.8    2.407      66.227
2015    4        4    23  53    4.0418   683.7    2.407      66.213
2015    4        4    23  59    4.0404   683.6    2.408      66.199
2015    4        5     0   4    4.0390   683.5    2.409      66.184
2015    4        5     0  10    4.0376   683.4    2.409      66.169
2015    4        5     0  16    4.0362   683.2    2.410      66.154
2015    4        5     0  22    4.0348   683.1    2.411      66.139
2015    4        5     0  27    4.0334   683.0    2.412      66.124
2015    4        5     0  33    4.0320   682.9    2.412      66.109
2015    4        5     0  39    4.0306   682.8    2.413      66.094
2015    4        5     0  45    4.0293   682.6    2.414      66.079
2015    4        5     0  50    4.0279   682.5    2.414      66.065
2015    4        5     0  56    4.0265   682.4    2.415      66.051
2015    4        5     1   2    4.0252   682.3    2.416      66.036
2015    4        5     1   8    4.0238   682.2    2.416      66.022
2015    4        5     1  13    4.0225   682.1    2.417      66.009
2015    4        5     1  19    4.0211   681.9    2.417      65.996
2015    4        5     1  25    4.0198   681.8    2.418      65.982
2015    4        5     1  31    4.0185   681.7    2.418      65.968
2015    4        5     1  36    4.0172   681.6    2.419      65.952
2015    4        5     1  42    4.0159   681.5    2.419      65.934
2015    4        5     1  48    4.0145   681.4    2.419      65.915
2015    4        5     1  54    4.0132   681.3    2.419      65.894
2015    4        5     1  59    4.0118   681.2    2.419      65.872
2015    4        5     2   5    4.0105   681.1    2.419      65.848
2015    4        5     2  11    4.0091   681.0    2.419      65.824
2015    4        5     2  17    4.0077   680.9    2.419      65.797
2015    4        5     2  22    4.0063   680.7    2.419      65.770
2015    4        5     2  28    4.0049   680.6    2.419      65.742
2015    4        5     2  34    4.0035   680.5    2.419      65.712
2015    4        5     2  40    4.0021   680.4    2.419      65.681
2015    4        5     2  45    4.0007   680.3    2.419      65.650
2015    4        5     2  51    3.9993   680.2    2.418      65.617
2015    4        5     2  57    3.9979   680.1    2.418      65.584
2015    4        5     3   3    3.9965   679.9    2.418      65.549
2015    4        5     3   9    3.9950   679.8    2.417      65.515
2015    4        5     3  14    3.9936   679.7    2.417      65.479
2015    4        5     3  20    3.9922   679.6    2.417      65.443
2015    4        5     3  26    3.9908   679.5    2.416      65.407
2015    4        5     3  32    3.9894   679.3    2.416      65.370
2015    4        5     3  37    3.9880   679.2    2.415      65.333
2015    4        5     3  43    3.9866   679.1    2.415      65.296
2015    4        5     3  49    3.9852   679.0    2.414      65.258
2015    4        5     3  55    3.9838   678.8    2.414      65.220
2015    4        5     4   0    3.9824   678.7    2.414      65.182
2015    4        5     4   6    3.9810   678.6    2.413      65.144
2015    4        5     4  12    3.9796   678.4    2.413      65.106
2015    4        5     4  18    3.9782   678.3    2.412      65.067
2015    4        5     4  23    3.9768   678.1    2.412      65.029
2015    4        5     4  29    3.9755   678.0    2.412      64.991
2015    4        5     4  35    3.9741   677.8    2.411      64.953
2015    4        5     4  41    3.9728   677.7    2.411      64.915
2015    4        5     4  46    3.9714   677.6    2.410      64.877
2015    4        5     4  52    3.9701   677.4    2.410      64.840
2015    4        5     4  58    3.9687   677.3    2.410      64.803
2015    4        5     5   4    3.9674   677.1    2.410      64.766
2015    4        5     5   9    3.9661   676.9    2.409      64.729
2015    4        5     5  15    3.9648   676.8    2.409      64.693
2015    4        5     5  21    3.9635   676.6    2.409      64.657
2015    4        5     5  27    3.9622   676.5    2.409      64.621
2015    4        5     5  32    3.9609   676.3    2.409      64.585
2015    4        5     5  38    3.9596   676.2    2.409      64.550
2015    4        5     5  44    3.9584   676.0    2.409      64.515
2015    4        5     5  50    3.9571   675.9    2.409      64.480
2015    4        5     5  56    3.9558   675.7    2.409      64.445
2015    4        5     6   1    3.9545   675.6    2.408      64.409
2015    4        5     6   7    3.9532   675.4    2.408      64.374
2015    4        5     6  13    3.9519   675.3    2.408      64.338
2015    4        5     6  19    3.9505   675.1    2.408      64.301
2015    4        5     6  24    3.9492   674.9    2.408      64.265
2015    4        5     6  30    3.9479   674.8    2.408      64.228
2015    4        5     6  36    3.9465   674.6    2.408      64.190
2015    4        5     6  42    3.9452   674.4    2.408      64.153
2015    4        5     6  47    3.9438   674.3    2.408      64.115
2015    4        5     6  53    3.9425   674.1    2.408      64.078
2015    4        5     6  59    3.9411   674.0    2.408      64.041
2015    4        5     7   5    3.9397   673.8    2.409      64.004
2015    4        5     7  10    3.9383   673.6    2.409      63.967
2015    4        5     7  16    3.9369   673.5    2.409      63.930
2015    4        5     7  22    3.9355   673.3    2.409      63.893
2015    4        5     7  28    3.9341   673.1    2.409      63.857
2015    4        5     7  33    3.9327   673.0    2.409      63.821
2015    4        5     7  39    3.9313   672.8    2.410      63.785
2015    4        5     7  45    3.9299   672.6    2.410      63.749
2015    4        5     7  51    3.9285   672.4    2.410      63.714
2015    4        5     7  56    3.9271   672.3    2.411      63.680
2015    4        5     8   2    3.9257   672.1    2.411      63.646
2015    4        5     8   8    3.9243   671.9    2.412      63.614
2015    4        5     8  14    3.9229   671.7    2.412      63.582
2015    4        5     8  19    3.9216   671.5    2.413      63.551
2015    4        5     8  25    3.9202   671.4    2.413      63.522
2015    4        5     8  31    3.9189   671.2    2.414      63.494
2015    4        5     8  37    3.9176   671.0    2.415      63.467
2015    4        5     8  42    3.9163   670.8    2.415      63.441
2015    4        5     8  48    3.9150   670.7    2.416      63.416
2015    4        5     8  54    3.9137   670.5    2.417      63.390
2015    4        5     9   0    3.9125   670.3    2.417      63.364
2015    4        5     9   6    3.9112   670.1    2.418      63.338
2015    4        5     9  11    3.9099   670.0    2.419      63.312
2015    4        5     9  17    3.9087   669.8    2.420      63.286
2015    4        5     9  23    3.9074   669.6    2.420      63.259
2015    4        5     9  29    3.9061   669.4    2.421      63.233
2015    4        5     9  34    3.9049   669.3    2.422      63.207
2015    4        5     9  40    3.9036   669.1    2.423      63.181
2015    4        5     9  46    3.9024   668.9    2.424      63.155
2015    4        5     9  52    3.9011   668.8    2.425      63.129
2015    4        5     9  57    3.8998   668.6    2.425      63.103
2015    4        5    10   3    3.8985   668.4    2.426      63.077
2015    4        5    10   9    3.8972   668.2    2.427      63.051
2015    4        5    10  15    3.8960   668.1    2.428      63.025
2015    4        5    10  20    3.8947   667.9    2.429      62.999
2015    4        5    10  26    3.8934   667.7    2.429      62.973
2015    4        5    10  32    3.8921   667.5    2.430      62.947
2015    4        5    10  38    3.8908   667.4    2.431      62.921
2015    4        5    10  43    3.8895   667.2    2.431      62.895
2015    4        5    10  49    3.8882   667.0    2.432      62.868
2015    4        5    10  55    3.8869   666.8    2.432      62.842
2015    4        5    11   1    3.8857   666.7    2.433      62.816
2015    4        5    11   6    3.8844   666.5    2.433      62.789
2015    4        5    11  12    3.8831   666.3    2.434      62.762
2015    4        5    11  18    3.8818   666.1    2.434      62.733
2015    4        5    11  24    3.8804   666.0    2.435      62.705
2015    4        5    11  29    3.8791   665.8    2.435      62.675
2015    4        5    11  35    3.8778   665.6    2.435      62.644
2015    4        5    11  41    3.8765   665.4    2.436      62.613
2015    4        5    11  47    3.8751   665.3    2.436      62.581
2015    4        5    11  53    3.8738   665.1    2.436      62.549
2015    4        5    11  58    3.8725   664.9    2.437      62.517
2015    4        5    12   4    3.8711   664.7    2.437      62.484
2015    4        5    12  10    3.8698   664.5    2.437      62.451
2015    4        5    12  16    3.8685   664.4    2.438      62.418
2015    4        5    12  21    3.8671   664.2    2.438      62.386
2015    4        5    12  27    3.8658   664.0    2.438      62.353
2015    4        5    12  33    3.8645   663.8    2.438      62.320
2015    4        5    12  39    3.8631   663.6    2.439      62.287
2015    4        5    12  44    3.8618   663.5    2.439      62.255
2015    4        5    12  50    3.8605   663.3    2.439      62.222
2015    4        5    12  56    3.8591   663.1    2.440      62.190
2015    4        5    13   2    3.8578   662.9    2.440      62.157
2015    4        5    13   7    3.8565   662.7    2.440      62.124
2015    4        5    13  13    3.8551   662.5    2.440      62.091
2015    4        5    13  19    3.8538   662.4    2.441      62.058
2015    4        5    13  25    3.8524   662.2    2.441      62.024
2015    4        5    13  30    3.8510   662.0    2.441      61.989
2015    4        5    13  36    3.8497   661.8    2.442      61.954
2015    4        5    13  42    3.8483   661.6    2.442      61.919
2015    4        5    13  48    3.8470   661.4    2.442      61.882
2015    4        5    13  53    3.8456   661.2    2.442      61.845
2015    4        5    13  59    3.8442   661.0    2.442      61.808
2015    4        5    14   5    3.8429   660.8    2.443      61.771
2015    4        5    14  11    3.8415   660.6    2.443      61.733
2015    4        5    14  16    3.8402   660.5    2.443      61.695
2015    4        5    14  22    3.8388   660.3    2.443      61.657
2015    4        5    14  28    3.8375   660.1    2.444      61.618
2015    4        5    14  34    3.8361   659.9    2.444      61.579
2015    4        5    14  40    3.8347   659.7    2.444      61.539
2015    4        5    14  45    3.8333   659.5    2.444      61.499
2015    4        5    14  51    3.8319   659.3    2.444      61.459
2015    4        5    14  57    3.8305   659.1    2.444      61.418
2015    4        5    15   3    3.8291   658.9    2.444      61.376
2015    4        5    15   8    3.8277   658.7    2.444      61.334
2015    4        5    15  14    3.8263   658.5    2.444      61.291
2015    4        5    15  20    3.8249   658.2    2.444      61.248
2015    4        5    15  26    3.8235   658.0    2.444      61.204
2015    4        5    15  31    3.8221   657.8    2.444      61.159
2015    4        5    15  37    3.8207   657.6    2.444      61.114
2015    4        5    15  43    3.8193   657.4    2.445      61.069
2015    4        5    15  49    3.8180   657.2    2.445      61.023
2015    4        5    15  54    3.8166   656.9    2.445      60.978
2015    4        5    16   0    3.8152   656.7    2.445      60.932
2015    4        5    16   6    3.8139   656.5    2.445      60.887
2015    4        5    16  12    3.8126   656.3    2.445      60.842
2015    4        5    16  17    3.8113   656.0    2.446      60.797
2015    4        5    16  23    3.8100   655.8    2.446      60.753
2015    4        5    16  29    3.8087   655.6    2.446      60.709
2015    4        5    16  35    3.8074   655.3    2.447      60.666
2015    4        5    16  40    3.8061   655.1    2.447      60.623
2015    4        5    16  46    3.8048   654.9    2.448      60.580
2015    4        5    16  52    3.8035   654.6    2.448      60.538
2015    4        5    16  58    3.8022   654.4    2.449      60.495
2015    4        5    17   3    3.8009   654.2    2.450      60.453
2015    4        5    17   9    3.7996   653.9    2.450      60.411
2015    4        5    17  15    3.7983   653.7    2.451      60.370
2015    4        5    17  21    3.7971   653.4    2.452      60.329
2015    4        5    17  26    3.7958   653.2    2.452      60.288
2015    4        5    17  32    3.7945   652.9    2.453      60.248
2015    4        5    17  38    3.7933   652.7    2.454      60.209
2015    4        5    17  44    3.7921   652.4    2.455      60.170
2015    4        5    17  50    3.7908   652.2    2.456      60.133
2015    4        5    17  55    3.7896   651.9    2.457      60.097
2015    4        5    18   1    3.7885   651.6    2.458      60.062
2015    4        5    18   7    3.7874   651.4    2.459      60.029
2015    4        5    18  13    3.7863   651.1    2.460      59.997
2015    4        5    18  18    3.7852   650.9    2.461      59.966
2015    4        5    18  24    3.7841   650.6    2.463      59.936
2015    4        5    18  30    3.7831   650.4    2.464      59.907
2015    4        5    18  36    3.7821   650.1    2.465      59.879
2015    4        5    18  41    3.7811   649.9    2.467      59.852
2015    4        5    18  47    3.7800   649.7    2.468      59.824
2015    4        5    18  53    3.7790   649.4    2.470      59.797
2015    4        5    18  59    3.7779   649.2    2.471      59.770
2015    4        5    19   4    3.7768   648.9    2.473      59.742
2015    4        5    19  10    3.7757   648.7    2.474      59.715
2015    4        5    19  16    3.7746   648.5    2.476      59.687
2015    4        5    19  22    3.7735   648.2    2.477      59.659
2015    4        5    19  27    3.7723   648.0    2.478      59.632
2015    4        5    19  33    3.7712   647.8    2.479      59.604
2015    4        5    19  39    3.7700   647.5    2.481      59.576
2015    4        5    19  45    3.7688   647.3    2.482      59.547
2015    4        5    19  50    3.7676   647.0    2.483      59.517
2015    4        5    19  56    3.7664   646.8    2.484      59.486
2015    4        5    20   2    3.7652   646.6    2.485      59.455
2015    4        5    20   8    3.7640   646.3    2.486      59.424
2015    4        5    20  13    3.7628   646.1    2.487      59.391
2015    4        5    20  19    3.7616   645.8    2.488      59.358
2015    4        5    20  25    3.7604   645.6    2.489      59.325
2015    4        5    20  31    3.7592   645.4    2.490      59.291
2015    4        5    20  37    3.7580   645.1    2.491      59.257
2015    4        5    20  42    3.7567   644.9    2.492      59.222
2015    4        5    20  48    3.7555   644.7    2.493      59.187
2015    4        5    20  54    3.7543   644.4    2.494      59.152
2015    4        5    21   0    3.7531   644.2    2.495      59.116
2015    4        5    21   5    3.7518   643.9    2.496      59.081
2015    4        5    21  11    3.7506   643.7    2.497      59.045
2015    4        5    21  17    3.7494   643.5    2.498      59.009
2015    4        5    21  23    3.7482   643.2    2.499      58.973
2015    4        5    21  28    3.7469   643.0    2.500      58.937
2015    4        5    21  34    3.7457   642.7    2.501      58.901
2015    4        5    21  40    3.7445   642.5    2.502      58.864
2015    4        5    21  46    3.7432   642.3    2.502      58.828
2015    4        5    21  51    3.7420   642.0    2.503      58.792
2015    4        5    21  57    3.7407   641.8    2.504      58.755
2015    4        5    22   3    3.7395   641.5    2.505      58.719
2015    4        5    22   9    3.7382   641.3    2.506      58.683
2015    4        5    22  14    3.7369   641.0    2.507      58.647
2015    4        5    22  20    3.7357   640.8    2.508      58.611
2015    4        5    22  26    3.7344   640.5    2.509      58.574
2015    4        5    22  32    3.7332   640.3    2.510      58.538
2015    4        5    22  37    3.7320   640.0    2.511      58.502
2015    4        5    22  43    3.7308   639.8    2.512      58.465
2015    4        5    22  49    3.7296   639.5    2.513      58.429
2015    4        5    22  55    3.7283   639.3    2.514      58.392
2015    4        5    23   0    3.7272   639.0    2.515      58.355
2015    4        5    23   6    3.7260   638.7    2.515      58.318
2015    4        5    23  12    3.7249   638.5    2.516      58.280
2015    4        5    23  18    3.7237   638.2    2.517      58.241
2015    4        5    23  23    3.7226   638.0    2.518      58.203
2015    4        5    23  29    3.7214   637.7    2.519      58.163
2015    4        5    23  35    3.7203   637.4    2.520      58.124
2015    4        5    23  41    3.7191   637.2    2.521      58.083
2015    4        5    23  46    3.7180   636.9    2.522      58.042
2015    4        5    23  52    3.7168   636.7    2.523      58.001
2015    4        5    23  58    3.7156   636.4    2.524      57.959
2015    4        6     0   4    3.7145   636.1    2.524      57.916
