year    month   day   hour  minute  B_enl V_enl   n_enl       T_enl
[year] [month] [day] [hour][minute] [nT]  [km/s]  [cm-3]      [kK]
2015    3        3     0   0    4.4451   471.6    4.585      32.962
2015    3        3     0   6    4.4471   471.4    4.592      32.939
2015    3        3     0  11    4.4491   471.2    4.599      32.917
2015    3        3     0  17    4.4512   471.0    4.605      32.896
2015    3        3     0  22    4.4532   470.8    4.612      32.874
2015    3        3     0  27    4.4553   470.6    4.619      32.852
2015    3        3     0  33    4.4573   470.4    4.625      32.831
2015    3        3     0  38    4.4594   470.2    4.632      32.810
2015    3        3     0  44    4.4615   470.0    4.639      32.789
2015    3        3     0  49    4.4636   469.8    4.645      32.768
2015    3        3     0  54    4.4657   469.6    4.652      32.747
2015    3        3     1   0    4.4678   469.4    4.659      32.727
2015    3        3     1   5    4.4700   469.2    4.665      32.707
2015    3        3     1  11    4.4721   469.0    4.672      32.686
2015    3        3     1  16    4.4742   468.8    4.679      32.666
2015    3        3     1  21    4.4763   468.6    4.685      32.647
2015    3        3     1  27    4.4785   468.4    4.692      32.627
2015    3        3     1  32    4.4807   468.2    4.699      32.608
2015    3        3     1  38    4.4829   468.0    4.706      32.589
2015    3        3     1  43    4.4852   467.9    4.712      32.569
2015    3        3     1  48    4.4873   467.7    4.719      32.551
2015    3        3     1  54    4.4895   467.5    4.726      32.532
2015    3        3     1  59    4.4918   467.3    4.733      32.514
2015    3        3     2   5    4.4940   467.1    4.740      32.496
2015    3        3     2  10    4.4963   466.9    4.747      32.478
2015    3        3     2  15    4.4986   466.7    4.753      32.460
2015    3        3     2  21    4.5009   466.5    4.760      32.443
2015    3        3     2  26    4.5032   466.3    4.767      32.425
2015    3        3     2  32    4.5055   466.2    4.774      32.408
2015    3        3     2  37    4.5079   466.0    4.781      32.391
2015    3        3     2  42    4.5102   465.8    4.788      32.375
2015    3        3     2  48    4.5126   465.6    4.795      32.358
2015    3        3     2  53    4.5150   465.4    4.802      32.342
2015    3        3     2  59    4.5174   465.2    4.808      32.326
2015    3        3     3   4    4.5198   465.0    4.815      32.310
2015    3        3     3   9    4.5223   464.9    4.822      32.295
2015    3        3     3  15    4.5247   464.7    4.829      32.279
2015    3        3     3  20    4.5272   464.5    4.836      32.264
2015    3        3     3  26    4.5297   464.3    4.843      32.249
2015    3        3     3  31    4.5322   464.1    4.850      32.234
2015    3        3     3  36    4.5347   464.0    4.857      32.219
2015    3        3     3  42    4.5373   463.8    4.864      32.205
2015    3        3     3  47    4.5400   463.6    4.870      32.190
2015    3        3     3  53    4.5424   463.4    4.877      32.176
2015    3        3     3  58    4.5450   463.2    4.884      32.162
2015    3        3     4   3    4.5477   463.1    4.891      32.148
2015    3        3     4   9    4.5503   462.9    4.898      32.135
2015    3        3     4  14    4.5530   462.7    4.905      32.121
2015    3        3     4  20    4.5556   462.5    4.911      32.108
2015    3        3     4  25    4.5583   462.4    4.918      32.094
2015    3        3     4  30    4.5610   462.2    4.925      32.081
2015    3        3     4  36    4.5639   462.0    4.932      32.068
2015    3        3     4  41    4.5665   461.8    4.939      32.056
2015    3        3     4  47    4.5693   461.7    4.945      32.043
2015    3        3     4  52    4.5721   461.5    4.952      32.031
2015    3        3     4  57    4.5749   461.3    4.959      32.018
2015    3        3     5   3    4.5777   461.2    4.966      32.006
2015    3        3     5   8    4.5805   461.0    4.972      31.994
2015    3        3     5  14    4.5834   460.8    4.979      31.982
2015    3        3     5  19    4.5862   460.7    4.986      31.970
2015    3        3     5  24    4.5891   460.5    4.993      31.959
2015    3        3     5  30    4.5920   460.3    4.999      31.947
2015    3        3     5  35    4.5950   460.2    5.006      31.936
2015    3        3     5  41    4.5979   460.0    5.013      31.925
2015    3        3     5  46    4.6008   459.8    5.019      31.914
2015    3        3     5  51    4.6038   459.7    5.026      31.903
2015    3        3     5  57    4.6068   459.5    5.033      31.892
2015    3        3     6   2    4.6098   459.3    5.040      31.881
2015    3        3     6   8    4.6128   459.2    5.046      31.871
2015    3        3     6  13    4.6158   459.0    5.053      31.860
2015    3        3     6  18    4.6188   458.9    5.060      31.850
2015    3        3     6  24    4.6219   458.7    5.066      31.840
2015    3        3     6  29    4.6249   458.6    5.073      31.830
2015    3        3     6  35    4.6280   458.4    5.080      31.820
2015    3        3     6  40    4.6310   458.2    5.087      31.810
2015    3        3     6  45    4.6341   458.1    5.093      31.801
2015    3        3     6  51    4.6372   457.9    5.100      31.791
2015    3        3     6  56    4.6403   457.8    5.107      31.782
2015    3        3     7   1    4.6434   457.6    5.114      31.773
2015    3        3     7   7    4.6466   457.5    5.120      31.764
2015    3        3     7  12    4.6497   457.3    5.127      31.755
2015    3        3     7  18    4.6529   457.2    5.134      31.746
2015    3        3     7  23    4.6560   457.0    5.141      31.738
2015    3        3     7  28    4.6592   456.9    5.148      31.730
2015    3        3     7  34    4.6624   456.7    5.155      31.721
2015    3        3     7  39    4.6656   456.6    5.162      31.713
2015    3        3     7  45    4.6688   456.5    5.169      31.706
2015    3        3     7  50    4.6720   456.3    5.176      31.698
2015    3        3     7  55    4.6753   456.2    5.183      31.691
2015    3        3     8   1    4.6785   456.0    5.190      31.684
2015    3        3     8   6    4.6818   455.9    5.197      31.677
2015    3        3     8  12    4.6850   455.8    5.204      31.670
2015    3        3     8  17    4.6883   455.6    5.212      31.663
2015    3        3     8  22    4.6916   455.5    5.219      31.657
2015    3        3     8  28    4.6949   455.3    5.226      31.651
2015    3        3     8  33    4.6982   455.2    5.234      31.645
2015    3        3     8  39    4.7015   455.1    5.241      31.639
2015    3        3     8  44    4.7049   454.9    5.248      31.634
2015    3        3     8  49    4.7082   454.8    5.256      31.629
2015    3        3     8  55    4.7116   454.7    5.263      31.624
2015    3        3     9   0    4.7149   454.6    5.271      31.619
2015    3        3     9   6    4.7183   454.4    5.278      31.615
2015    3        3     9  11    4.7217   454.3    5.286      31.611
2015    3        3     9  16    4.7251   454.2    5.293      31.608
2015    3        3     9  22    4.7286   454.1    5.301      31.605
2015    3        3     9  27    4.7320   453.9    5.308      31.602
2015    3        3     9  33    4.7355   453.8    5.316      31.600
2015    3        3     9  38    4.7389   453.7    5.323      31.598
2015    3        3     9  43    4.7424   453.6    5.330      31.597
2015    3        3     9  49    4.7458   453.4    5.338      31.596
2015    3        3     9  54    4.7493   453.3    5.345      31.595
2015    3        3    10   0    4.7528   453.2    5.352      31.595
2015    3        3    10   5    4.7563   453.1    5.359      31.595
2015    3        3    10  10    4.7599   453.0    5.366      31.596
2015    3        3    10  16    4.7634   452.8    5.373      31.597
2015    3        3    10  21    4.7669   452.7    5.380      31.598
2015    3        3    10  27    4.7705   452.6    5.387      31.599
2015    3        3    10  32    4.7740   452.5    5.394      31.600
2015    3        3    10  37    4.7775   452.4    5.400      31.602
2015    3        3    10  43    4.7811   452.3    5.407      31.603
2015    3        3    10  48    4.7847   452.2    5.414      31.605
2015    3        3    10  54    4.7883   452.0    5.420      31.607
2015    3        3    10  59    4.7919   451.9    5.427      31.608
2015    3        3    11   4    4.7955   451.8    5.433      31.610
2015    3        3    11  10    4.7991   451.7    5.440      31.612
2015    3        3    11  15    4.8027   451.6    5.446      31.613
2015    3        3    11  21    4.8063   451.5    5.453      31.615
2015    3        3    11  26    4.8100   451.4    5.459      31.616
2015    3        3    11  31    4.8136   451.3    5.465      31.618
2015    3        3    11  37    4.8174   451.2    5.471      31.619
2015    3        3    11  42    4.8210   451.0    5.477      31.621
2015    3        3    11  48    4.8246   450.9    5.483      31.622
2015    3        3    11  53    4.8283   450.8    5.490      31.623
2015    3        3    11  58    4.8320   450.7    5.496      31.624
2015    3        3    12   4    4.8357   450.6    5.501      31.625
2015    3        3    12   9    4.8394   450.5    5.507      31.626
2015    3        3    12  15    4.8432   450.4    5.513      31.627
2015    3        3    12  20    4.8470   450.3    5.519      31.628
2015    3        3    12  25    4.8506   450.2    5.525      31.629
2015    3        3    12  31    4.8544   450.1    5.531      31.630
2015    3        3    12  36    4.8582   450.0    5.536      31.630
2015    3        3    12  42    4.8620   449.9    5.542      31.631
2015    3        3    12  47    4.8658   449.8    5.548      31.632
2015    3        3    12  52    4.8695   449.7    5.553      31.632
2015    3        3    12  58    4.8733   449.6    5.559      31.633
2015    3        3    13   3    4.8771   449.5    5.564      31.633
2015    3        3    13   9    4.8810   449.4    5.570      31.634
2015    3        3    13  14    4.8848   449.3    5.575      31.634
2015    3        3    13  19    4.8886   449.2    5.581      31.634
2015    3        3    13  25    4.8925   449.1    5.586      31.635
2015    3        3    13  30    4.8963   449.0    5.592      31.635
2015    3        3    13  36    4.9002   448.9    5.598      31.636
2015    3        3    13  41    4.9041   448.8    5.603      31.637
2015    3        3    13  46    4.9081   448.7    5.609      31.637
2015    3        3    13  52    4.9119   448.6    5.614      31.638
2015    3        3    13  57    4.9159   448.5    5.620      31.638
2015    3        3    14   3    4.9198   448.4    5.625      31.639
2015    3        3    14   8    4.9238   448.3    5.631      31.640
2015    3        3    14  13    4.9277   448.2    5.637      31.641
2015    3        3    14  19    4.9317   448.1    5.643      31.642
2015    3        3    14  24    4.9357   448.0    5.648      31.644
2015    3        3    14  30    4.9397   447.9    5.654      31.645
2015    3        3    14  35    4.9439   447.8    5.660      31.647
2015    3        3    14  40    4.9478   447.7    5.666      31.649
2015    3        3    14  46    4.9519   447.6    5.672      31.651
2015    3        3    14  51    4.9560   447.5    5.679      31.653
2015    3        3    14  57    4.9601   447.4    5.685      31.656
2015    3        3    15   2    4.9643   447.4    5.691      31.659
2015    3        3    15   7    4.9684   447.3    5.698      31.662
2015    3        3    15  13    4.9726   447.2    5.705      31.666
2015    3        3    15  18    4.9769   447.1    5.711      31.669
2015    3        3    15  24    4.9810   447.0    5.718      31.673
2015    3        3    15  29    4.9853   446.9    5.725      31.678
2015    3        3    15  34    4.9895   446.9    5.732      31.683
2015    3        3    15  40    4.9938   446.8    5.740      31.688
2015    3        3    15  45    4.9981   446.7    5.747      31.693
2015    3        3    15  51    5.0025   446.6    5.755      31.699
2015    3        3    15  56    5.0069   446.5    5.762      31.706
2015    3        3    16   1    5.0113   446.5    5.770      31.713
2015    3        3    16   7    5.0156   446.4    5.778      31.720
2015    3        3    16  12    5.0200   446.3    5.786      31.729
2015    3        3    16  18    5.0244   446.3    5.794      31.738
2015    3        3    16  23    5.0289   446.2    5.802      31.748
2015    3        3    16  28    5.0332   446.1    5.809      31.758
2015    3        3    16  34    5.0376   446.1    5.817      31.769
2015    3        3    16  39    5.0420   446.0    5.825      31.781
2015    3        3    16  45    5.0465   446.0    5.832      31.793
2015    3        3    16  50    5.0509   445.9    5.840      31.806
2015    3        3    16  55    5.0553   445.8    5.847      31.820
2015    3        3    17   1    5.0597   445.8    5.854      31.834
2015    3        3    17   6    5.0641   445.7    5.862      31.848
2015    3        3    17  12    5.0686   445.7    5.868      31.863
2015    3        3    17  17    5.0729   445.6    5.875      31.879
2015    3        3    17  22    5.0774   445.6    5.882      31.894
2015    3        3    17  28    5.0817   445.5    5.888      31.910
2015    3        3    17  33    5.0861   445.4    5.895      31.925
2015    3        3    17  39    5.0904   445.4    5.901      31.940
2015    3        3    17  44    5.0948   445.3    5.907      31.956
2015    3        3    17  49    5.0992   445.3    5.913      31.971
2015    3        3    17  55    5.1036   445.2    5.919      31.986
2015    3        3    18   0    5.1080   445.2    5.925      32.001
2015    3        3    18   6    5.1123   445.1    5.930      32.015
2015    3        3    18  11    5.1167   445.1    5.936      32.029
2015    3        3    18  16    5.1211   445.0    5.941      32.043
2015    3        3    18  22    5.1255   445.0    5.947      32.057
2015    3        3    18  27    5.1299   444.9    5.952      32.071
2015    3        3    18  33    5.1342   444.8    5.957      32.084
2015    3        3    18  38    5.1386   444.8    5.963      32.096
2015    3        3    18  43    5.1430   444.7    5.968      32.109
2015    3        3    18  49    5.1474   444.7    5.973      32.121
2015    3        3    18  54    5.1518   444.6    5.978      32.133
2015    3        3    19   0    5.1562   444.6    5.983      32.145
2015    3        3    19   5    5.1606   444.5    5.987      32.157
2015    3        3    19  10    5.1650   444.5    5.992      32.168
2015    3        3    19  16    5.1694   444.4    5.997      32.179
2015    3        3    19  21    5.1738   444.4    6.002      32.190
2015    3        3    19  27    5.1783   444.3    6.006      32.201
2015    3        3    19  32    5.1827   444.3    6.011      32.211
2015    3        3    19  37    5.1871   444.2    6.015      32.221
2015    3        3    19  43    5.1916   444.2    6.020      32.231
2015    3        3    19  48    5.1960   444.1    6.024      32.241
2015    3        3    19  54    5.2005   444.1    6.029      32.251
2015    3        3    19  59    5.2050   444.0    6.033      32.260
2015    3        3    20   4    5.2094   444.0    6.038      32.270
2015    3        3    20  10    5.2139   443.9    6.042      32.279
2015    3        3    20  15    5.2184   443.9    6.046      32.288
2015    3        3    20  21    5.2229   443.8    6.050      32.297
2015    3        3    20  26    5.2274   443.8    6.055      32.306
2015    3        3    20  31    5.2319   443.7    6.059      32.315
2015    3        3    20  37    5.2364   443.7    6.063      32.323
2015    3        3    20  42    5.2409   443.6    6.067      32.332
2015    3        3    20  48    5.2455   443.6    6.071      32.340
2015    3        3    20  53    5.2500   443.5    6.076      32.349
2015    3        3    20  58    5.2546   443.5    6.080      32.357
2015    3        3    21   4    5.2591   443.4    6.084      32.366
2015    3        3    21   9    5.2637   443.4    6.088      32.374
2015    3        3    21  15    5.2683   443.4    6.092      32.383
2015    3        3    21  20    5.2729   443.3    6.096      32.391
2015    3        3    21  25    5.2775   443.3    6.101      32.400
2015    3        3    21  31    5.2821   443.2    6.105      32.408
2015    3        3    21  36    5.2868   443.2    6.109      32.417
2015    3        3    21  42    5.2914   443.1    6.114      32.426
2015    3        3    21  47    5.2961   443.1    6.118      32.435
2015    3        3    21  52    5.3008   443.0    6.123      32.444
2015    3        3    21  58    5.3055   443.0    6.127      32.453
2015    3        3    22   3    5.3102   443.0    6.132      32.462
2015    3        3    22   9    5.3149   442.9    6.136      32.472
2015    3        3    22  14    5.3197   442.9    6.141      32.481
2015    3        3    22  19    5.3244   442.8    6.146      32.491
2015    3        3    22  25    5.3292   442.8    6.151      32.501
2015    3        3    22  30    5.3340   442.8    6.156      32.512
2015    3        3    22  36    5.3389   442.7    6.162      32.522
2015    3        3    22  41    5.3437   442.7    6.167      32.533
2015    3        3    22  46    5.3486   442.6    6.172      32.544
2015    3        3    22  52    5.3535   442.6    6.178      32.556
2015    3        3    22  57    5.3584   442.6    6.184      32.568
2015    3        3    23   3    5.3633   442.5    6.190      32.580
2015    3        3    23   8    5.3683   442.5    6.196      32.592
2015    3        3    23  13    5.3733   442.5    6.203      32.605
2015    3        3    23  19    5.3784   442.4    6.209      32.618
2015    3        3    23  24    5.3834   442.4    6.216      32.632
2015    3        3    23  30    5.3885   442.4    6.223      32.647
2015    3        3    23  35    5.3935   442.4    6.230      32.662
2015    3        3    23  40    5.3986   442.3    6.237      32.678
2015    3        3    23  46    5.4038   442.3    6.244      32.694
2015    3        3    23  51    5.4089   442.3    6.252      32.711
2015    3        3    23  57    5.4142   442.3    6.259      32.729
2015    3        4     0   2    5.4194   442.3    6.267      32.748
2015    3        4     0   7    5.4246   442.2    6.274      32.767
2015    3        4     0  13    5.4298   442.2    6.282      32.788
2015    3        4     0  18    5.4351   442.2    6.289      32.810
2015    3        4     0  24    5.4403   442.2    6.297      32.833
2015    3        4     0  29    5.4456   442.2    6.304      32.858
2015    3        4     0  34    5.4508   442.2    6.311      32.884
2015    3        4     0  40    5.4561   442.2    6.319      32.910
2015    3        4     0  45    5.4613   442.2    6.326      32.938
2015    3        4     0  51    5.4666   442.2    6.333      32.966
2015    3        4     0  56    5.4718   442.2    6.339      32.995
2015    3        4     1   1    5.4770   442.2    6.346      33.024
2015    3        4     1   7    5.4821   442.2    6.352      33.053
2015    3        4     1  12    5.4873   442.2    6.358      33.083
2015    3        4     1  18    5.4925   442.2    6.364      33.113
2015    3        4     1  23    5.4976   442.2    6.370      33.143
2015    3        4     1  28    5.5027   442.1    6.375      33.173
2015    3        4     1  34    5.5078   442.1    6.381      33.203
2015    3        4     1  39    5.5129   442.1    6.386      33.232
2015    3        4     1  45    5.5180   442.1    6.391      33.260
2015    3        4     1  50    5.5230   442.1    6.396      33.288
2015    3        4     1  55    5.5281   442.2    6.400      33.316
2015    3        4     2   1    5.5331   442.2    6.405      33.343
2015    3        4     2   6    5.5381   442.2    6.409      33.369
2015    3        4     2  12    5.5432   442.2    6.413      33.395
2015    3        4     2  17    5.5482   442.2    6.418      33.421
2015    3        4     2  22    5.5532   442.2    6.422      33.446
2015    3        4     2  28    5.5582   442.2    6.425      33.470
2015    3        4     2  33    5.5632   442.2    6.429      33.494
2015    3        4     2  39    5.5682   442.2    6.433      33.518
2015    3        4     2  44    5.5732   442.2    6.436      33.541
2015    3        4     2  49    5.5782   442.2    6.440      33.563
2015    3        4     2  55    5.5831   442.2    6.443      33.585
2015    3        4     3   0    5.5881   442.2    6.446      33.607
2015    3        4     3   6    5.5931   442.2    6.450      33.628
2015    3        4     3  11    5.5980   442.2    6.453      33.649
2015    3        4     3  16    5.6030   442.2    6.456      33.669
2015    3        4     3  22    5.6080   442.2    6.459      33.689
2015    3        4     3  27    5.6129   442.2    6.462      33.709
2015    3        4     3  32    5.6179   442.2    6.465      33.728
2015    3        4     3  38    5.6229   442.2    6.468      33.747
2015    3        4     3  43    5.6278   442.2    6.470      33.766
2015    3        4     3  49    5.6328   442.2    6.473      33.784
2015    3        4     3  54    5.6378   442.2    6.476      33.802
2015    3        4     3  59    5.6427   442.2    6.479      33.820
2015    3        4     4   5    5.6477   442.2    6.481      33.838
2015    3        4     4  10    5.6527   442.2    6.484      33.855
2015    3        4     4  16    5.6576   442.2    6.486      33.872
2015    3        4     4  21    5.6626   442.3    6.489      33.889
2015    3        4     4  26    5.6676   442.3    6.492      33.905
2015    3        4     4  32    5.6726   442.3    6.494      33.921
2015    3        4     4  37    5.6776   442.3    6.497      33.937
2015    3        4     4  43    5.6826   442.3    6.499      33.953
2015    3        4     4  48    5.6876   442.3    6.502      33.969
2015    3        4     4  53    5.6926   442.3    6.504      33.984
2015    3        4     4  59    5.6976   442.3    6.507      33.999
2015    3        4     5   4    5.7026   442.3    6.510      34.015
2015    3        4     5  10    5.7077   442.3    6.513      34.030
2015    3        4     5  15    5.7128   442.3    6.515      34.045
2015    3        4     5  20    5.7178   442.3    6.518      34.060
2015    3        4     5  26    5.7229   442.3    6.521      34.075
2015    3        4     5  31    5.7281   442.3    6.524      34.090
2015    3        4     5  37    5.7332   442.3    6.528      34.105
2015    3        4     5  42    5.7384   442.3    6.531      34.120
2015    3        4     5  47    5.7436   442.3    6.535      34.135
2015    3        4     5  53    5.7488   442.3    6.538      34.151
2015    3        4     5  58    5.7540   442.3    6.542      34.166
2015    3        4     6   4    5.7593   442.3    6.546      34.182
2015    3        4     6   9    5.7647   442.3    6.551      34.199
2015    3        4     6  14    5.7700   442.3    6.555      34.215
2015    3        4     6  20    5.7754   442.4    6.560      34.233
2015    3        4     6  25    5.7809   442.4    6.566      34.251
2015    3        4     6  31    5.7863   442.4    6.571      34.269
2015    3        4     6  36    5.7919   442.4    6.577      34.287
2015    3        4     6  41    5.7975   442.4    6.583      34.307
2015    3        4     6  47    5.8032   442.4    6.590      34.327
2015    3        4     6  52    5.8089   442.4    6.597      34.348
2015    3        4     6  58    5.8147   442.4    6.604      34.371
2015    3        4     7   3    5.8205   442.4    6.612      34.395
2015    3        4     7   8    5.8264   442.5    6.620      34.422
2015    3        4     7  14    5.8323   442.5    6.628      34.450
2015    3        4     7  19    5.8382   442.5    6.636      34.480
2015    3        4     7  25    5.8442   442.5    6.644      34.512
2015    3        4     7  30    5.8502   442.6    6.652      34.547
2015    3        4     7  35    5.8561   442.6    6.661      34.584
2015    3        4     7  41    5.8621   442.6    6.669      34.622
2015    3        4     7  46    5.8681   442.7    6.677      34.663
2015    3        4     7  52    5.8740   442.7    6.685      34.705
2015    3        4     7  57    5.8799   442.8    6.692      34.749
2015    3        4     8   2    5.8857   442.8    6.700      34.795
2015    3        4     8   8    5.8915   442.9    6.707      34.841
2015    3        4     8  13    5.8973   442.9    6.714      34.889
2015    3        4     8  19    5.9030   443.0    6.720      34.937
2015    3        4     8  24    5.9087   443.0    6.726      34.984
2015    3        4     8  29    5.9143   443.1    6.732      35.032
2015    3        4     8  35    5.9199   443.2    6.737      35.080
2015    3        4     8  40    5.9254   443.2    6.742      35.127
2015    3        4     8  46    5.9310   443.3    6.747      35.174
2015    3        4     8  51    5.9364   443.3    6.751      35.220
2015    3        4     8  56    5.9418   443.4    6.756      35.266
2015    3        4     9   2    5.9473   443.4    6.760      35.310
2015    3        4     9   7    5.9526   443.5    6.763      35.353
2015    3        4     9  13    5.9580   443.5    6.767      35.396
2015    3        4     9  18    5.9633   443.6    6.770      35.438
2015    3        4     9  23    5.9686   443.6    6.773      35.478
2015    3        4     9  29    5.9739   443.7    6.775      35.519
2015    3        4     9  34    5.9791   443.8    6.778      35.558
2015    3        4     9  40    5.9844   443.8    6.780      35.597
2015    3        4     9  45    5.9897   443.9    6.783      35.635
2015    3        4     9  50    5.9949   443.9    6.785      35.672
2015    3        4     9  56    6.0001   444.0    6.787      35.709
2015    3        4    10   1    6.0053   444.0    6.789      35.745
2015    3        4    10   7    6.0105   444.1    6.790      35.780
2015    3        4    10  12    6.0157   444.1    6.792      35.815
2015    3        4    10  17    6.0209   444.2    6.793      35.849
2015    3        4    10  23    6.0261   444.3    6.795      35.883
2015    3        4    10  28    6.0312   444.3    6.796      35.916
2015    3        4    10  34    6.0364   444.4    6.797      35.949
2015    3        4    10  39    6.0416   444.4    6.799      35.981
2015    3        4    10  44    6.0467   444.5    6.800      36.013
2015    3        4    10  50    6.0519   444.5    6.801      36.045
2015    3        4    10  55    6.0570   444.6    6.802      36.076
2015    3        4    11   1    6.0622   444.7    6.803      36.107
2015    3        4    11   6    6.0673   444.7    6.804      36.137
2015    3        4    11  11    6.0725   444.8    6.804      36.167
2015    3        4    11  17    6.0776   444.8    6.805      36.197
2015    3        4    11  22    6.0827   444.9    6.806      36.227
2015    3        4    11  28    6.0879   444.9    6.807      36.256
2015    3        4    11  33    6.0930   445.0    6.808      36.284
2015    3        4    11  38    6.0982   445.1    6.809      36.313
2015    3        4    11  44    6.1033   445.1    6.809      36.341
2015    3        4    11  49    6.1085   445.2    6.810      36.369
2015    3        4    11  55    6.1136   445.2    6.811      36.397
2015    3        4    12   0    6.1187   445.3    6.812      36.424
2015    3        4    12   5    6.1239   445.3    6.813      36.451
2015    3        4    12  11    6.1291   445.4    6.814      36.478
2015    3        4    12  16    6.1343   445.4    6.815      36.505
2015    3        4    12  22    6.1395   445.5    6.816      36.532
2015    3        4    12  27    6.1448   445.5    6.818      36.559
2015    3        4    12  32    6.1500   445.6    6.819      36.587
2015    3        4    12  38    6.1553   445.6    6.821      36.614
2015    3        4    12  43    6.1606   445.7    6.823      36.641
2015    3        4    12  49    6.1660   445.8    6.825      36.669
2015    3        4    12  54    6.1713   445.8    6.827      36.697
2015    3        4    12  59    6.1768   445.9    6.830      36.725
2015    3        4    13   5    6.1822   445.9    6.833      36.754
2015    3        4    13  10    6.1877   446.0    6.836      36.783
2015    3        4    13  16    6.1932   446.0    6.840      36.813
2015    3        4    13  21    6.1988   446.1    6.844      36.844
2015    3        4    13  26    6.2045   446.1    6.848      36.876
2015    3        4    13  32    6.2101   446.2    6.853      36.909
2015    3        4    13  37    6.2160   446.3    6.858      36.943
2015    3        4    13  43    6.2218   446.3    6.864      36.977
2015    3        4    13  48    6.2277   446.4    6.870      37.013
2015    3        4    13  53    6.2337   446.4    6.877      37.050
2015    3        4    13  59    6.2397   446.5    6.884      37.089
2015    3        4    14   4    6.2457   446.6    6.891      37.130
2015    3        4    14  10    6.2518   446.7    6.899      37.174
2015    3        4    14  15    6.2578   446.8    6.907      37.221
2015    3        4    14  20    6.2640   446.8    6.915      37.272
2015    3        4    14  26    6.2701   446.9    6.923      37.325
2015    3        4    14  31    6.2762   447.0    6.931      37.380
2015    3        4    14  37    6.2823   447.1    6.940      37.439
2015    3        4    14  42    6.2884   447.2    6.948      37.500
2015    3        4    14  47    6.2944   447.3    6.956      37.563
2015    3        4    14  53    6.3003   447.4    6.964      37.628
2015    3        4    14  58    6.3062   447.6    6.971      37.695
2015    3        4    15   4    6.3121   447.7    6.979      37.764
2015    3        4    15   9    6.3178   447.8    6.985      37.835
2015    3        4    15  14    6.3235   447.9    6.992      37.906
2015    3        4    15  20    6.3292   448.0    6.998      37.978
2015    3        4    15  25    6.3347   448.1    7.003      38.050
2015    3        4    15  31    6.3403   448.2    7.008      38.121
2015    3        4    15  36    6.3457   448.4    7.013      38.192
2015    3        4    15  41    6.3512   448.5    7.017      38.262
2015    3        4    15  47    6.3566   448.6    7.021      38.332
2015    3        4    15  52    6.3619   448.7    7.025      38.400
2015    3        4    15  58    6.3672   448.8    7.028      38.468
2015    3        4    16   3    6.3725   448.9    7.031      38.534
2015    3        4    16   8    6.3778   449.0    7.034      38.599
2015    3        4    16  14    6.3830   449.1    7.036      38.664
2015    3        4    16  19    6.3882   449.3    7.038      38.727
2015    3        4    16  25    6.3934   449.4    7.040      38.789
2015    3        4    16  30    6.3985   449.5    7.042      38.850
2015    3        4    16  35    6.4037   449.6    7.043      38.911
2015    3        4    16  41    6.4088   449.7    7.044      38.970
2015    3        4    16  46    6.4139   449.8    7.045      39.029
2015    3        4    16  52    6.4190   449.9    7.046      39.086
2015    3        4    16  57    6.4241   450.0    7.047      39.143
2015    3        4    17   2    6.4291   450.1    7.047      39.199
2015    3        4    17   8    6.4342   450.2    7.047      39.255
2015    3        4    17  13    6.4392   450.3    7.048      39.309
2015    3        4    17  19    6.4443   450.5    7.048      39.363
2015    3        4    17  24    6.4492   450.6    7.048      39.417
2015    3        4    17  29    6.4542   450.7    7.048      39.469
2015    3        4    17  35    6.4592   450.8    7.047      39.521
2015    3        4    17  40    6.4641   450.9    7.047      39.573
2015    3        4    17  46    6.4691   451.0    7.047      39.624
2015    3        4    17  51    6.4741   451.1    7.046      39.674
2015    3        4    17  56    6.4790   451.2    7.045      39.724
2015    3        4    18   2    6.4839   451.4    7.045      39.773
2015    3        4    18   7    6.4887   451.5    7.044      39.822
2015    3        4    18  13    6.4936   451.6    7.043      39.871
2015    3        4    18  18    6.4985   451.7    7.042      39.919
2015    3        4    18  23    6.5034   451.8    7.041      39.966
2015    3        4    18  29    6.5082   451.9    7.040      40.013
2015    3        4    18  34    6.5130   452.1    7.040      40.060
2015    3        4    18  40    6.5178   452.2    7.039      40.106
2015    3        4    18  45    6.5226   452.3    7.038      40.152
2015    3        4    18  50    6.5274   452.4    7.036      40.198
2015    3        4    18  56    6.5322   452.5    7.035      40.243
2015    3        4    19   1    6.5370   452.6    7.034      40.288
2015    3        4    19   7    6.5418   452.8    7.033      40.333
2015    3        4    19  12    6.5465   452.9    7.033      40.378
2015    3        4    19  17    6.5513   453.0    7.032      40.422
2015    3        4    19  23    6.5560   453.1    7.031      40.467
2015    3        4    19  28    6.5608   453.2    7.030      40.511
2015    3        4    19  34    6.5656   453.3    7.029      40.555
2015    3        4    19  39    6.5703   453.5    7.029      40.599
2015    3        4    19  44    6.5751   453.6    7.028      40.643
2015    3        4    19  50    6.5799   453.7    7.028      40.687
2015    3        4    19  55    6.5847   453.8    7.028      40.732
2015    3        4    20   1    6.5895   453.9    7.028      40.776
2015    3        4    20   6    6.5943   454.1    7.028      40.821
2015    3        4    20  11    6.5991   454.2    7.028      40.866
2015    3        4    20  17    6.6039   454.3    7.029      40.912
2015    3        4    20  22    6.6088   454.4    7.030      40.958
2015    3        4    20  28    6.6137   454.5    7.031      41.005
2015    3        4    20  33    6.6186   454.7    7.032      41.053
2015    3        4    20  38    6.6235   454.8    7.034      41.100
2015    3        4    20  44    6.6285   454.9    7.036      41.149
2015    3        4    20  49    6.6334   455.0    7.038      41.199
2015    3        4    20  55    6.6384   455.2    7.041      41.250
2015    3        4    21   0    6.6434   455.3    7.044      41.302
2015    3        4    21   5    6.6485   455.4    7.047      41.356
2015    3        4    21  11    6.6535   455.5    7.051      41.413
2015    3        4    21  16    6.6585   455.7    7.055      41.471
2015    3        4    21  22    6.6636   455.8    7.059      41.532
2015    3        4    21  27    6.6687   456.0    7.063      41.594
2015    3        4    21  32    6.6737   456.1    7.067      41.659
2015    3        4    21  38    6.6787   456.3    7.072      41.725
2015    3        4    21  43    6.6838   456.4    7.076      41.794
2015    3        4    21  49    6.6888   456.6    7.081      41.865
2015    3        4    21  54    6.6938   456.7    7.086      41.937
2015    3        4    21  59    6.6989   456.9    7.090      42.011
2015    3        4    22   5    6.7039   457.0    7.095      42.087
2015    3        4    22  10    6.7089   457.2    7.100      42.164
2015    3        4    22  16    6.7140   457.3    7.104      42.243
2015    3        4    22  21    6.7190   457.5    7.109      42.324
2015    3        4    22  26    6.7241   457.7    7.113      42.406
2015    3        4    22  32    6.7290   457.8    7.118      42.490
2015    3        4    22  37    6.7342   458.0    7.122      42.575
2015    3        4    22  42    6.7393   458.2    7.126      42.661
2015    3        4    22  48    6.7443   458.4    7.129      42.748
2015    3        4    22  53    6.7494   458.5    7.133      42.835
2015    3        4    22  59    6.7544   458.7    7.136      42.923
2015    3        4    23   4    6.7594   458.9    7.139      43.011
2015    3        4    23   9    6.7644   459.1    7.142      43.098
2015    3        4    23  15    6.7693   459.2    7.144      43.186
2015    3        4    23  20    6.7742   459.4    7.147      43.273
2015    3        4    23  26    6.7791   459.6    7.148      43.360
2015    3        4    23  31    6.7840   459.8    7.150      43.447
2015    3        4    23  36    6.7888   460.0    7.151      43.532
2015    3        4    23  42    6.7936   460.1    7.152      43.617
2015    3        4    23  47    6.7983   460.3    7.153      43.700
2015    3        4    23  53    6.8030   460.5    7.154      43.782
2015    3        4    23  58    6.8076   460.7    7.154      43.863
2015    3        5     0   3    6.8123   460.8    7.154      43.943
2015    3        5     0   9    6.8168   461.0    7.154      44.022
2015    3        5     0  14    6.8214   461.2    7.154      44.100
2015    3        5     0  20    6.8260   461.4    7.153      44.177
2015    3        5     0  25    6.8305   461.5    7.153      44.253
2015    3        5     0  30    6.8350   461.7    7.152      44.329
2015    3        5     0  36    6.8395   461.9    7.152      44.403
2015    3        5     0  41    6.8439   462.1    7.151      44.477
2015    3        5     0  47    6.8483   462.3    7.150      44.549
2015    3        5     0  52    6.8527   462.4    7.149      44.621
2015    3        5     0  57    6.8571   462.6    7.147      44.692
2015    3        5     1   3    6.8614   462.8    7.146      44.762
2015    3        5     1   8    6.8658   463.0    7.145      44.831
2015    3        5     1  14    6.8700   463.2    7.143      44.899
2015    3        5     1  19    6.8743   463.3    7.142      44.966
2015    3        5     1  24    6.8785   463.5    7.140      45.033
2015    3        5     1  30    6.8827   463.7    7.138      45.099
2015    3        5     1  35    6.8869   463.9    7.136      45.164
2015    3        5     1  41    6.8911   464.1    7.134      45.228
2015    3        5     1  46    6.8952   464.3    7.132      45.291
2015    3        5     1  51    6.8993   464.4    7.130      45.353
2015    3        5     1  57    6.9034   464.6    7.128      45.415
2015    3        5     2   2    6.9075   464.8    7.125      45.476
2015    3        5     2   8    6.9115   465.0    7.123      45.536
2015    3        5     2  13    6.9155   465.2    7.120      45.596
2015    3        5     2  18    6.9195   465.4    7.118      45.655
2015    3        5     2  24    6.9234   465.6    7.115      45.713
2015    3        5     2  29    6.9274   465.7    7.113      45.770
2015    3        5     2  35    6.9313   465.9    7.110      45.827
2015    3        5     2  40    6.9352   466.1    7.107      45.884
2015    3        5     2  45    6.9391   466.3    7.104      45.940
2015    3        5     2  51    6.9429   466.5    7.101      45.995
2015    3        5     2  56    6.9468   466.7    7.098      46.050
2015    3        5     3   2    6.9506   466.9    7.095      46.104
2015    3        5     3   7    6.9544   467.1    7.092      46.158
2015    3        5     3  12    6.9582   467.2    7.089      46.212
2015    3        5     3  18    6.9619   467.4    7.086      46.265
2015    3        5     3  23    6.9657   467.6    7.083      46.318
2015    3        5     3  29    6.9694   467.8    7.080      46.370
2015    3        5     3  34    6.9731   468.0    7.077      46.422
2015    3        5     3  39    6.9768   468.2    7.074      46.475
2015    3        5     3  45    6.9804   468.4    7.071      46.527
2015    3        5     3  50    6.9841   468.6    7.068      46.578
2015    3        5     3  56    6.9878   468.7    7.065      46.630
2015    3        5     4   1    6.9914   468.9    7.063      46.682
2015    3        5     4   6    6.9950   469.1    7.060      46.734
2015    3        5     4  12    6.9985   469.3    7.057      46.785
2015    3        5     4  17    7.0021   469.5    7.054      46.837
2015    3        5     4  23    7.0057   469.7    7.052      46.889
2015    3        5     4  28    7.0092   469.9    7.049      46.942
2015    3        5     4  33    7.0127   470.0    7.047      46.994
2015    3        5     4  39    7.0163   470.2    7.045      47.047
2015    3        5     4  44    7.0198   470.4    7.043      47.101
2015    3        5     4  50    7.0233   470.6    7.041      47.154
2015    3        5     4  55    7.0268   470.8    7.039      47.209
2015    3        5     5   0    7.0303   471.0    7.037      47.264
2015    3        5     5   6    7.0338   471.2    7.036      47.319
2015    3        5     5  11    7.0373   471.3    7.034      47.376
2015    3        5     5  17    7.0408   471.5    7.033      47.433
2015    3        5     5  22    7.0444   471.7    7.032      47.491
2015    3        5     5  27    7.0480   471.9    7.032      47.550
2015    3        5     5  33    7.0516   472.1    7.031      47.610
2015    3        5     5  38    7.0553   472.3    7.031      47.672
2015    3        5     5  44    7.0590   472.4    7.031      47.736
2015    3        5     5  49    7.0627   472.6    7.031      47.801
2015    3        5     5  54    7.0665   472.8    7.032      47.868
2015    3        5     6   0    7.0703   473.0    7.032      47.936
2015    3        5     6   5    7.0742   473.2    7.033      48.007
2015    3        5     6  11    7.0781   473.4    7.035      48.078
2015    3        5     6  16    7.0821   473.6    7.036      48.151
2015    3        5     6  21    7.0861   473.8    7.038      48.226
2015    3        5     6  27    7.0903   474.0    7.040      48.303
2015    3        5     6  32    7.0944   474.2    7.042      48.383
2015    3        5     6  38    7.0986   474.4    7.045      48.464
2015    3        5     6  43    7.1029   474.6    7.048      48.547
2015    3        5     6  48    7.1072   474.8    7.051      48.630
2015    3        5     6  54    7.1115   475.0    7.054      48.716
2015    3        5     6  59    7.1159   475.2    7.057      48.803
2015    3        5     7   5    7.1203   475.4    7.061      48.893
2015    3        5     7  10    7.1244   475.7    7.064      48.984
2015    3        5     7  15    7.1289   475.9    7.067      49.077
2015    3        5     7  21    7.1332   476.1    7.071      49.171
2015    3        5     7  26    7.1374   476.4    7.074      49.266
2015    3        5     7  32    7.1416   476.6    7.077      49.361
2015    3        5     7  37    7.1457   476.9    7.080      49.456
2015    3        5     7  42    7.1497   477.1    7.083      49.551
2015    3        5     7  48    7.1536   477.4    7.085      49.645
2015    3        5     7  53    7.1574   477.6    7.087      49.737
2015    3        5     7  59    7.1611   477.9    7.088      49.829
2015    3        5     8   4    7.1647   478.1    7.089      49.921
2015    3        5     8   9    7.1682   478.4    7.090      50.011
2015    3        5     8  15    7.1716   478.6    7.090      50.098
2015    3        5     8  20    7.1750   478.9    7.090      50.184
2015    3        5     8  26    7.1782   479.2    7.089      50.267
2015    3        5     8  31    7.1814   479.4    7.088      50.349
2015    3        5     8  36    7.1845   479.7    7.087      50.429
2015    3        5     8  42    7.1876   480.0    7.085      50.507
2015    3        5     8  47    7.1906   480.2    7.083      50.583
2015    3        5     8  53    7.1936   480.5    7.081      50.658
2015    3        5     8  58    7.1965   480.7    7.078      50.731
2015    3        5     9   3    7.1994   481.0    7.075      50.803
2015    3        5     9   9    7.2023   481.3    7.072      50.873
2015    3        5     9  14    7.2052   481.5    7.069      50.942
2015    3        5     9  20    7.2080   481.8    7.065      51.010
2015    3        5     9  25    7.2108   482.1    7.061      51.077
2015    3        5     9  30    7.2136   482.3    7.057      51.143
2015    3        5     9  36    7.2164   482.6    7.053      51.207
2015    3        5     9  41    7.2191   482.9    7.048      51.271
2015    3        5     9  47    7.2219   483.1    7.044      51.333
2015    3        5     9  52    7.2246   483.4    7.039      51.395
2015    3        5     9  57    7.2273   483.7    7.034      51.456
2015    3        5    10   3    7.2300   483.9    7.029      51.516
2015    3        5    10   8    7.2327   484.2    7.023      51.575
2015    3        5    10  14    7.2354   484.4    7.018      51.634
2015    3        5    10  19    7.2380   484.7    7.012      51.691
2015    3        5    10  24    7.2406   485.0    7.007      51.748
2015    3        5    10  30    7.2432   485.2    7.001      51.805
2015    3        5    10  35    7.2458   485.5    6.995      51.861
2015    3        5    10  41    7.2484   485.8    6.989      51.916
2015    3        5    10  46    7.2509   486.0    6.983      51.970
2015    3        5    10  51    7.2534   486.3    6.977      52.024
2015    3        5    10  57    7.2560   486.6    6.971      52.078
2015    3        5    11   2    7.2584   486.8    6.965      52.131
2015    3        5    11   8    7.2609   487.1    6.959      52.183
2015    3        5    11  13    7.2634   487.4    6.952      52.235
2015    3        5    11  18    7.2658   487.6    6.946      52.286
2015    3        5    11  24    7.2682   487.9    6.940      52.337
2015    3        5    11  29    7.2706   488.1    6.934      52.388
2015    3        5    11  35    7.2730   488.4    6.927      52.438
2015    3        5    11  40    7.2754   488.7    6.921      52.488
2015    3        5    11  45    7.2777   488.9    6.915      52.538
2015    3        5    11  51    7.2800   489.2    6.909      52.587
2015    3        5    11  56    7.2824   489.4    6.902      52.637
2015    3        5    12   2    7.2846   489.7    6.896      52.686
2015    3        5    12   7    7.2869   490.0    6.890      52.735
2015    3        5    12  12    7.2892   490.2    6.884      52.783
2015    3        5    12  18    7.2915   490.5    6.878      52.832
2015    3        5    12  23    7.2937   490.7    6.873      52.881
2015    3        5    12  29    7.2960   491.0    6.867      52.930
2015    3        5    12  34    7.2982   491.2    6.862      52.979
2015    3        5    12  39    7.3004   491.5    6.856      53.028
2015    3        5    12  45    7.3027   491.7    6.851      53.077
2015    3        5    12  50    7.3049   492.0    6.846      53.127
2015    3        5    12  56    7.3072   492.2    6.841      53.177
2015    3        5    13   1    7.3094   492.5    6.837      53.228
2015    3        5    13   6    7.3117   492.7    6.832      53.279
2015    3        5    13  12    7.3138   493.0    6.828      53.331
2015    3        5    13  17    7.3162   493.2    6.824      53.383
2015    3        5    13  22    7.3185   493.5    6.821      53.436
2015    3        5    13  28    7.3209   493.7    6.818      53.490
2015    3        5    13  33    7.3232   494.0    6.815      53.545
2015    3        5    13  39    7.3256   494.3    6.812      53.601
2015    3        5    13  44    7.3280   494.5    6.810      53.659
2015    3        5    13  49    7.3304   494.8    6.808      53.717
2015    3        5    13  55    7.3328   495.0    6.806      53.777
2015    3        5    14   0    7.3352   495.3    6.805      53.838
2015    3        5    14   6    7.3376   495.5    6.804      53.899
2015    3        5    14  11    7.3400   495.8    6.802      53.963
2015    3        5    14  16    7.3422   496.1    6.802      54.028
2015    3        5    14  22    7.3448   496.3    6.801      54.095
2015    3        5    14  27    7.3471   496.6    6.800      54.164
2015    3        5    14  33    7.3494   496.9    6.799      54.234
2015    3        5    14  38    7.3517   497.1    6.798      54.305
2015    3        5    14  43    7.3539   497.4    6.797      54.377
2015    3        5    14  49    7.3560   497.7    6.796      54.450
2015    3        5    14  54    7.3581   498.0    6.794      54.522
2015    3        5    15   0    7.3601   498.3    6.793      54.595
2015    3        5    15   5    7.3621   498.6    6.791      54.667
2015    3        5    15  10    7.3641   498.8    6.789      54.740
2015    3        5    15  16    7.3659   499.1    6.786      54.812
2015    3        5    15  21    7.3677   499.4    6.783      54.884
2015    3        5    15  27    7.3695   499.7    6.780      54.956
2015    3        5    15  32    7.3712   500.0    6.777      55.026
2015    3        5    15  37    7.3728   500.3    6.773      55.095
2015    3        5    15  43    7.3745   500.6    6.769      55.163
2015    3        5    15  48    7.3761   500.9    6.765      55.231
2015    3        5    15  54    7.3777   501.2    6.761      55.297
2015    3        5    15  59    7.3792   501.5    6.756      55.363
2015    3        5    16   4    7.3808   501.8    6.751      55.428
2015    3        5    16  10    7.3823   502.1    6.746      55.493
2015    3        5    16  15    7.3836   502.4    6.741      55.556
2015    3        5    16  21    7.3851   502.7    6.735      55.619
2015    3        5    16  26    7.3866   503.0    6.729      55.682
2015    3        5    16  31    7.3883   503.3    6.724      55.744
2015    3        5    16  37    7.3897   503.6    6.718      55.805
2015    3        5    16  42    7.3909   503.9    6.711      55.866
2015    3        5    16  48    7.3923   504.3    6.705      55.926
2015    3        5    16  53    7.3939   504.6    6.699      55.986
2015    3        5    16  58    7.3953   504.9    6.692      56.046
2015    3        5    17   4    7.3966   505.2    6.686      56.105
2015    3        5    17   9    7.3979   505.5    6.679      56.164
2015    3        5    17  15    7.3992   505.8    6.672      56.222
2015    3        5    17  20    7.4004   506.1    6.665      56.280
2015    3        5    17  25    7.4016   506.5    6.658      56.337
2015    3        5    17  31    7.4027   506.8    6.650      56.394
2015    3        5    17  36    7.4038   507.1    6.643      56.451
2015    3        5    17  42    7.4047   507.4    6.636      56.507
2015    3        5    17  47    7.4057   507.7    6.628      56.563
2015    3        5    17  52    7.4068   508.0    6.620      56.618
2015    3        5    17  58    7.4077   508.4    6.613      56.673
2015    3        5    18   3    7.4086   508.7    6.605      56.727
2015    3        5    18   9    7.4094   509.0    6.597      56.782
2015    3        5    18  14    7.4102   509.3    6.589      56.835
2015    3        5    18  19    7.4109   509.7    6.581      56.889
2015    3        5    18  25    7.4115   510.0    6.573      56.941
2015    3        5    18  30    7.4121   510.3    6.565      56.994
2015    3        5    18  36    7.4126   510.6    6.557      57.046
2015    3        5    18  41    7.4131   511.0    6.549      57.098
2015    3        5    18  46    7.4135   511.3    6.541      57.149
2015    3        5    18  52    7.4139   511.6    6.533      57.200
2015    3        5    18  57    7.4142   511.9    6.524      57.250
2015    3        5    19   3    7.4142   512.3    6.516      57.300
2015    3        5    19   8    7.4146   512.6    6.507      57.350
2015    3        5    19  13    7.4147   512.9    6.499      57.399
2015    3        5    19  19    7.4147   513.2    6.491      57.448
2015    3        5    19  24    7.4147   513.6    6.482      57.497
2015    3        5    19  30    7.4145   513.9    6.474      57.545
2015    3        5    19  35    7.4146   514.2    6.465      57.593
2015    3        5    19  40    7.4142   514.5    6.456      57.640
2015    3        5    19  46    7.4142   514.9    6.448      57.687
2015    3        5    19  51    7.4139   515.2    6.439      57.734
2015    3        5    19  57    7.4136   515.5    6.431      57.781
2015    3        5    20   2    7.4133   515.8    6.422      57.827
2015    3        5    20   7    7.4127   516.1    6.414      57.873
2015    3        5    20  13    7.4124   516.5    6.405      57.918
2015    3        5    20  18    7.4120   516.8    6.396      57.963
2015    3        5    20  24    7.4115   517.1    6.388      58.008
2015    3        5    20  29    7.4109   517.4    6.379      58.053
2015    3        5    20  34    7.4101   517.7    6.371      58.097
2015    3        5    20  40    7.4097   518.1    6.362      58.141
2015    3        5    20  45    7.4090   518.4    6.353      58.185
2015    3        5    20  51    7.4083   518.7    6.345      58.228
2015    3        5    20  56    7.4073   519.0    6.336      58.272
2015    3        5    21   1    7.4067   519.3    6.328      58.315
2015    3        5    21   7    7.4059   519.6    6.320      58.357
2015    3        5    21  12    7.4050   519.9    6.311      58.400
2015    3        5    21  18    7.4040   520.2    6.303      58.442
2015    3        5    21  23    7.4031   520.5    6.295      58.485
2015    3        5    21  28    7.4021   520.9    6.286      58.527
2015    3        5    21  34    7.4010   521.2    6.278      58.569
2015    3        5    21  39    7.4000   521.5    6.270      58.611
2015    3        5    21  45    7.3989   521.8    6.261      58.654
2015    3        5    21  50    7.3978   522.1    6.253      58.696
2015    3        5    21  55    7.3967   522.4    6.245      58.739
2015    3        5    22   1    7.3955   522.7    6.236      58.781
2015    3        5    22   6    7.3944   523.0    6.228      58.824
2015    3        5    22  12    7.3932   523.3    6.219      58.866
2015    3        5    22  17    7.3920   523.5    6.211      58.908
2015    3        5    22  22    7.3907   523.8    6.202      58.950
2015    3        5    22  28    7.3895   524.1    6.194      58.991
2015    3        5    22  33    7.3883   524.4    6.185      59.032
2015    3        5    22  39    7.3871   524.7    6.176      59.073
2015    3        5    22  44    7.3858   525.0    6.168      59.114
2015    3        5    22  49    7.3846   525.3    6.159      59.155
2015    3        5    22  55    7.3834   525.6    6.150      59.195
2015    3        5    23   0    7.3821   525.9    6.142      59.235
2015    3        5    23   6    7.3809   526.1    6.133      59.275
2015    3        5    23  11    7.3797   526.4    6.124      59.315
2015    3        5    23  16    7.3786   526.7    6.116      59.355
2015    3        5    23  22    7.3772   527.0    6.107      59.395
2015    3        5    23  27    7.3764   527.3    6.099      59.435
2015    3        5    23  33    7.3754   527.6    6.091      59.477
2015    3        5    23  38    7.3745   527.9    6.082      59.518
2015    3        5    23  43    7.3734   528.2    6.074      59.561
2015    3        5    23  49    7.3730   528.4    6.066      59.605
2015    3        5    23  54    7.3723   528.7    6.059      59.649
2015    3        6     0   0    7.3719   529.0    6.051      59.695
2015    3        6     0   5    7.3712   529.3    6.044      59.743
2015    3        6     0  10    7.3714   529.6    6.036      59.792
2015    3        6     0  16    7.3714   529.9    6.029      59.843
2015    3        6     0  21    7.3716   530.2    6.023      59.896
2015    3        6     0  27    7.3720   530.6    6.016      59.950
2015    3        6     0  32    7.3727   530.9    6.010      60.007
2015    3        6     0  37    7.3736   531.2    6.004      60.066
2015    3        6     0  43    7.3749   531.5    5.999      60.128
2015    3        6     0  48    7.3765   531.9    5.993      60.192
2015    3        6     0  54    7.3784   532.2    5.988      60.259
2015    3        6     0  59    7.3807   532.5    5.984      60.328
2015    3        6     1   4    7.3836   532.9    5.980      60.401
2015    3        6     1  10    7.3869   533.2    5.976      60.477
2015    3        6     1  15    7.3908   533.6    5.972      60.556
2015    3        6     1  21    7.3952   533.9    5.969      60.639
2015    3        6     1  26    7.4003   534.3    5.967      60.725
2015    3        6     1  31    7.4061   534.7    5.964      60.816
2015    3        6     1  37    7.4128   535.1    5.963      60.910
2015    3        6     1  42    7.4201   535.5    5.962      61.010
2015    3        6     1  48    7.4286   535.9    5.961      61.113
2015    3        6     1  53    7.4378   536.3    5.961      61.222
2015    3        6     1  58    7.4483   536.7    5.961      61.335
2015    3        6     2   4    7.4596   537.1    5.962      61.454
2015    3        6     2   9    7.4724   537.6    5.964      61.577
2015    3        6     2  15    7.4860   538.0    5.966      61.706
2015    3        6     2  20    7.5012   538.5    5.969      61.840
2015    3        6     2  25    7.5172   538.9    5.973      61.979
2015    3        6     2  31    7.5348   539.4    5.977      62.124
2015    3        6     2  36    7.5533   539.9    5.981      62.273
2015    3        6     2  41    7.5736   540.4    5.987      62.427
2015    3        6     2  47    7.5948   540.9    5.993      62.586
2015    3        6     2  52    7.6177   541.4    5.999      62.749
2015    3        6     2  58    7.6413   541.9    6.007      62.917
2015    3        6     3   3    7.6662   542.4    6.015      63.089
2015    3        6     3   8    7.6917   543.0    6.023      63.265
2015    3        6     3  14    7.7181   543.5    6.033      63.445
2015    3        6     3  19    7.7448   544.0    6.043      63.627
2015    3        6     3  25    7.7723   544.6    6.055      63.814
2015    3        6     3  30    7.7998   545.1    6.067      64.010
2015    3        6     3  35    7.8275   545.7    6.079      64.213
2015    3        6     3  41    7.8550   546.3    6.093      64.423
2015    3        6     3  46    7.8824   546.8    6.106      64.639
2015    3        6     3  52    7.9094   547.4    6.120      64.861
2015    3        6     3  57    7.9361   548.0    6.134      65.087
2015    3        6     4   2    7.9623   548.6    6.147      65.315
2015    3        6     4   8    7.9878   549.2    6.160      65.546
2015    3        6     4  13    8.0142   549.7    6.173      65.779
2015    3        6     4  19    8.0372   550.3    6.184      66.010
2015    3        6     4  24    8.0609   550.9    6.195      66.235
2015    3        6     4  29    8.0836   551.5    6.205      66.455
2015    3        6     4  35    8.1056   552.0    6.214      66.669
2015    3        6     4  40    8.1264   552.6    6.221      66.877
2015    3        6     4  46    8.1465   553.1    6.228      67.077
2015    3        6     4  51    8.1653   553.7    6.233      67.268
2015    3        6     4  56    8.1832   554.2    6.237      67.451
2015    3        6     5   2    8.1996   554.7    6.241      67.624
2015    3        6     5   7    8.2149   555.2    6.243      67.789
2015    3        6     5  13    8.2285   555.7    6.245      67.946
2015    3        6     5  18    8.2410   556.1    6.247      68.097
2015    3        6     5  23    8.2518   556.5    6.247      68.240
2015    3        6     5  29    8.2613   556.9    6.247      68.377
2015    3        6     5  34    8.2691   557.3    6.247      68.507
2015    3        6     5  40    8.2756   557.6    6.246      68.631
2015    3        6     5  45    8.2801   557.9    6.244      68.746
2015    3        6     5  50    8.2834   558.2    6.241      68.856
2015    3        6     5  56    8.2848   558.5    6.238      68.958
2015    3        6     6   1    8.2849   558.8    6.233      69.052
2015    3        6     6   7    8.2820   559.1    6.228      69.138
2015    3        6     6  12    8.2800   559.4    6.221      69.215
2015    3        6     6  17    8.2738   559.7    6.214      69.284
2015    3        6     6  23    8.2690   560.0    6.205      69.344
2015    3        6     6  28    8.2610   560.3    6.196      69.397
2015    3        6     6  34    8.2520   560.6    6.185      69.442
2015    3        6     6  39    8.2413   560.8    6.173      69.481
2015    3        6     6  44    8.2295   561.1    6.160      69.513
2015    3        6     6  50    8.2160   561.4    6.146      69.539
2015    3        6     6  55    8.2017   561.6    6.131      69.559
2015    3        6     7   1    8.1855   561.8    6.116      69.575
2015    3        6     7   6    8.1686   562.0    6.100      69.586
2015    3        6     7  11    8.1500   562.2    6.083      69.593
2015    3        6     7  17    8.1308   562.3    6.066      69.598
2015    3        6     7  22    8.1102   562.5    6.048      69.600
2015    3        6     7  28    8.0891   562.6    6.030      69.600
2015    3        6     7  33    8.0668   562.8    6.012      69.597
2015    3        6     7  38    8.0418   562.9    5.993      69.591
2015    3        6     7  44    8.0181   563.0    5.973      69.582
2015    3        6     7  49    7.9966   563.1    5.954      69.568
2015    3        6     7  55    7.9719   563.3    5.935      69.550
2015    3        6     8   0    7.9473   563.4    5.915      69.528
2015    3        6     8   5    7.9220   563.5    5.895      69.501
2015    3        6     8  11    7.8969   563.7    5.876      69.469
2015    3        6     8  16    7.8712   563.8    5.857      69.434
2015    3        6     8  22    7.8457   564.0    5.837      69.394
2015    3        6     8  27    7.8197   564.2    5.818      69.351
2015    3        6     8  32    7.7939   564.3    5.799      69.304
2015    3        6     8  38    7.7679   564.5    5.780      69.254
2015    3        6     8  43    7.7420   564.7    5.762      69.203
2015    3        6     8  49    7.7161   564.9    5.743      69.151
2015    3        6     8  54    7.6902   565.0    5.725      69.099
2015    3        6     8  59    7.6623   565.2    5.706      69.048
2015    3        6     9   5    7.6386   565.4    5.688      68.996
2015    3        6     9  10    7.6112   565.6    5.669      68.946
2015    3        6     9  16    7.5879   565.8    5.651      68.897
2015    3        6     9  21    7.5630   565.9    5.632      68.846
2015    3        6     9  26    7.5387   566.1    5.614      68.793
2015    3        6     9  32    7.5149   566.3    5.596      68.741
2015    3        6     9  37    7.4918   566.4    5.578      68.686
2015    3        6     9  43    7.4680   566.6    5.561      68.630
2015    3        6     9  48    7.4476   566.7    5.543      68.575
2015    3        6     9  53    7.4268   566.8    5.527      68.519
2015    3        6     9  59    7.4067   567.0    5.510      68.463
2015    3        6    10   4    7.3876   567.1    5.495      68.408
2015    3        6    10  10    7.3694   567.2    5.480      68.354
2015    3        6    10  15    7.3521   567.3    5.466      68.300
2015    3        6    10  20    7.3356   567.4    5.452      68.249
2015    3        6    10  26    7.3200   567.5    5.439      68.203
2015    3        6    10  31    7.3052   567.7    5.428      68.162
2015    3        6    10  37    7.2913   567.8    5.417      68.126
2015    3        6    10  42    7.2779   567.9    5.406      68.095
2015    3        6    10  47    7.2655   568.0    5.397      68.069
2015    3        6    10  53    7.2536   568.2    5.388      68.048
2015    3        6    10  58    7.2425   568.4    5.380      68.031
2015    3        6    11   4    7.2318   568.5    5.372      68.018
2015    3        6    11   9    7.2218   568.7    5.365      68.011
2015    3        6    11  14    7.2121   568.9    5.358      68.009
2015    3        6    11  20    7.2030   569.1    5.352      68.013
2015    3        6    11  25    7.1941   569.3    5.346      68.021
2015    3        6    11  31    7.1856   569.5    5.340      68.030
2015    3        6    11  36    7.1773   569.8    5.335      68.042
2015    3        6    11  41    7.1694   570.0    5.329      68.055
2015    3        6    11  47    7.1616   570.3    5.323      68.069
2015    3        6    11  52    7.1541   570.5    5.318      68.082
2015    3        6    11  58    7.1467   570.8    5.312      68.094
2015    3        6    12   3    7.1395   571.1    5.306      68.105
2015    3        6    12   8    7.1324   571.3    5.300      68.114
2015    3        6    12  14    7.1255   571.6    5.293      68.119
2015    3        6    12  19    7.1186   571.8    5.287      68.119
2015    3        6    12  25    7.1120   572.1    5.280      68.115
2015    3        6    12  30    7.1054   572.3    5.273      68.106
2015    3        6    12  35    7.0990   572.6    5.266      68.091
2015    3        6    12  41    7.0927   572.8    5.259      68.072
2015    3        6    12  46    7.0866   573.0    5.251      68.049
2015    3        6    12  52    7.0807   573.3    5.244      68.020
2015    3        6    12  57    7.0749   573.5    5.236      67.988
2015    3        6    13   2    7.0692   573.7    5.228      67.951
2015    3        6    13   8    7.0637   573.9    5.220      67.911
2015    3        6    13  13    7.0584   574.2    5.212      67.868
2015    3        6    13  19    7.0533   574.4    5.204      67.823
2015    3        6    13  24    7.0483   574.6    5.196      67.776
2015    3        6    13  29    7.0435   574.8    5.188      67.729
2015    3        6    13  35    7.0388   575.0    5.180      67.680
2015    3        6    13  40    7.0343   575.3    5.173      67.632
2015    3        6    13  46    7.0300   575.5    5.165      67.586
2015    3        6    13  51    7.0258   575.7    5.157      67.541
2015    3        6    13  56    7.0218   575.9    5.150      67.498
2015    3        6    14   2    7.0180   576.1    5.142      67.457
2015    3        6    14   7    7.0142   576.4    5.135      67.419
2015    3        6    14  13    7.0107   576.6    5.127      67.382
2015    3        6    14  18    7.0072   576.8    5.119      67.347
2015    3        6    14  23    7.0039   577.1    5.112      67.313
2015    3        6    14  29    7.0007   577.3    5.104      67.281
2015    3        6    14  34    6.9976   577.5    5.096      67.250
2015    3        6    14  40    6.9946   577.8    5.089      67.220
2015    3        6    14  45    6.9917   578.0    5.081      67.191
2015    3        6    14  50    6.9888   578.2    5.073      67.162
2015    3        6    14  56    6.9860   578.5    5.065      67.134
2015    3        6    15   1    6.9834   578.7    5.057      67.106
2015    3        6    15   7    6.9808   579.0    5.050      67.078
2015    3        6    15  12    6.9783   579.2    5.042      67.052
2015    3        6    15  17    6.9758   579.4    5.035      67.028
2015    3        6    15  23    6.9734   579.7    5.027      67.006
2015    3        6    15  28    6.9710   580.0    5.019      66.987
2015    3        6    15  34    6.9687   580.2    5.011      66.971
2015    3        6    15  39    6.9664   580.5    5.004      66.960
2015    3        6    15  44    6.9640   580.8    4.995      66.952
2015    3        6    15  50    6.9617   581.1    4.987      66.948
2015    3        6    15  55    6.9593   581.3    4.978      66.945
2015    3        6    16   0    6.9570   581.6    4.969      66.946
2015    3        6    16   6    6.9545   581.9    4.960      66.949
2015    3        6    16  11    6.9521   582.2    4.950      66.954
2015    3        6    16  17    6.9495   582.5    4.940      66.960
2015    3        6    16  22    6.9470   582.8    4.929      66.968
2015    3        6    16  27    6.9444   583.0    4.918      66.975
2015    3        6    16  33    6.9419   583.3    4.907      66.983
2015    3        6    16  38    6.9393   583.6    4.895      66.991
2015    3        6    16  44    6.9367   583.8    4.883      66.999
2015    3        6    16  49    6.9341   584.1    4.871      67.006
2015    3        6    16  54    6.9315   584.4    4.859      67.013
2015    3        6    17   0    6.9289   584.6    4.846      67.020
2015    3        6    17   5    6.9263   584.9    4.833      67.027
2015    3        6    17  11    6.9238   585.2    4.820      67.034
2015    3        6    17  16    6.9212   585.4    4.806      67.040
2015    3        6    17  21    6.9187   585.7    4.793      67.045
2015    3        6    17  27    6.9162   586.0    4.779      67.050
2015    3        6    17  32    6.9137   586.3    4.764      67.054
2015    3        6    17  38    6.9116   586.5    4.750      67.056
2015    3        6    17  43    6.9088   586.8    4.735      67.057
2015    3        6    17  48    6.9063   587.1    4.720      67.056
2015    3        6    17  54    6.9039   587.4    4.704      67.053
2015    3        6    17  59    6.9015   587.7    4.689      67.048
2015    3        6    18   5    6.8991   588.0    4.673      67.038
2015    3        6    18  10    6.8967   588.3    4.656      67.022
2015    3        6    18  15    6.8944   588.5    4.640      67.000
2015    3        6    18  21    6.8920   588.8    4.624      66.973
2015    3        6    18  26    6.8896   589.1    4.607      66.941
2015    3        6    18  32    6.8873   589.4    4.591      66.905
2015    3        6    18  37    6.8849   589.7    4.575      66.865
2015    3        6    18  42    6.8828   590.0    4.559      66.823
2015    3        6    18  48    6.8801   590.2    4.543      66.778
2015    3        6    18  53    6.8777   590.5    4.527      66.730
2015    3        6    18  59    6.8751   590.8    4.511      66.680
2015    3        6    19   4    6.8726   591.1    4.496      66.628
2015    3        6    19   9    6.8700   591.3    4.481      66.578
2015    3        6    19  15    6.8673   591.6    4.466      66.528
2015    3        6    19  20    6.8645   591.9    4.451      66.478
2015    3        6    19  26    6.8617   592.2    4.436      66.429
2015    3        6    19  31    6.8588   592.5    4.421      66.381
2015    3        6    19  36    6.8557   592.8    4.407      66.335
2015    3        6    19  42    6.8527   593.1    4.392      66.289
2015    3        6    19  47    6.8495   593.4    4.377      66.241
2015    3        6    19  53    6.8463   593.7    4.363      66.193
2015    3        6    19  58    6.8430   594.0    4.348      66.144
2015    3        6    20   3    6.8396   594.3    4.333      66.096
2015    3        6    20   9    6.8361   594.5    4.318      66.043
2015    3        6    20  14    6.8326   594.8    4.303      65.986
2015    3        6    20  20    6.8289   595.1    4.288      65.925
2015    3        6    20  25    6.8253   595.4    4.273      65.859
2015    3        6    20  30    6.8216   595.6    4.258      65.789
2015    3        6    20  36    6.8178   595.8    4.244      65.715
2015    3        6    20  41    6.8140   596.1    4.229      65.640
2015    3        6    20  47    6.8102   596.3    4.216      65.564
2015    3        6    20  52    6.8065   596.5    4.202      65.488
2015    3        6    20  57    6.8027   596.7    4.189      65.412
2015    3        6    21   3    6.7989   596.9    4.177      65.336
2015    3        6    21   8    6.7951   597.1    4.166      65.262
2015    3        6    21  14    6.7914   597.3    4.155      65.192
2015    3        6    21  19    6.7875   597.5    4.145      65.126
2015    3        6    21  24    6.7838   597.6    4.135      65.064
2015    3        6    21  30    6.7801   597.8    4.126      65.007
2015    3        6    21  35    6.7763   598.0    4.118      64.954
2015    3        6    21  41    6.7726   598.1    4.110      64.905
2015    3        6    21  46    6.7690   598.3    4.103      64.861
2015    3        6    21  51    6.7653   598.5    4.097      64.822
2015    3        6    21  57    6.7616   598.7    4.091      64.787
2015    3        6    22   2    6.7580   598.9    4.085      64.758
2015    3        6    22   8    6.7543   599.1    4.079      64.735
2015    3        6    22  13    6.7505   599.3    4.074      64.718
2015    3        6    22  18    6.7467   599.5    4.069      64.708
2015    3        6    22  24    6.7428   599.7    4.065      64.703
2015    3        6    22  29    6.7388   600.0    4.060      64.704
2015    3        6    22  35    6.7347   600.2    4.055      64.708
2015    3        6    22  40    6.7304   600.4    4.051      64.716
2015    3        6    22  45    6.7260   600.7    4.046      64.727
2015    3        6    22  51    6.7215   600.9    4.042      64.740
2015    3        6    22  56    6.7169   601.1    4.038      64.754
2015    3        6    23   2    6.7121   601.4    4.033      64.768
2015    3        6    23   7    6.7072   601.6    4.029      64.783
2015    3        6    23  12    6.7022   601.8    4.024      64.797
2015    3        6    23  18    6.6971   602.0    4.020      64.811
2015    3        6    23  23    6.6920   602.2    4.015      64.824
2015    3        6    23  29    6.6867   602.4    4.011      64.836
2015    3        6    23  34    6.6814   602.6    4.007      64.847
2015    3        6    23  39    6.6761   602.8    4.002      64.856
2015    3        6    23  45    6.6707   602.9    3.998      64.865
2015    3        6    23  50    6.6653   603.1    3.994      64.873
2015    3        6    23  56    6.6598   603.3    3.990      64.881
2015    3        7     0   1    6.6544   603.4    3.986      64.889
2015    3        7     0   6    6.6489   603.6    3.982      64.898
2015    3        7     0  12    6.6435   603.7    3.978      64.907
2015    3        7     0  17    6.6380   603.9    3.974      64.917
2015    3        7     0  23    6.6326   604.0    3.971      64.929
2015    3        7     0  28    6.6272   604.2    3.967      64.942
2015    3        7     0  33    6.6219   604.3    3.964      64.958
2015    3        7     0  39    6.6165   604.5    3.961      64.975
2015    3        7     0  44    6.6112   604.6    3.959      64.995
2015    3        7     0  50    6.6059   604.8    3.956      65.017
2015    3        7     0  55    6.6006   604.9    3.954      65.043
2015    3        7     1   0    6.5953   605.1    3.952      65.070
2015    3        7     1   6    6.5902   605.2    3.950      65.100
2015    3        7     1  11    6.5850   605.4    3.949      65.133
2015    3        7     1  17    6.5798   605.5    3.948      65.169
2015    3        7     1  22    6.5747   605.7    3.947      65.207
2015    3        7     1  27    6.5695   605.8    3.946      65.248
2015    3        7     1  33    6.5644   605.9    3.946      65.291
2015    3        7     1  38    6.5594   606.1    3.946      65.337
2015    3        7     1  44    6.5544   606.2    3.946      65.387
2015    3        7     1  49    6.5494   606.3    3.947      65.440
2015    3        7     1  54    6.5445   606.5    3.947      65.496
2015    3        7     2   0    6.5396   606.6    3.948      65.556
2015    3        7     2   5    6.5349   606.7    3.949      65.618
2015    3        7     2  11    6.5302   606.9    3.950      65.682
2015    3        7     2  16    6.5256   607.0    3.951      65.747
2015    3        7     2  21    6.5211   607.1    3.952      65.814
2015    3        7     2  27    6.5167   607.2    3.953      65.882
2015    3        7     2  32    6.5124   607.4    3.954      65.950
2015    3        7     2  38    6.5083   607.5    3.955      66.019
2015    3        7     2  43    6.5042   607.6    3.955      66.087
2015    3        7     2  48    6.5003   607.7    3.956      66.155
2015    3        7     2  54    6.4964   607.8    3.957      66.222
2015    3        7     2  59    6.4926   607.9    3.957      66.287
2015    3        7     3   5    6.4889   608.1    3.958      66.350
2015    3        7     3  10    6.4854   608.2    3.958      66.413
2015    3        7     3  15    6.4819   608.3    3.958      66.474
2015    3        7     3  21    6.4785   608.4    3.958      66.534
2015    3        7     3  26    6.4751   608.5    3.958      66.593
2015    3        7     3  32    6.4721   608.6    3.958      66.650
2015    3        7     3  37    6.4688   608.7    3.958      66.707
2015    3        7     3  42    6.4657   608.8    3.958      66.762
2015    3        7     3  48    6.4627   608.9    3.957      66.817
2015    3        7     3  53    6.4598   609.0    3.957      66.870
2015    3        7     3  59    6.4570   609.2    3.956      66.922
2015    3        7     4   4    6.4543   609.3    3.956      66.973
2015    3        7     4   9    6.4516   609.4    3.955      67.023
2015    3        7     4  15    6.4491   609.5    3.955      67.072
2015    3        7     4  20    6.4466   609.6    3.954      67.121
2015    3        7     4  26    6.4443   609.7    3.953      67.168
2015    3        7     4  31    6.4419   609.8    3.952      67.214
2015    3        7     4  36    6.4397   610.0    3.951      67.260
2015    3        7     4  42    6.4376   610.1    3.950      67.304
2015    3        7     4  47    6.4357   610.2    3.949      67.347
2015    3        7     4  53    6.4335   610.3    3.947      67.388
2015    3        7     4  58    6.4315   610.5    3.946      67.428
2015    3        7     5   3    6.4297   610.6    3.945      67.467
2015    3        7     5   9    6.4279   610.7    3.943      67.504
2015    3        7     5  14    6.4261   610.8    3.941      67.540
2015    3        7     5  20    6.4244   611.0    3.939      67.575
2015    3        7     5  25    6.4227   611.1    3.937      67.608
2015    3        7     5  30    6.4211   611.2    3.935      67.639
2015    3        7     5  36    6.4196   611.3    3.933      67.670
2015    3        7     5  41    6.4181   611.5    3.931      67.699
2015    3        7     5  47    6.4166   611.6    3.928      67.727
2015    3        7     5  52    6.4151   611.7    3.926      67.753
2015    3        7     5  57    6.4137   611.9    3.924      67.779
2015    3        7     6   3    6.4123   612.0    3.921      67.803
2015    3        7     6   8    6.4109   612.1    3.918      67.827
2015    3        7     6  14    6.4096   612.2    3.916      67.850
2015    3        7     6  19    6.4084   612.4    3.913      67.872
2015    3        7     6  24    6.4071   612.5    3.910      67.893
2015    3        7     6  30    6.4057   612.6    3.907      67.914
2015    3        7     6  35    6.4044   612.8    3.904      67.934
2015    3        7     6  41    6.4032   612.9    3.902      67.954
2015    3        7     6  46    6.4021   613.0    3.899      67.972
2015    3        7     6  51    6.4008   613.1    3.896      67.991
2015    3        7     6  57    6.3996   613.3    3.893      68.009
2015    3        7     7   2    6.3984   613.4    3.890      68.027
2015    3        7     7   8    6.3972   613.5    3.887      68.044
2015    3        7     7  13    6.3960   613.6    3.884      68.061
2015    3        7     7  18    6.3948   613.7    3.881      68.078
2015    3        7     7  24    6.3936   613.9    3.877      68.094
2015    3        7     7  29    6.3924   614.0    3.874      68.111
2015    3        7     7  34    6.3912   614.1    3.871      68.127
2015    3        7     7  40    6.3900   614.2    3.868      68.143
2015    3        7     7  45    6.3888   614.4    3.865      68.159
2015    3        7     7  51    6.3876   614.5    3.862      68.175
2015    3        7     7  56    6.3864   614.6    3.859      68.191
2015    3        7     8   1    6.3851   614.7    3.856      68.207
2015    3        7     8   7    6.3838   614.8    3.853      68.223
2015    3        7     8  12    6.3825   614.9    3.850      68.239
2015    3        7     8  18    6.3812   615.1    3.847      68.255
2015    3        7     8  23    6.3799   615.2    3.844      68.272
2015    3        7     8  28    6.3785   615.3    3.841      68.288
2015    3        7     8  34    6.3771   615.4    3.838      68.304
2015    3        7     8  39    6.3757   615.5    3.835      68.320
2015    3        7     8  45    6.3742   615.6    3.832      68.337
2015    3        7     8  50    6.3727   615.8    3.829      68.353
2015    3        7     8  55    6.3712   615.9    3.826      68.370
2015    3        7     9   1    6.3697   616.0    3.823      68.386
2015    3        7     9   6    6.3681   616.1    3.820      68.403
2015    3        7     9  12    6.3665   616.2    3.817      68.420
2015    3        7     9  17    6.3648   616.3    3.814      68.437
2015    3        7     9  22    6.3632   616.4    3.812      68.454
2015    3        7     9  28    6.3615   616.5    3.809      68.471
2015    3        7     9  33    6.3598   616.7    3.806      68.488
2015    3        7     9  39    6.3580   616.8    3.803      68.506
2015    3        7     9  44    6.3562   616.9    3.800      68.523
2015    3        7     9  49    6.3544   617.0    3.798      68.541
2015    3        7     9  55    6.3525   617.1    3.795      68.559
2015    3        7    10   0    6.3506   617.2    3.792      68.577
2015    3        7    10   6    6.3487   617.3    3.790      68.596
2015    3        7    10  11    6.3467   617.4    3.787      68.614
2015    3        7    10  16    6.3447   617.5    3.785      68.633
2015    3        7    10  22    6.3427   617.7    3.782      68.652
2015    3        7    10  27    6.3406   617.8    3.779      68.670
2015    3        7    10  33    6.3385   617.9    3.777      68.689
2015    3        7    10  38    6.3364   618.0    3.774      68.707
2015    3        7    10  43    6.3343   618.1    3.772      68.725
2015    3        7    10  49    6.3321   618.2    3.769      68.743
2015    3        7    10  54    6.3299   618.3    3.767      68.761
2015    3        7    11   0    6.3277   618.4    3.764      68.778
2015    3        7    11   5    6.3255   618.5    3.761      68.795
2015    3        7    11  10    6.3232   618.7    3.759      68.811
2015    3        7    11  16    6.3209   618.8    3.756      68.828
2015    3        7    11  21    6.3186   618.9    3.754      68.843
2015    3        7    11  27    6.3163   619.0    3.751      68.859
2015    3        7    11  32    6.3139   619.1    3.748      68.874
2015    3        7    11  37    6.3116   619.2    3.746      68.888
2015    3        7    11  43    6.3091   619.3    3.743      68.903
2015    3        7    11  48    6.3068   619.4    3.740      68.917
2015    3        7    11  54    6.3043   619.5    3.738      68.931
2015    3        7    11  59    6.3019   619.6    3.735      68.945
2015    3        7    12   4    6.2995   619.7    3.733      68.958
2015    3        7    12  10    6.2971   619.8    3.730      68.972
2015    3        7    12  15    6.2946   619.9    3.728      68.985
2015    3        7    12  21    6.2921   620.0    3.725      68.998
2015    3        7    12  26    6.2896   620.1    3.723      69.011
2015    3        7    12  31    6.2871   620.2    3.720      69.024
2015    3        7    12  37    6.2846   620.3    3.718      69.037
2015    3        7    12  42    6.2821   620.4    3.715      69.050
2015    3        7    12  48    6.2796   620.5    3.713      69.063
2015    3        7    12  53    6.2771   620.6    3.711      69.076
2015    3        7    12  58    6.2745   620.7    3.709      69.088
2015    3        7    13   4    6.2720   620.8    3.706      69.101
2015    3        7    13   9    6.2695   620.9    3.704      69.115
2015    3        7    13  15    6.2669   621.0    3.702      69.128
2015    3        7    13  20    6.2643   621.1    3.700      69.141
2015    3        7    13  25    6.2618   621.2    3.698      69.155
2015    3        7    13  31    6.2592   621.3    3.696      69.168
2015    3        7    13  36    6.2566   621.4    3.694      69.181
2015    3        7    13  42    6.2541   621.5    3.692      69.195
2015    3        7    13  47    6.2515   621.6    3.690      69.209
2015    3        7    13  52    6.2489   621.7    3.688      69.222
2015    3        7    13  58    6.2463   621.8    3.686      69.237
2015    3        7    14   3    6.2437   621.9    3.684      69.251
2015    3        7    14   9    6.2412   622.0    3.682      69.266
2015    3        7    14  14    6.2386   622.1    3.680      69.282
2015    3        7    14  19    6.2360   622.2    3.678      69.297
2015    3        7    14  25    6.2334   622.3    3.676      69.313
2015    3        7    14  30    6.2309   622.4    3.674      69.328
2015    3        7    14  36    6.2283   622.4    3.672      69.344
2015    3        7    14  41    6.2257   622.5    3.669      69.359
2015    3        7    14  46    6.2232   622.6    3.667      69.374
2015    3        7    14  52    6.2206   622.7    3.665      69.389
2015    3        7    14  57    6.2181   622.8    3.663      69.404
2015    3        7    15   3    6.2155   622.9    3.661      69.419
2015    3        7    15   8    6.2130   623.0    3.658      69.433
2015    3        7    15  13    6.2105   623.1    3.656      69.446
2015    3        7    15  19    6.2080   623.2    3.654      69.459
2015    3        7    15  24    6.2054   623.3    3.651      69.471
2015    3        7    15  30    6.2029   623.4    3.649      69.483
2015    3        7    15  35    6.2004   623.4    3.646      69.493
2015    3        7    15  40    6.1978   623.5    3.644      69.504
2015    3        7    15  46    6.1953   623.6    3.641      69.513
2015    3        7    15  51    6.1928   623.7    3.639      69.522
2015    3        7    15  57    6.1902   623.8    3.636      69.531
2015    3        7    16   2    6.1877   623.9    3.633      69.538
2015    3        7    16   7    6.1851   624.0    3.631      69.545
2015    3        7    16  13    6.1825   624.1    3.628      69.551
2015    3        7    16  18    6.1800   624.1    3.625      69.557
2015    3        7    16  24    6.1774   624.2    3.623      69.562
2015    3        7    16  29    6.1748   624.3    3.620      69.566
2015    3        7    16  34    6.1721   624.4    3.617      69.570
2015    3        7    16  40    6.1695   624.5    3.614      69.573
2015    3        7    16  45    6.1669   624.6    3.611      69.575
2015    3        7    16  51    6.1642   624.6    3.609      69.577
2015    3        7    16  56    6.1615   624.7    3.606      69.579
2015    3        7    17   1    6.1589   624.8    3.603      69.580
2015    3        7    17   7    6.1562   624.9    3.600      69.580
2015    3        7    17  12    6.1535   625.0    3.597      69.580
2015    3        7    17  18    6.1508   625.0    3.594      69.579
2015    3        7    17  23    6.1480   625.1    3.591      69.578
2015    3        7    17  28    6.1453   625.2    3.588      69.576
2015    3        7    17  34    6.1425   625.3    3.585      69.575
2015    3        7    17  39    6.1398   625.3    3.583      69.572
2015    3        7    17  45    6.1370   625.4    3.580      69.570
2015    3        7    17  50    6.1343   625.5    3.577      69.567
2015    3        7    17  55    6.1315   625.5    3.574      69.563
2015    3        7    18   1    6.1287   625.6    3.571      69.559
2015    3        7    18   6    6.1259   625.7    3.568      69.555
2015    3        7    18  12    6.1231   625.8    3.566      69.551
2015    3        7    18  17    6.1203   625.8    3.563      69.547
2015    3        7    18  22    6.1175   625.9    3.560      69.542
2015    3        7    18  28    6.1147   626.0    3.558      69.537
2015    3        7    18  33    6.1118   626.0    3.555      69.532
2015    3        7    18  39    6.1090   626.1    3.553      69.527
2015    3        7    18  44    6.1062   626.1    3.550      69.521
2015    3        7    18  49    6.1033   626.2    3.548      69.516
2015    3        7    18  55    6.1005   626.3    3.545      69.511
2015    3        7    19   0    6.0976   626.3    3.543      69.505
2015    3        7    19   6    6.0947   626.4    3.541      69.500
2015    3        7    19  11    6.0919   626.5    3.538      69.494
2015    3        7    19  16    6.0890   626.5    3.536      69.489
2015    3        7    19  22    6.0861   626.6    3.534      69.484
2015    3        7    19  27    6.0832   626.6    3.532      69.478
2015    3        7    19  33    6.0804   626.7    3.530      69.473
2015    3        7    19  38    6.0775   626.7    3.528      69.469
2015    3        7    19  43    6.0746   626.8    3.526      69.464
2015    3        7    19  49    6.0717   626.9    3.524      69.460
2015    3        7    19  54    6.0689   626.9    3.522      69.457
2015    3        7    20   0    6.0660   627.0    3.520      69.453
2015    3        7    20   5    6.0631   627.0    3.518      69.450
2015    3        7    20  10    6.0603   627.1    3.516      69.447
2015    3        7    20  16    6.0574   627.1    3.514      69.445
2015    3        7    20  21    6.0546   627.2    3.512      69.442
2015    3        7    20  27    6.0517   627.2    3.511      69.440
2015    3        7    20  32    6.0489   627.3    3.509      69.438
2015    3        7    20  37    6.0461   627.3    3.507      69.436
2015    3        7    20  43    6.0432   627.4    3.505      69.436
2015    3        7    20  48    6.0404   627.4    3.504      69.435
2015    3        7    20  54    6.0377   627.5    3.502      69.435
2015    3        7    20  59    6.0348   627.5    3.500      69.435
2015    3        7    21   4    6.0321   627.6    3.498      69.436
2015    3        7    21  10    6.0293   627.6    3.497      69.436
2015    3        7    21  15    6.0265   627.7    3.495      69.437
2015    3        7    21  21    6.0237   627.7    3.493      69.437
2015    3        7    21  26    6.0209   627.8    3.491      69.438
2015    3        7    21  31    6.0181   627.8    3.489      69.438
2015    3        7    21  37    6.0153   627.9    3.488      69.438
2015    3        7    21  42    6.0125   627.9    3.486      69.438
2015    3        7    21  48    6.0097   628.0    3.484      69.438
2015    3        7    21  53    6.0069   628.0    3.482      69.437
2015    3        7    21  58    6.0041   628.1    3.480      69.436
2015    3        7    22   4    6.0012   628.1    3.478      69.435
2015    3        7    22   9    5.9984   628.2    3.476      69.433
2015    3        7    22  15    5.9955   628.2    3.474      69.431
2015    3        7    22  20    5.9927   628.3    3.472      69.428
2015    3        7    22  25    5.9898   628.3    3.470      69.426
2015    3        7    22  31    5.9869   628.4    3.468      69.423
2015    3        7    22  36    5.9840   628.4    3.466      69.419
2015    3        7    22  42    5.9811   628.4    3.464      69.415
2015    3        7    22  47    5.9782   628.5    3.461      69.412
2015    3        7    22  52    5.9753   628.5    3.459      69.407
2015    3        7    22  58    5.9724   628.6    3.457      69.403
2015    3        7    23   3    5.9695   628.6    3.455      69.398
2015    3        7    23   9    5.9665   628.6    3.453      69.393
2015    3        7    23  14    5.9636   628.7    3.451      69.387
2015    3        7    23  19    5.9607   628.7    3.449      69.382
2015    3        7    23  25    5.9578   628.8    3.446      69.376
2015    3        7    23  30    5.9548   628.8    3.444      69.369
2015    3        7    23  36    5.9519   628.8    3.442      69.363
2015    3        7    23  41    5.9490   628.9    3.440      69.356
2015    3        7    23  46    5.9460   628.9    3.438      69.349
2015    3        7    23  52    5.9431   628.9    3.436      69.342
2015    3        7    23  57    5.9402   629.0    3.434      69.334
2015    3        8     0   3    5.9372   629.0    3.432      69.326
2015    3        8     0   8    5.9343   629.0    3.430      69.318
2015    3        8     0  13    5.9314   629.0    3.428      69.310
2015    3        8     0  19    5.9284   629.1    3.426      69.301
2015    3        8     0  24    5.9255   629.1    3.424      69.292
2015    3        8     0  30    5.9226   629.1    3.422      69.283
2015    3        8     0  35    5.9197   629.2    3.420      69.274
2015    3        8     0  40    5.9168   629.2    3.418      69.265
2015    3        8     0  46    5.9139   629.2    3.416      69.255
2015    3        8     0  51    5.9110   629.2    3.414      69.246
2015    3        8     0  57    5.9081   629.3    3.412      69.236
2015    3        8     1   2    5.9052   629.3    3.410      69.226
2015    3        8     1   7    5.9023   629.3    3.409      69.216
2015    3        8     1  13    5.8994   629.3    3.407      69.207
2015    3        8     1  18    5.8966   629.3    3.405      69.197
2015    3        8     1  24    5.8937   629.4    3.403      69.187
2015    3        8     1  29    5.8909   629.4    3.402      69.177
2015    3        8     1  34    5.8881   629.4    3.400      69.168
2015    3        8     1  40    5.8853   629.4    3.398      69.158
2015    3        8     1  45    5.8825   629.4    3.397      69.148
2015    3        8     1  50    5.8796   629.4    3.395      69.139
2015    3        8     1  56    5.8768   629.5    3.394      69.130
2015    3        8     2   1    5.8741   629.5    3.392      69.120
2015    3        8     2   7    5.8713   629.5    3.390      69.111
2015    3        8     2  12    5.8685   629.5    3.389      69.102
2015    3        8     2  17    5.8657   629.5    3.387      69.093
2015    3        8     2  23    5.8630   629.5    3.386      69.085
2015    3        8     2  28    5.8602   629.5    3.384      69.076
2015    3        8     2  34    5.8575   629.6    3.383      69.067
2015    3        8     2  39    5.8547   629.6    3.381      69.058
2015    3        8     2  44    5.8520   629.6    3.380      69.049
2015    3        8     2  50    5.8492   629.6    3.379      69.041
2015    3        8     2  55    5.8464   629.6    3.377      69.032
2015    3        8     3   1    5.8437   629.6    3.376      69.023
2015    3        8     3   6    5.8410   629.6    3.374      69.015
2015    3        8     3  11    5.8382   629.7    3.373      69.007
2015    3        8     3  17    5.8354   629.7    3.372      68.999
2015    3        8     3  22    5.8326   629.7    3.370      68.992
2015    3        8     3  28    5.8298   629.7    3.369      68.985
2015    3        8     3  33    5.8271   629.7    3.368      68.978
2015    3        8     3  38    5.8243   629.7    3.366      68.972
2015    3        8     3  44    5.8214   629.7    3.365      68.965
2015    3        8     3  49    5.8186   629.8    3.363      68.959
2015    3        8     3  55    5.8158   629.8    3.362      68.952
2015    3        8     4   0    5.8130   629.8    3.361      68.945
2015    3        8     4   5    5.8102   629.8    3.359      68.939
2015    3        8     4  11    5.8074   629.8    3.358      68.931
2015    3        8     4  16    5.8045   629.8    3.356      68.924
2015    3        8     4  22    5.8017   629.8    3.355      68.916
2015    3        8     4  27    5.7988   629.9    3.353      68.907
2015    3        8     4  32    5.7960   629.9    3.352      68.898
2015    3        8     4  38    5.7932   629.9    3.350      68.889
2015    3        8     4  43    5.7903   629.9    3.348      68.880
2015    3        8     4  49    5.7874   629.9    3.347      68.871
2015    3        8     4  54    5.7846   629.9    3.345      68.861
2015    3        8     4  59    5.7817   629.9    3.344      68.851
2015    3        8     5   5    5.7789   629.9    3.342      68.841
2015    3        8     5  10    5.7760   629.9    3.340      68.830
2015    3        8     5  16    5.7731   629.9    3.339      68.819
2015    3        8     5  21    5.7702   629.9    3.337      68.808
2015    3        8     5  26    5.7673   629.9    3.335      68.796
2015    3        8     5  32    5.7644   629.9    3.334      68.784
2015    3        8     5  37    5.7615   629.9    3.332      68.772
2015    3        8     5  43    5.7586   629.9    3.330      68.759
2015    3        8     5  48    5.7557   630.0    3.328      68.746
2015    3        8     5  53    5.7527   630.0    3.327      68.732
2015    3        8     5  59    5.7498   629.9    3.325      68.718
2015    3        8     6   4    5.7469   629.9    3.323      68.704
2015    3        8     6  10    5.7440   629.9    3.321      68.689
2015    3        8     6  15    5.7410   629.9    3.319      68.673
2015    3        8     6  20    5.7380   629.9    3.317      68.657
2015    3        8     6  26    5.7351   629.9    3.315      68.641
2015    3        8     6  31    5.7321   629.9    3.313      68.624
2015    3        8     6  37    5.7291   629.9    3.312      68.607
2015    3        8     6  42    5.7262   629.9    3.310      68.590
2015    3        8     6  47    5.7232   629.9    3.308      68.572
2015    3        8     6  53    5.7203   629.9    3.306      68.554
2015    3        8     6  58    5.7173   629.9    3.304      68.535
2015    3        8     7   4    5.7144   629.9    3.302      68.517
2015    3        8     7   9    5.7114   629.8    3.300      68.498
2015    3        8     7  14    5.7085   629.8    3.298      68.479
2015    3        8     7  20    5.7055   629.8    3.297      68.460
2015    3        8     7  25    5.7026   629.8    3.295      68.441
2015    3        8     7  31    5.6997   629.8    3.293      68.423
2015    3        8     7  36    5.6968   629.8    3.292      68.404
2015    3        8     7  41    5.6939   629.7    3.290      68.386
2015    3        8     7  47    5.6910   629.7    3.289      68.368
2015    3        8     7  52    5.6882   629.7    3.287      68.351
2015    3        8     7  58    5.6853   629.7    3.286      68.334
2015    3        8     8   3    5.6825   629.6    3.284      68.318
2015    3        8     8   8    5.6797   629.6    3.283      68.302
2015    3        8     8  14    5.6769   629.6    3.282      68.287
2015    3        8     8  19    5.6742   629.6    3.281      68.273
2015    3        8     8  25    5.6715   629.5    3.280      68.260
2015    3        8     8  30    5.6687   629.5    3.279      68.248
2015    3        8     8  35    5.6660   629.5    3.278      68.237
2015    3        8     8  41    5.6633   629.5    3.278      68.227
2015    3        8     8  46    5.6606   629.5    3.277      68.216
2015    3        8     8  52    5.6579   629.4    3.276      68.207
2015    3        8     8  57    5.6552   629.4    3.275      68.197
2015    3        8     9   2    5.6525   629.4    3.275      68.188
2015    3        8     9   8    5.6498   629.4    3.274      68.179
2015    3        8     9  13    5.6471   629.4    3.273      68.171
2015    3        8     9  19    5.6444   629.3    3.272      68.162
2015    3        8     9  24    5.6417   629.3    3.272      68.153
2015    3        8     9  29    5.6390   629.3    3.271      68.144
2015    3        8     9  35    5.6363   629.3    3.270      68.135
2015    3        8     9  40    5.6336   629.2    3.270      68.127
2015    3        8     9  46    5.6309   629.2    3.269      68.119
2015    3        8     9  51    5.6282   629.2    3.268      68.112
2015    3        8     9  56    5.6255   629.2    3.268      68.106
2015    3        8    10   2    5.6228   629.2    3.267      68.099
2015    3        8    10   7    5.6201   629.1    3.266      68.093
2015    3        8    10  13    5.6174   629.1    3.266      68.086
2015    3        8    10  18    5.6146   629.1    3.265      68.080
2015    3        8    10  23    5.6119   629.1    3.264      68.073
2015    3        8    10  29    5.6091   629.1    3.263      68.067
2015    3        8    10  34    5.6064   629.1    3.262      68.060
2015    3        8    10  40    5.6036   629.0    3.261      68.052
2015    3        8    10  45    5.6008   629.0    3.260      68.043
2015    3        8    10  50    5.5980   629.0    3.259      68.034
2015    3        8    10  56    5.5952   629.0    3.258      68.024
2015    3        8    11   1    5.5924   629.0    3.257      68.013
2015    3        8    11   7    5.5895   629.0    3.256      68.002
2015    3        8    11  12    5.5867   628.9    3.254      67.990
2015    3        8    11  17    5.5838   628.9    3.253      67.978
2015    3        8    11  23    5.5810   628.9    3.252      67.965
2015    3        8    11  28    5.5781   628.9    3.250      67.952
2015    3        8    11  34    5.5752   628.9    3.249      67.937
2015    3        8    11  39    5.5723   628.8    3.247      67.922
2015    3        8    11  44    5.5695   628.8    3.246      67.907
2015    3        8    11  50    5.5666   628.8    3.244      67.890
2015    3        8    11  55    5.5636   628.8    3.243      67.873
2015    3        8    12   1    5.5607   628.7    3.241      67.855
2015    3        8    12   6    5.5578   628.7    3.239      67.837
2015    3        8    12  11    5.5549   628.7    3.238      67.818
2015    3        8    12  17    5.5520   628.7    3.236      67.798
2015    3        8    12  22    5.5490   628.6    3.234      67.777
2015    3        8    12  28    5.5461   628.6    3.233      67.756
2015    3        8    12  33    5.5431   628.6    3.231      67.734
2015    3        8    12  38    5.5402   628.5    3.229      67.712
2015    3        8    12  44    5.5373   628.5    3.227      67.689
2015    3        8    12  49    5.5343   628.5    3.226      67.666
2015    3        8    12  55    5.5314   628.4    3.224      67.642
2015    3        8    13   0    5.5284   628.4    3.222      67.619
2015    3        8    13   5    5.5255   628.3    3.221      67.595
2015    3        8    13  11    5.5225   628.3    3.219      67.571
2015    3        8    13  16    5.5196   628.2    3.217      67.547
2015    3        8    13  22    5.5167   628.2    3.216      67.523
2015    3        8    13  27    5.5138   628.2    3.214      67.499
2015    3        8    13  32    5.5109   628.1    3.213      67.475
2015    3        8    13  38    5.5080   628.1    3.211      67.451
2015    3        8    13  43    5.5051   628.0    3.210      67.427
2015    3        8    13  49    5.5022   628.0    3.209      67.404
2015    3        8    13  54    5.4993   627.9    3.207      67.381
2015    3        8    13  59    5.4964   627.9    3.206      67.359
2015    3        8    14   5    5.4936   627.8    3.205      67.338
2015    3        8    14  10    5.4907   627.8    3.204      67.317
2015    3        8    14  16    5.4878   627.7    3.202      67.296
2015    3        8    14  21    5.4849   627.7    3.201      67.276
2015    3        8    14  26    5.4820   627.6    3.200      67.256
2015    3        8    14  32    5.4791   627.6    3.199      67.237
2015    3        8    14  37    5.4762   627.5    3.198      67.218
2015    3        8    14  43    5.4733   627.5    3.197      67.199
2015    3        8    14  48    5.4704   627.4    3.196      67.181
2015    3        8    14  53    5.4675   627.4    3.195      67.162
2015    3        8    14  59    5.4646   627.3    3.194      67.144
2015    3        8    15   4    5.4617   627.3    3.193      67.126
2015    3        8    15  10    5.4588   627.2    3.192      67.109
2015    3        8    15  15    5.4559   627.2    3.191      67.091
2015    3        8    15  20    5.4531   627.1    3.190      67.074
2015    3        8    15  26    5.4502   627.1    3.189      67.057
2015    3        8    15  31    5.4473   627.0    3.189      67.041
2015    3        8    15  37    5.4444   627.0    3.188      67.026
2015    3        8    15  42    5.4416   626.9    3.187      67.011
2015    3        8    15  47    5.4387   626.9    3.187      66.997
2015    3        8    15  53    5.4358   626.8    3.186      66.984
2015    3        8    15  58    5.4329   626.8    3.186      66.971
2015    3        8    16   4    5.4300   626.7    3.185      66.958
2015    3        8    16   9    5.4271   626.7    3.184      66.945
2015    3        8    16  14    5.4242   626.6    3.183      66.931
2015    3        8    16  20    5.4212   626.6    3.183      66.918
2015    3        8    16  25    5.4182   626.5    3.182      66.903
2015    3        8    16  31    5.4153   626.5    3.181      66.889
2015    3        8    16  36    5.4123   626.4    3.180      66.874
2015    3        8    16  41    5.4093   626.4    3.179      66.858
2015    3        8    16  47    5.4062   626.3    3.178      66.841
2015    3        8    16  52    5.4032   626.3    3.177      66.824
2015    3        8    16  58    5.4002   626.2    3.176      66.805
2015    3        8    17   3    5.3971   626.2    3.175      66.786
2015    3        8    17   8    5.3940   626.1    3.174      66.766
2015    3        8    17  14    5.3910   626.0    3.172      66.745
2015    3        8    17  19    5.3879   626.0    3.171      66.724
2015    3        8    17  25    5.3848   625.9    3.170      66.702
2015    3        8    17  30    5.3817   625.9    3.168      66.679
2015    3        8    17  35    5.3786   625.8    3.167      66.656
2015    3        8    17  41    5.3755   625.7    3.166      66.632
2015    3        8    17  46    5.3724   625.7    3.164      66.608
2015    3        8    17  52    5.3694   625.6    3.163      66.583
2015    3        8    17  57    5.3663   625.6    3.161      66.557
2015    3        8    18   2    5.3632   625.5    3.160      66.531
2015    3        8    18   8    5.3601   625.4    3.158      66.504
2015    3        8    18  13    5.3570   625.4    3.157      66.476
2015    3        8    18  19    5.3539   625.3    3.155      66.448
2015    3        8    18  24    5.3509   625.2    3.154      66.419
2015    3        8    18  29    5.3478   625.1    3.152      66.390
2015    3        8    18  35    5.3448   625.1    3.151      66.361
2015    3        8    18  40    5.3418   625.0    3.149      66.332
2015    3        8    18  46    5.3388   624.9    3.148      66.302
2015    3        8    18  51    5.3358   624.8    3.147      66.272
2015    3        8    18  56    5.3328   624.7    3.145      66.242
2015    3        8    19   2    5.3298   624.7    3.144      66.213
2015    3        8    19   7    5.3269   624.6    3.143      66.183
2015    3        8    19  13    5.3240   624.5    3.142      66.154
2015    3        8    19  18    5.3211   624.4    3.141      66.125
2015    3        8    19  23    5.3183   624.3    3.140      66.096
2015    3        8    19  29    5.3155   624.2    3.139      66.067
2015    3        8    19  34    5.3126   624.1    3.138      66.040
2015    3        8    19  40    5.3098   624.1    3.137      66.014
2015    3        8    19  45    5.3069   624.0    3.137      65.990
2015    3        8    19  50    5.3041   623.9    3.136      65.966
2015    3        8    19  56    5.3013   623.8    3.135      65.944
2015    3        8    20   1    5.2984   623.7    3.135      65.922
2015    3        8    20   7    5.2956   623.6    3.134      65.901
2015    3        8    20  12    5.2927   623.6    3.133      65.879
2015    3        8    20  17    5.2898   623.5    3.133      65.858
2015    3        8    20  23    5.2869   623.4    3.132      65.838
2015    3        8    20  28    5.2839   623.3    3.131      65.818
2015    3        8    20  34    5.2810   623.2    3.130      65.798
2015    3        8    20  39    5.2781   623.2    3.130      65.777
2015    3        8    20  44    5.2751   623.1    3.129      65.756
2015    3        8    20  50    5.2722   623.0    3.128      65.735
2015    3        8    20  55    5.2692   622.9    3.127      65.714
2015    3        8    21   1    5.2663   622.8    3.127      65.693
2015    3        8    21   6    5.2633   622.7    3.126      65.672
2015    3        8    21  11    5.2604   622.7    3.125      65.651
2015    3        8    21  17    5.2575   622.6    3.125      65.630
2015    3        8    21  22    5.2546   622.5    3.124      65.610
2015    3        8    21  28    5.2517   622.4    3.123      65.590
2015    3        8    21  33    5.2488   622.3    3.123      65.572
2015    3        8    21  38    5.2458   622.3    3.122      65.553
2015    3        8    21  44    5.2429   622.2    3.122      65.536
2015    3        8    21  49    5.2399   622.1    3.121      65.519
2015    3        8    21  54    5.2370   622.0    3.121      65.501
2015    3        8    22   0    5.2340   621.9    3.120      65.484
2015    3        8    22   5    5.2309   621.9    3.120      65.466
2015    3        8    22  11    5.2279   621.8    3.119      65.447
2015    3        8    22  16    5.2248   621.7    3.118      65.428
2015    3        8    22  21    5.2217   621.6    3.117      65.408
2015    3        8    22  27    5.2186   621.6    3.116      65.387
2015    3        8    22  32    5.2154   621.5    3.115      65.365
2015    3        8    22  38    5.2123   621.4    3.114      65.341
2015    3        8    22  43    5.2091   621.3    3.113      65.316
2015    3        8    22  48    5.2059   621.2    3.112      65.290
2015    3        8    22  54    5.2027   621.1    3.111      65.263
2015    3        8    22  59    5.1995   621.0    3.110      65.234
2015    3        8    23   5    5.1962   621.0    3.108      65.205
2015    3        8    23  10    5.1930   620.9    3.107      65.174
2015    3        8    23  15    5.1897   620.8    3.105      65.143
2015    3        8    23  21    5.1864   620.7    3.104      65.111
2015    3        8    23  26    5.1832   620.6    3.102      65.078
2015    3        8    23  32    5.1799   620.5    3.101      65.045
2015    3        8    23  37    5.1766   620.4    3.099      65.010
2015    3        8    23  42    5.1733   620.3    3.098      64.975
2015    3        8    23  48    5.1700   620.2    3.096      64.939
2015    3        8    23  53    5.1666   620.1    3.095      64.902
2015    3        8    23  59    5.1633   620.0    3.093      64.864
2015    3        9     0   4    5.1600   619.9    3.091      64.825
2015    3        9     0   9    5.1566   619.7    3.090      64.786
2015    3        9     0  15    5.1533   619.6    3.088      64.746
2015    3        9     0  20    5.1499   619.5    3.086      64.706
2015    3        9     0  26    5.1466   619.4    3.085      64.665
2015    3        9     0  31    5.1433   619.3    3.083      64.624
2015    3        9     0  36    5.1399   619.2    3.082      64.582
2015    3        9     0  42    5.1366   619.0    3.080      64.540
2015    3        9     0  47    5.1333   618.9    3.078      64.498
2015    3        9     0  53    5.1300   618.8    3.077      64.456
2015    3        9     0  58    5.1268   618.7    3.075      64.414
2015    3        9     1   3    5.1235   618.5    3.074      64.372
2015    3        9     1   9    5.1203   618.4    3.073      64.330
2015    3        9     1  14    5.1171   618.3    3.071      64.288
2015    3        9     1  20    5.1140   618.1    3.070      64.247
2015    3        9     1  25    5.1108   618.0    3.069      64.206
2015    3        9     1  30    5.1078   617.9    3.068      64.166
2015    3        9     1  36    5.1047   617.7    3.067      64.126
2015    3        9     1  41    5.1017   617.6    3.066      64.087
2015    3        9     1  47    5.0987   617.4    3.066      64.049
2015    3        9     1  52    5.0957   617.3    3.065      64.011
2015    3        9     1  57    5.0928   617.2    3.065      63.974
2015    3        9     2   3    5.0899   617.0    3.064      63.939
2015    3        9     2   8    5.0871   616.9    3.064      63.906
2015    3        9     2  14    5.0842   616.7    3.064      63.874
2015    3        9     2  19    5.0814   616.6    3.064      63.844
2015    3        9     2  24    5.0786   616.5    3.064      63.816
2015    3        9     2  30    5.0758   616.3    3.064      63.788
2015    3        9     2  35    5.0730   616.2    3.064      63.761
2015    3        9     2  41    5.0703   616.1    3.065      63.736
2015    3        9     2  46    5.0675   615.9    3.065      63.711
2015    3        9     2  51    5.0648   615.8    3.065      63.688
2015    3        9     2  57    5.0620   615.7    3.066      63.665
2015    3        9     3   2    5.0593   615.5    3.066      63.643
2015    3        9     3   8    5.0565   615.4    3.066      63.622
2015    3        9     3  13    5.0538   615.3    3.067      63.602
2015    3        9     3  18    5.0510   615.1    3.067      63.584
2015    3        9     3  24    5.0483   615.0    3.068      63.566
2015    3        9     3  29    5.0455   614.9    3.068      63.548
2015    3        9     3  35    5.0427   614.8    3.068      63.531
2015    3        9     3  40    5.0398   614.7    3.069      63.514
2015    3        9     3  45    5.0370   614.5    3.069      63.495
2015    3        9     3  51    5.0341   614.4    3.069      63.477
2015    3        9     3  56    5.0312   614.3    3.069      63.458
2015    3        9     4   2    5.0282   614.2    3.069      63.438
2015    3        9     4   7    5.0252   614.1    3.068      63.416
2015    3        9     4  12    5.0223   614.0    3.068      63.394
2015    3        9     4  18    5.0193   613.9    3.068      63.369
2015    3        9     4  23    5.0162   613.7    3.067      63.343
2015    3        9     4  29    5.0132   613.6    3.066      63.316
2015    3        9     4  34    5.0102   613.5    3.066      63.288
2015    3        9     4  39    5.0071   613.4    3.065      63.259
2015    3        9     4  45    5.0040   613.3    3.064      63.228
2015    3        9     4  50    5.0009   613.1    3.063      63.196
2015    3        9     4  56    4.9978   613.0    3.062      63.164
2015    3        9     5   1    4.9947   612.9    3.061      63.130
2015    3        9     5   6    4.9916   612.8    3.060      63.096
2015    3        9     5  12    4.9885   612.6    3.059      63.060
2015    3        9     5  17    4.9853   612.5    3.058      63.024
2015    3        9     5  23    4.9821   612.4    3.057      62.986
2015    3        9     5  28    4.9790   612.3    3.056      62.948
2015    3        9     5  33    4.9757   612.1    3.055      62.909
2015    3        9     5  39    4.9725   612.0    3.053      62.869
2015    3        9     5  44    4.9693   611.9    3.052      62.828
2015    3        9     5  50    4.9660   611.7    3.051      62.786
2015    3        9     5  55    4.9628   611.6    3.049      62.743
2015    3        9     6   0    4.9595   611.4    3.048      62.700
2015    3        9     6   6    4.9562   611.3    3.047      62.655
2015    3        9     6  11    4.9529   611.1    3.045      62.609
2015    3        9     6  17    4.9496   611.0    3.044      62.563
2015    3        9     6  22    4.9463   610.9    3.042      62.515
2015    3        9     6  27    4.9429   610.7    3.041      62.467
2015    3        9     6  33    4.9396   610.5    3.039      62.417
2015    3        9     6  38    4.9363   610.4    3.037      62.367
2015    3        9     6  44    4.9329   610.2    3.036      62.317
2015    3        9     6  49    4.9295   610.1    3.034      62.265
2015    3        9     6  54    4.9262   609.9    3.033      62.213
2015    3        9     7   0    4.9228   609.7    3.031      62.160
2015    3        9     7   5    4.9195   609.6    3.029      62.107
2015    3        9     7  11    4.9161   609.4    3.028      62.054
2015    3        9     7  16    4.9128   609.2    3.026      62.000
2015    3        9     7  21    4.9094   609.0    3.025      61.946
2015    3        9     7  27    4.9061   608.9    3.023      61.892
2015    3        9     7  32    4.9028   608.7    3.022      61.838
2015    3        9     7  38    4.8995   608.5    3.021      61.785
2015    3        9     7  43    4.8962   608.3    3.019      61.731
2015    3        9     7  48    4.8930   608.1    3.018      61.679
2015    3        9     7  54    4.8898   608.0    3.017      61.627
2015    3        9     7  59    4.8866   607.8    3.016      61.576
2015    3        9     8   5    4.8834   607.6    3.015      61.526
2015    3        9     8  10    4.8803   607.4    3.014      61.476
2015    3        9     8  15    4.8773   607.2    3.014      61.428
2015    3        9     8  21    4.8742   607.0    3.013      61.382
2015    3        9     8  26    4.8712   606.9    3.013      61.336
2015    3        9     8  32    4.8682   606.7    3.012      61.292
2015    3        9     8  37    4.8653   606.5    3.012      61.249
2015    3        9     8  42    4.8624   606.3    3.012      61.207
2015    3        9     8  48    4.8595   606.1    3.012      61.167
2015    3        9     8  53    4.8566   606.0    3.012      61.129
2015    3        9     8  59    4.8538   605.8    3.012      61.091
2015    3        9     9   4    4.8510   605.6    3.013      61.056
2015    3        9     9   9    4.8482   605.4    3.013      61.021
2015    3        9     9  15    4.8454   605.2    3.013      60.987
2015    3        9     9  20    4.8426   605.1    3.014      60.955
2015    3        9     9  26    4.8398   604.9    3.015      60.924
2015    3        9     9  31    4.8370   604.7    3.015      60.895
2015    3        9     9  36    4.8342   604.6    3.016      60.867
2015    3        9     9  42    4.8314   604.4    3.017      60.840
2015    3        9     9  47    4.8286   604.2    3.017      60.813
2015    3        9     9  53    4.8257   604.1    3.018      60.785
2015    3        9     9  58    4.8228   603.9    3.018      60.758
2015    3        9    10   3    4.8200   603.7    3.019      60.731
2015    3        9    10   9    4.8170   603.6    3.019      60.704
2015    3        9    10  14    4.8141   603.4    3.020      60.676
2015    3        9    10  20    4.8111   603.2    3.020      60.648
2015    3        9    10  25    4.8082   603.1    3.020      60.618
2015    3        9    10  30    4.8052   602.9    3.021      60.588
2015    3        9    10  36    4.8022   602.7    3.021      60.557
2015    3        9    10  41    4.7993   602.6    3.021      60.525
2015    3        9    10  47    4.7963   602.4    3.021      60.492
2015    3        9    10  52    4.7933   602.2    3.021      60.459
2015    3        9    10  57    4.7903   602.0    3.021      60.425
2015    3        9    11   3    4.7873   601.9    3.021      60.391
2015    3        9    11   8    4.7843   601.7    3.021      60.356
2015    3        9    11  14    4.7813   601.5    3.021      60.320
2015    3        9    11  19    4.7783   601.4    3.021      60.284
2015    3        9    11  24    4.7753   601.2    3.021      60.247
2015    3        9    11  30    4.7723   601.0    3.020      60.209
2015    3        9    11  35    4.7693   600.9    3.020      60.171
2015    3        9    11  41    4.7663   600.7    3.020      60.132
2015    3        9    11  46    4.7633   600.5    3.020      60.092
2015    3        9    11  51    4.7603   600.3    3.019      60.052
2015    3        9    11  57    4.7573   600.2    3.019      60.011
2015    3        9    12   2    4.7543   600.0    3.019      59.969
2015    3        9    12   8    4.7513   599.8    3.018      59.926
2015    3        9    12  13    4.7482   599.6    3.018      59.883
2015    3        9    12  18    4.7452   599.5    3.017      59.839
2015    3        9    12  24    4.7421   599.3    3.017      59.794
2015    3        9    12  29    4.7391   599.1    3.016      59.749
2015    3        9    12  35    4.7360   598.9    3.015      59.703
2015    3        9    12  40    4.7329   598.7    3.015      59.656
2015    3        9    12  45    4.7299   598.6    3.014      59.609
2015    3        9    12  51    4.7268   598.4    3.014      59.562
2015    3        9    12  56    4.7237   598.2    3.013      59.514
2015    3        9    13   2    4.7206   598.0    3.012      59.465
2015    3        9    13   7    4.7176   597.8    3.012      59.417
2015    3        9    13  12    4.7145   597.6    3.011      59.367
2015    3        9    13  18    4.7114   597.4    3.010      59.318
2015    3        9    13  23    4.7083   597.3    3.010      59.267
2015    3        9    13  29    4.7052   597.1    3.009      59.217
2015    3        9    13  34    4.7022   596.9    3.008      59.166
2015    3        9    13  39    4.6991   596.7    3.007      59.114
2015    3        9    13  45    4.6959   596.5    3.007      59.062
2015    3        9    13  50    4.6928   596.3    3.006      59.009
2015    3        9    13  56    4.6897   596.1    3.005      58.956
2015    3        9    14   1    4.6865   595.9    3.004      58.902
2015    3        9    14   6    4.6834   595.7    3.003      58.847
2015    3        9    14  12    4.6803   595.5    3.002      58.793
2015    3        9    14  17    4.6771   595.3    3.002      58.738
2015    3        9    14  23    4.6740   595.1    3.001      58.682
2015    3        9    14  28    4.6709   594.9    3.000      58.627
2015    3        9    14  33    4.6678   594.7    2.999      58.572
2015    3        9    14  39    4.6647   594.4    2.998      58.516
2015    3        9    14  44    4.6616   594.2    2.998      58.461
2015    3        9    14  50    4.6585   594.0    2.997      58.406
2015    3        9    14  55    4.6554   593.8    2.996      58.351
2015    3        9    15   0    4.6524   593.6    2.996      58.296
2015    3        9    15   6    4.6493   593.4    2.995      58.242
2015    3        9    15  11    4.6463   593.2    2.995      58.189
2015    3        9    15  17    4.6433   593.0    2.994      58.136
2015    3        9    15  22    4.6403   592.8    2.994      58.084
2015    3        9    15  27    4.6373   592.6    2.993      58.032
2015    3        9    15  33    4.6344   592.4    2.993      57.981
2015    3        9    15  38    4.6314   592.1    2.993      57.931
2015    3        9    15  44    4.6285   591.9    2.992      57.880
2015    3        9    15  49    4.6255   591.7    2.992      57.831
2015    3        9    15  54    4.6226   591.5    2.992      57.782
2015    3        9    16   0    4.6197   591.3    2.992      57.733
2015    3        9    16   5    4.6167   591.1    2.992      57.685
2015    3        9    16  11    4.6138   590.9    2.992      57.638
2015    3        9    16  16    4.6109   590.7    2.992      57.591
2015    3        9    16  21    4.6079   590.5    2.991      57.544
2015    3        9    16  27    4.6050   590.3    2.991      57.497
2015    3        9    16  32    4.6021   590.1    2.991      57.450
2015    3        9    16  38    4.5991   589.8    2.991      57.404
2015    3        9    16  43    4.5961   589.6    2.991      57.357
2015    3        9    16  48    4.5932   589.4    2.991      57.310
2015    3        9    16  54    4.5902   589.2    2.991      57.264
2015    3        9    16  59    4.5872   589.0    2.990      57.217
2015    3        9    17   5    4.5842   588.8    2.990      57.170
2015    3        9    17  10    4.5812   588.6    2.990      57.123
2015    3        9    17  15    4.5782   588.3    2.990      57.075
2015    3        9    17  21    4.5752   588.1    2.990      57.028
2015    3        9    17  26    4.5723   587.9    2.990      56.981
2015    3        9    17  32    4.5693   587.7    2.990      56.934
2015    3        9    17  37    4.5663   587.5    2.990      56.888
2015    3        9    17  42    4.5634   587.2    2.990      56.841
2015    3        9    17  48    4.5604   587.0    2.990      56.795
2015    3        9    17  53    4.5575   586.8    2.990      56.749
2015    3        9    17  59    4.5546   586.6    2.990      56.703
2015    3        9    18   4    4.5517   586.4    2.990      56.658
2015    3        9    18   9    4.5488   586.1    2.991      56.613
2015    3        9    18  15    4.5459   585.9    2.991      56.568
2015    3        9    18  20    4.5430   585.7    2.991      56.524
2015    3        9    18  26    4.5401   585.5    2.992      56.480
2015    3        9    18  31    4.5373   585.2    2.992      56.437
2015    3        9    18  36    4.5344   585.0    2.992      56.393
2015    3        9    18  42    4.5315   584.8    2.993      56.350
2015    3        9    18  47    4.5287   584.6    2.993      56.306
2015    3        9    18  53    4.5259   584.3    2.994      56.263
2015    3        9    18  58    4.5230   584.1    2.994      56.220
2015    3        9    19   3    4.5202   583.9    2.994      56.176
2015    3        9    19   9    4.5173   583.7    2.995      56.133
2015    3        9    19  14    4.5145   583.4    2.995      56.089
2015    3        9    19  20    4.5116   583.2    2.995      56.044
2015    3        9    19  25    4.5087   583.0    2.996      56.000
2015    3        9    19  30    4.5059   582.8    2.996      55.955
2015    3        9    19  36    4.5030   582.5    2.996      55.910
2015    3        9    19  41    4.5001   582.3    2.997      55.865
2015    3        9    19  47    4.4973   582.1    2.997      55.819
2015    3        9    19  52    4.4944   581.9    2.997      55.774
2015    3        9    19  57    4.4915   581.6    2.998      55.728
2015    3        9    20   3    4.4886   581.4    2.998      55.682
2015    3        9    20   8    4.4858   581.2    2.998      55.636
2015    3        9    20  13    4.4829   580.9    2.999      55.590
2015    3        9    20  19    4.4800   580.7    2.999      55.544
2015    3        9    20  24    4.4771   580.5    2.999      55.498
2015    3        9    20  30    4.4742   580.3    3.000      55.452
2015    3        9    20  35    4.4714   580.0    3.000      55.406
2015    3        9    20  40    4.4685   579.8    3.000      55.360
2015    3        9    20  46    4.4656   579.6    3.001      55.314
2015    3        9    20  51    4.4627   579.4    3.001      55.268
2015    3        9    20  57    4.4598   579.1    3.001      55.222
2015    3        9    21   2    4.4569   578.9    3.001      55.176
2015    3        9    21   7    4.4539   578.7    3.002      55.129
2015    3        9    21  13    4.4510   578.4    3.002      55.082
2015    3        9    21  18    4.4481   578.2    3.002      55.035
2015    3        9    21  24    4.4452   578.0    3.002      54.988
2015    3        9    21  29    4.4422   577.8    3.002      54.940
2015    3        9    21  34    4.4393   577.5    3.003      54.892
2015    3        9    21  40    4.4364   577.3    3.003      54.843
2015    3        9    21  45    4.4334   577.1    3.003      54.795
2015    3        9    21  51    4.4305   576.8    3.003      54.746
2015    3        9    21  56    4.4275   576.6    3.003      54.697
2015    3        9    22   1    4.4246   576.4    3.003      54.648
2015    3        9    22   7    4.4217   576.1    3.003      54.598
2015    3        9    22  12    4.4187   575.9    3.003      54.548
2015    3        9    22  18    4.4158   575.7    3.003      54.498
2015    3        9    22  23    4.4128   575.4    3.004      54.448
2015    3        9    22  28    4.4099   575.2    3.004      54.397
2015    3        9    22  34    4.4070   575.0    3.004      54.347
2015    3        9    22  39    4.4041   574.7    3.004      54.296
2015    3        9    22  45    4.4011   574.5    3.004      54.246
2015    3        9    22  50    4.3982   574.3    3.004      54.195
2015    3        9    22  55    4.3953   574.0    3.004      54.144
2015    3        9    23   1    4.3924   573.8    3.004      54.092
2015    3        9    23   6    4.3895   573.6    3.004      54.040
2015    3        9    23  12    4.3866   573.3    3.004      53.988
2015    3        9    23  17    4.3837   573.1    3.004      53.936
2015    3        9    23  22    4.3808   572.8    3.004      53.883
2015    3        9    23  28    4.3779   572.6    3.004      53.830
2015    3        9    23  33    4.3751   572.4    3.004      53.777
2015    3        9    23  39    4.3722   572.1    3.004      53.723
2015    3        9    23  44    4.3693   571.9    3.004      53.669
2015    3        9    23  49    4.3664   571.6    3.004      53.615
2015    3        9    23  55    4.3636   571.4    3.003      53.561
2015    3       10     0   0    4.3607   571.2    3.003      53.506
2015    3       10     0   6    4.3579   570.9    3.003      53.452
2015    3       10     0  11    4.3551   570.7    3.003      53.397
2015    3       10     0  16    4.3522   570.4    3.003      53.342
2015    3       10     0  22    4.3494   570.2    3.003      53.288
2015    3       10     0  27    4.3466   569.9    3.003      53.233
2015    3       10     0  33    4.3438   569.7    3.003      53.178
2015    3       10     0  38    4.3410   569.4    3.003      53.123
2015    3       10     0  43    4.3383   569.2    3.003      53.069
2015    3       10     0  49    4.3354   568.9    3.003      53.014
2015    3       10     0  54    4.3327   568.7    3.003      52.960
2015    3       10     1   0    4.3299   568.4    3.003      52.906
2015    3       10     1   5    4.3272   568.2    3.003      52.852
2015    3       10     1  10    4.3245   567.9    3.003      52.798
2015    3       10     1  16    4.3217   567.7    3.003      52.744
2015    3       10     1  21    4.3190   567.4    3.003      52.691
2015    3       10     1  27    4.3163   567.2    3.004      52.638
2015    3       10     1  32    4.3136   566.9    3.004      52.584
2015    3       10     1  37    4.3109   566.6    3.004      52.532
2015    3       10     1  43    4.3082   566.4    3.004      52.479
2015    3       10     1  48    4.3055   566.1    3.004      52.427
2015    3       10     1  54    4.3028   565.9    3.005      52.374
2015    3       10     1  59    4.3001   565.6    3.005      52.323
2015    3       10     2   4    4.2974   565.3    3.005      52.271
2015    3       10     2  10    4.2947   565.1    3.006      52.220
2015    3       10     2  15    4.2921   564.8    3.006      52.169
2015    3       10     2  21    4.2894   564.6    3.006      52.118
2015    3       10     2  26    4.2867   564.3    3.007      52.067
2015    3       10     2  31    4.2841   564.0    3.007      52.017
2015    3       10     2  37    4.2814   563.8    3.008      51.967
2015    3       10     2  42    4.2788   563.5    3.008      51.917
2015    3       10     2  48    4.2762   563.2    3.009      51.868
2015    3       10     2  53    4.2736   563.0    3.009      51.819
2015    3       10     2  58    4.2709   562.7    3.010      51.770
2015    3       10     3   4    4.2683   562.4    3.011      51.721
2015    3       10     3   9    4.2657   562.2    3.011      51.672
2015    3       10     3  15    4.2631   561.9    3.012      51.624
2015    3       10     3  20    4.2605   561.6    3.012      51.576
2015    3       10     3  25    4.2578   561.4    3.013      51.528
2015    3       10     3  31    4.2552   561.1    3.014      51.480
2015    3       10     3  36    4.2526   560.8    3.015      51.433
2015    3       10     3  42    4.2500   560.6    3.015      51.385
2015    3       10     3  47    4.2474   560.3    3.016      51.338
2015    3       10     3  52    4.2448   560.0    3.017      51.291
2015    3       10     3  58    4.2421   559.8    3.017      51.243
2015    3       10     4   3    4.2395   559.5    3.018      51.196
2015    3       10     4   9    4.2369   559.2    3.019      51.149
2015    3       10     4  14    4.2343   558.9    3.020      51.101
2015    3       10     4  19    4.2316   558.7    3.020      51.054
2015    3       10     4  25    4.2290   558.4    3.021      51.006
2015    3       10     4  30    4.2264   558.1    3.022      50.958
2015    3       10     4  36    4.2237   557.8    3.023      50.910
2015    3       10     4  41    4.2211   557.6    3.023      50.863
2015    3       10     4  46    4.2185   557.3    3.024      50.815
2015    3       10     4  52    4.2159   557.0    3.025      50.767
2015    3       10     4  57    4.2133   556.7    3.026      50.719
2015    3       10     5   3    4.2106   556.5    3.027      50.670
2015    3       10     5   8    4.2080   556.2    3.027      50.622
2015    3       10     5  13    4.2054   555.9    3.028      50.574
2015    3       10     5  19    4.2029   555.6    3.029      50.526
2015    3       10     5  24    4.2003   555.3    3.030      50.478
2015    3       10     5  30    4.1977   555.1    3.031      50.430
2015    3       10     5  35    4.1952   554.8    3.032      50.382
2015    3       10     5  40    4.1927   554.5    3.033      50.335
2015    3       10     5  46    4.1901   554.2    3.034      50.287
2015    3       10     5  51    4.1876   553.9    3.035      50.240
2015    3       10     5  57    4.1851   553.7    3.036      50.192
2015    3       10     6   2    4.1826   553.4    3.037      50.145
2015    3       10     6   7    4.1801   553.1    3.038      50.098
2015    3       10     6  13    4.1777   552.8    3.039      50.050
2015    3       10     6  18    4.1752   552.6    3.040      50.003
2015    3       10     6  24    4.1728   552.3    3.041      49.956
2015    3       10     6  29    4.1704   552.0    3.042      49.909
2015    3       10     6  34    4.1680   551.7    3.043      49.863
2015    3       10     6  40    4.1656   551.4    3.044      49.816
2015    3       10     6  45    4.1632   551.2    3.045      49.769
2015    3       10     6  51    4.1609   550.9    3.046      49.723
2015    3       10     6  56    4.1586   550.6    3.047      49.676
2015    3       10     7   1    4.1563   550.3    3.048      49.630
2015    3       10     7   7    4.1540   550.1    3.049      49.584
2015    3       10     7  12    4.1517   549.8    3.051      49.538
2015    3       10     7  18    4.1494   549.5    3.052      49.492
2015    3       10     7  23    4.1471   549.2    3.053      49.447
2015    3       10     7  28    4.1449   548.9    3.054      49.401
2015    3       10     7  34    4.1426   548.7    3.055      49.355
2015    3       10     7  39    4.1404   548.4    3.056      49.310
2015    3       10     7  45    4.1381   548.1    3.057      49.264
2015    3       10     7  50    4.1359   547.9    3.059      49.219
2015    3       10     7  55    4.1336   547.6    3.060      49.173
2015    3       10     8   1    4.1314   547.3    3.061      49.128
2015    3       10     8   6    4.1292   547.0    3.062      49.082
2015    3       10     8  12    4.1269   546.8    3.063      49.036
2015    3       10     8  17    4.1246   546.5    3.064      48.990
2015    3       10     8  22    4.1224   546.2    3.065      48.943
2015    3       10     8  28    4.1201   545.9    3.066      48.896
2015    3       10     8  33    4.1178   545.7    3.067      48.849
2015    3       10     8  39    4.1156   545.4    3.068      48.801
2015    3       10     8  44    4.1133   545.1    3.069      48.753
2015    3       10     8  49    4.1110   544.8    3.070      48.705
2015    3       10     8  55    4.1088   544.5    3.070      48.656
2015    3       10     9   0    4.1065   544.3    3.071      48.607
2015    3       10     9   6    4.1043   544.0    3.072      48.557
2015    3       10     9  11    4.1020   543.7    3.073      48.508
2015    3       10     9  16    4.0997   543.4    3.074      48.458
2015    3       10     9  22    4.0975   543.1    3.075      48.408
2015    3       10     9  27    4.0953   542.8    3.075      48.358
2015    3       10     9  33    4.0930   542.6    3.076      48.307
2015    3       10     9  38    4.0908   542.3    3.077      48.257
2015    3       10     9  43    4.0885   542.0    3.078      48.206
2015    3       10     9  49    4.0863   541.7    3.079      48.156
2015    3       10     9  54    4.0841   541.4    3.080      48.105
2015    3       10    10   0    4.0819   541.1    3.080      48.055
2015    3       10    10   5    4.0797   540.8    3.081      48.004
2015    3       10    10  10    4.0775   540.6    3.082      47.954
2015    3       10    10  16    4.0753   540.3    3.083      47.904
2015    3       10    10  21    4.0731   540.0    3.084      47.853
2015    3       10    10  27    4.0709   539.7    3.085      47.803
2015    3       10    10  32    4.0688   539.4    3.086      47.753
2015    3       10    10  37    4.0666   539.1    3.087      47.703
2015    3       10    10  43    4.0644   538.8    3.088      47.653
2015    3       10    10  48    4.0623   538.5    3.089      47.603
2015    3       10    10  54    4.0602   538.2    3.090      47.553
2015    3       10    10  59    4.0579   537.9    3.091      47.504
2015    3       10    11   4    4.0558   537.6    3.092      47.454
2015    3       10    11  10    4.0536   537.3    3.093      47.404
2015    3       10    11  15    4.0515   537.0    3.094      47.354
2015    3       10    11  21    4.0494   536.7    3.095      47.305
2015    3       10    11  26    4.0472   536.4    3.096      47.255
2015    3       10    11  31    4.0451   536.1    3.097      47.205
2015    3       10    11  37    4.0430   535.8    3.099      47.156
2015    3       10    11  42    4.0409   535.5    3.100      47.106
2015    3       10    11  48    4.0388   535.2    3.101      47.057
2015    3       10    11  53    4.0367   534.9    3.102      47.008
2015    3       10    11  58    4.0347   534.6    3.103      46.959
2015    3       10    12   4    4.0326   534.3    3.105      46.910
2015    3       10    12   9    4.0306   534.0    3.106      46.861
2015    3       10    12  15    4.0285   533.7    3.107      46.813
2015    3       10    12  20    4.0265   533.4    3.109      46.764
2015    3       10    12  25    4.0245   533.1    3.110      46.716
2015    3       10    12  31    4.0226   532.7    3.111      46.668
2015    3       10    12  36    4.0206   532.4    3.113      46.621
2015    3       10    12  42    4.0186   532.1    3.114      46.573
2015    3       10    12  47    4.0168   531.8    3.116      46.526
2015    3       10    12  52    4.0148   531.5    3.117      46.479
2015    3       10    12  58    4.0129   531.2    3.119      46.432
2015    3       10    13   3    4.0110   530.9    3.121      46.386
2015    3       10    13   9    4.0091   530.6    3.122      46.340
2015    3       10    13  14    4.0073   530.2    3.124      46.294
2015    3       10    13  19    4.0054   529.9    3.126      46.248
2015    3       10    13  25    4.0036   529.6    3.127      46.203
2015    3       10    13  30    4.0018   529.3    3.129      46.158
2015    3       10    13  36    4.0001   529.0    3.131      46.114
2015    3       10    13  41    3.9983   528.7    3.133      46.070
2015    3       10    13  46    3.9965   528.4    3.134      46.026
2015    3       10    13  52    3.9947   528.0    3.136      45.983
2015    3       10    13  57    3.9930   527.7    3.138      45.940
2015    3       10    14   3    3.9913   527.4    3.140      45.898
2015    3       10    14   8    3.9896   527.1    3.142      45.856
2015    3       10    14  13    3.9880   526.8    3.144      45.814
2015    3       10    14  19    3.9863   526.5    3.146      45.772
2015    3       10    14  24    3.9846   526.2    3.148      45.731
2015    3       10    14  30    3.9829   525.9    3.150      45.690
2015    3       10    14  35    3.9813   525.5    3.152      45.650
2015    3       10    14  40    3.9797   525.2    3.154      45.610
2015    3       10    14  46    3.9781   524.9    3.157      45.570
2015    3       10    14  51    3.9765   524.6    3.159      45.530
2015    3       10    14  57    3.9748   524.3    3.161      45.490
2015    3       10    15   2    3.9732   524.0    3.163      45.451
2015    3       10    15   7    3.9716   523.7    3.165      45.411
2015    3       10    15  13    3.9700   523.4    3.168      45.372
2015    3       10    15  18    3.9684   523.1    3.170      45.333
2015    3       10    15  24    3.9668   522.7    3.172      45.293
2015    3       10    15  29    3.9652   522.4    3.175      45.254
2015    3       10    15  34    3.9637   522.1    3.177      45.214
2015    3       10    15  40    3.9621   521.8    3.179      45.175
2015    3       10    15  45    3.9606   521.5    3.181      45.135
2015    3       10    15  51    3.9590   521.2    3.184      45.095
2015    3       10    15  56    3.9575   520.9    3.186      45.055
2015    3       10    16   1    3.9559   520.6    3.188      45.014
2015    3       10    16   7    3.9544   520.3    3.191      44.974
2015    3       10    16  12    3.9529   519.9    3.193      44.933
2015    3       10    16  18    3.9514   519.6    3.195      44.892
2015    3       10    16  23    3.9499   519.3    3.198      44.851
2015    3       10    16  28    3.9484   519.0    3.200      44.810
2015    3       10    16  34    3.9470   518.7    3.202      44.769
2015    3       10    16  39    3.9455   518.4    3.204      44.727
2015    3       10    16  45    3.9440   518.1    3.207      44.685
2015    3       10    16  50    3.9425   517.8    3.209      44.643
2015    3       10    16  55    3.9411   517.5    3.211      44.601
2015    3       10    17   1    3.9396   517.2    3.214      44.558
2015    3       10    17   6    3.9381   516.9    3.216      44.515
2015    3       10    17  12    3.9367   516.5    3.218      44.472
2015    3       10    17  17    3.9352   516.2    3.220      44.429
2015    3       10    17  22    3.9337   515.9    3.222      44.386
2015    3       10    17  28    3.9323   515.6    3.225      44.342
2015    3       10    17  33    3.9308   515.3    3.227      44.298
2015    3       10    17  39    3.9294   515.0    3.229      44.254
2015    3       10    17  44    3.9279   514.7    3.231      44.210
2015    3       10    17  49    3.9264   514.4    3.233      44.165
2015    3       10    17  55    3.9250   514.1    3.235      44.120
2015    3       10    18   0    3.9236   513.8    3.237      44.075
2015    3       10    18   6    3.9221   513.5    3.239      44.031
2015    3       10    18  11    3.9207   513.1    3.242      43.985
2015    3       10    18  16    3.9193   512.8    3.244      43.940
2015    3       10    18  22    3.9178   512.5    3.246      43.895
2015    3       10    18  27    3.9165   512.2    3.248      43.850
2015    3       10    18  33    3.9150   511.9    3.250      43.804
2015    3       10    18  38    3.9137   511.6    3.252      43.759
2015    3       10    18  43    3.9124   511.3    3.254      43.714
2015    3       10    18  49    3.9109   511.0    3.256      43.669
2015    3       10    18  54    3.9096   510.6    3.258      43.624
2015    3       10    19   0    3.9083   510.3    3.261      43.580
2015    3       10    19   5    3.9070   510.0    3.263      43.535
2015    3       10    19  10    3.9057   509.7    3.265      43.491
2015    3       10    19  16    3.9044   509.4    3.267      43.447
2015    3       10    19  21    3.9032   509.1    3.270      43.404
2015    3       10    19  27    3.9020   508.8    3.272      43.360
2015    3       10    19  32    3.9008   508.5    3.274      43.317
2015    3       10    19  37    3.8996   508.1    3.277      43.274
2015    3       10    19  43    3.8984   507.8    3.279      43.232
2015    3       10    19  48    3.8972   507.5    3.282      43.190
2015    3       10    19  53    3.8961   507.2    3.284      43.148
2015    3       10    19  59    3.8950   506.9    3.287      43.106
2015    3       10    20   4    3.8939   506.6    3.289      43.065
2015    3       10    20  10    3.8928   506.3    3.292      43.023
2015    3       10    20  15    3.8917   506.0    3.295      42.982
2015    3       10    20  20    3.8906   505.7    3.297      42.941
2015    3       10    20  26    3.8896   505.4    3.300      42.901
2015    3       10    20  31    3.8885   505.0    3.303      42.860
2015    3       10    20  37    3.8875   504.7    3.306      42.820
2015    3       10    20  42    3.8865   504.4    3.308      42.780
2015    3       10    20  47    3.8854   504.1    3.311      42.740
2015    3       10    20  53    3.8844   503.8    3.314      42.700
2015    3       10    20  58    3.8834   503.5    3.317      42.660
2015    3       10    21   4    3.8824   503.2    3.319      42.620
2015    3       10    21   9    3.8814   502.9    3.322      42.580
2015    3       10    21  14    3.8805   502.6    3.325      42.540
2015    3       10    21  20    3.8795   502.2    3.328      42.500
2015    3       10    21  25    3.8785   501.9    3.331      42.460
2015    3       10    21  31    3.8776   501.6    3.334      42.421
2015    3       10    21  36    3.8767   501.3    3.336      42.381
2015    3       10    21  41    3.8757   501.0    3.339      42.341
2015    3       10    21  47    3.8747   500.7    3.342      42.301
2015    3       10    21  52    3.8738   500.3    3.345      42.261
2015    3       10    21  58    3.8729   500.0    3.348      42.221
2015    3       10    22   3    3.8720   499.7    3.351      42.181
2015    3       10    22   8    3.8711   499.4    3.354      42.141
2015    3       10    22  14    3.8702   499.1    3.357      42.101
2015    3       10    22  19    3.8694   498.8    3.359      42.061
2015    3       10    22  25    3.8685   498.4    3.362      42.021
2015    3       10    22  30    3.8677   498.1    3.365      41.981
2015    3       10    22  35    3.8668   497.8    3.368      41.941
2015    3       10    22  41    3.8660   497.5    3.371      41.901
2015    3       10    22  46    3.8653   497.2    3.374      41.861
2015    3       10    22  52    3.8644   496.9    3.377      41.821
2015    3       10    22  57    3.8636   496.5    3.380      41.781
2015    3       10    23   2    3.8628   496.2    3.383      41.742
2015    3       10    23   8    3.8621   495.9    3.386      41.702
2015    3       10    23  13    3.8613   495.6    3.389      41.662
2015    3       10    23  19    3.8606   495.3    3.392      41.622
2015    3       10    23  24    3.8599   495.0    3.396      41.583
2015    3       10    23  29    3.8592   494.7    3.399      41.543
2015    3       10    23  35    3.8585   494.3    3.402      41.503
2015    3       10    23  40    3.8578   494.0    3.405      41.464
2015    3       10    23  46    3.8571   493.7    3.408      41.424
2015    3       10    23  51    3.8564   493.4    3.411      41.385
2015    3       10    23  56    3.8559   493.1    3.414      41.345
2015    3       11     0   2    3.8551   492.8    3.418      41.306
2015    3       11     0   7    3.8546   492.5    3.421      41.266
2015    3       11     0  13    3.8539   492.1    3.424      41.227
2015    3       11     0  18    3.8533   491.8    3.427      41.187
2015    3       11     0  23    3.8527   491.5    3.430      41.148
2015    3       11     0  29    3.8521   491.2    3.434      41.108
2015    3       11     0  34    3.8515   490.9    3.437      41.069
2015    3       11     0  40    3.8510   490.6    3.440      41.029
2015    3       11     0  45    3.8504   490.3    3.443      40.989
2015    3       11     0  50    3.8500   490.0    3.447      40.950
2015    3       11     0  56    3.8494   489.7    3.450      40.910
2015    3       11     1   1    3.8488   489.4    3.453      40.871
2015    3       11     1   7    3.8483   489.1    3.457      40.831
2015    3       11     1  12    3.8478   488.7    3.460      40.791
2015    3       11     1  17    3.8473   488.4    3.463      40.752
2015    3       11     1  23    3.8468   488.1    3.466      40.712
2015    3       11     1  28    3.8464   487.8    3.470      40.672
2015    3       11     1  34    3.8459   487.5    3.473      40.632
2015    3       11     1  39    3.8455   487.2    3.476      40.592
2015    3       11     1  44    3.8450   486.9    3.480      40.552
2015    3       11     1  50    3.8446   486.6    3.483      40.512
2015    3       11     1  55    3.8442   486.3    3.486      40.472
2015    3       11     2   1    3.8438   486.0    3.490      40.432
2015    3       11     2   6    3.8434   485.7    3.493      40.392
2015    3       11     2  11    3.8430   485.4    3.496      40.352
2015    3       11     2  17    3.8426   485.1    3.500      40.312
2015    3       11     2  22    3.8422   484.8    3.503      40.271
2015    3       11     2  28    3.8419   484.5    3.506      40.231
2015    3       11     2  33    3.8415   484.2    3.510      40.191
2015    3       11     2  38    3.8412   483.8    3.513      40.151
2015    3       11     2  44    3.8409   483.5    3.516      40.111
2015    3       11     2  49    3.8406   483.2    3.520      40.070
2015    3       11     2  55    3.8403   482.9    3.523      40.030
2015    3       11     3   0    3.8400   482.6    3.527      39.990
2015    3       11     3   5    3.8397   482.3    3.530      39.950
2015    3       11     3  11    3.8395   482.0    3.534      39.910
2015    3       11     3  16    3.8392   481.7    3.537      39.870
2015    3       11     3  22    3.8390   481.4    3.541      39.831
2015    3       11     3  27    3.8388   481.1    3.544      39.791
2015    3       11     3  32    3.8386   480.8    3.548      39.751
2015    3       11     3  38    3.8384   480.5    3.551      39.712
2015    3       11     3  43    3.8382   480.2    3.555      39.672
2015    3       11     3  49    3.8381   479.9    3.558      39.633
2015    3       11     3  54    3.8380   479.6    3.562      39.594
2015    3       11     3  59    3.8378   479.3    3.566      39.555
2015    3       11     4   5    3.8377   479.0    3.569      39.516
2015    3       11     4  10    3.8376   478.7    3.573      39.477
2015    3       11     4  16    3.8375   478.4    3.577      39.439
2015    3       11     4  21    3.8375   478.1    3.580      39.401
2015    3       11     4  26    3.8374   477.8    3.584      39.362
2015    3       11     4  32    3.8374   477.5    3.588      39.324
2015    3       11     4  37    3.8373   477.2    3.592      39.286
2015    3       11     4  43    3.8373   476.9    3.596      39.248
2015    3       11     4  48    3.8373   476.6    3.599      39.210
2015    3       11     4  53    3.8373   476.3    3.603      39.173
2015    3       11     4  59    3.8373   476.0    3.607      39.135
2015    3       11     5   4    3.8373   475.7    3.611      39.098
2015    3       11     5  10    3.8373   475.4    3.615      39.061
2015    3       11     5  15    3.8373   475.1    3.619      39.023
2015    3       11     5  20    3.8374   474.8    3.623      38.986
2015    3       11     5  26    3.8374   474.5    3.627      38.949
2015    3       11     5  31    3.8375   474.2    3.631      38.913
2015    3       11     5  37    3.8376   473.9    3.635      38.876
2015    3       11     5  42    3.8376   473.6    3.639      38.839
2015    3       11     5  47    3.8377   473.3    3.643      38.802
2015    3       11     5  53    3.8378   473.0    3.647      38.766
2015    3       11     5  58    3.8379   472.7    3.651      38.729
2015    3       11     6   4    3.8380   472.4    3.655      38.693
2015    3       11     6   9    3.8381   472.1    3.659      38.657
2015    3       11     6  14    3.8382   471.8    3.663      38.620
2015    3       11     6  20    3.8383   471.6    3.667      38.584
2015    3       11     6  25    3.8385   471.3    3.671      38.548
2015    3       11     6  31    3.8386   471.0    3.675      38.512
2015    3       11     6  36    3.8387   470.7    3.679      38.476
2015    3       11     6  41    3.8389   470.4    3.683      38.440
2015    3       11     6  47    3.8391   470.1    3.687      38.404
2015    3       11     6  52    3.8392   469.8    3.691      38.368
2015    3       11     6  58    3.8394   469.5    3.696      38.332
2015    3       11     7   3    3.8396   469.2    3.700      38.296
2015    3       11     7   8    3.8398   468.9    3.704      38.260
2015    3       11     7  14    3.8400   468.6    3.708      38.224
2015    3       11     7  19    3.8403   468.3    3.712      38.188
2015    3       11     7  25    3.8405   468.0    3.716      38.153
2015    3       11     7  30    3.8407   467.7    3.721      38.117
2015    3       11     7  35    3.8410   467.4    3.725      38.081
2015    3       11     7  41    3.8413   467.1    3.729      38.045
2015    3       11     7  46    3.8416   466.8    3.733      38.010
2015    3       11     7  52    3.8419   466.5    3.738      37.974
2015    3       11     7  57    3.8422   466.2    3.742      37.938
2015    3       11     8   2    3.8425   465.9    3.746      37.903
2015    3       11     8   8    3.8429   465.6    3.751      37.867
2015    3       11     8  13    3.8432   465.3    3.755      37.831
2015    3       11     8  19    3.8436   465.0    3.759      37.796
2015    3       11     8  24    3.8439   464.7    3.764      37.760
2015    3       11     8  29    3.8443   464.4    3.768      37.724
2015    3       11     8  35    3.8448   464.1    3.773      37.689
2015    3       11     8  40    3.8451   463.8    3.777      37.653
2015    3       11     8  46    3.8456   463.5    3.782      37.618
2015    3       11     8  51    3.8460   463.3    3.786      37.582
2015    3       11     8  56    3.8465   463.0    3.790      37.547
2015    3       11     9   2    3.8470   462.7    3.795      37.511
2015    3       11     9   7    3.8474   462.4    3.799      37.475
2015    3       11     9  13    3.8480   462.1    3.804      37.440
2015    3       11     9  18    3.8485   461.8    3.808      37.404
2015    3       11     9  23    3.8490   461.5    3.813      37.369
2015    3       11     9  29    3.8496   461.2    3.818      37.334
2015    3       11     9  34    3.8501   460.9    3.822      37.298
2015    3       11     9  40    3.8508   460.6    3.827      37.263
2015    3       11     9  45    3.8514   460.3    3.831      37.227
2015    3       11     9  50    3.8519   460.0    3.836      37.192
2015    3       11     9  56    3.8525   459.7    3.840      37.157
2015    3       11    10   1    3.8532   459.4    3.845      37.122
2015    3       11    10   7    3.8538   459.2    3.850      37.087
2015    3       11    10  12    3.8545   458.9    3.854      37.051
2015    3       11    10  17    3.8552   458.6    3.859      37.016
2015    3       11    10  23    3.8559   458.3    3.864      36.981
2015    3       11    10  28    3.8566   458.0    3.868      36.947
2015    3       11    10  34    3.8573   457.7    3.873      36.912
2015    3       11    10  39    3.8581   457.4    3.878      36.877
2015    3       11    10  44    3.8588   457.1    3.882      36.842
2015    3       11    10  50    3.8596   456.8    3.887      36.808
2015    3       11    10  55    3.8604   456.6    3.892      36.773
2015    3       11    11   1    3.8612   456.3    3.897      36.739
2015    3       11    11   6    3.8620   456.0    3.901      36.705
2015    3       11    11  11    3.8629   455.7    3.906      36.671
2015    3       11    11  17    3.8637   455.4    3.911      36.637
2015    3       11    11  22    3.8647   455.1    3.916      36.603
2015    3       11    11  28    3.8655   454.8    3.921      36.569
2015    3       11    11  33    3.8664   454.5    3.926      36.536
2015    3       11    11  38    3.8673   454.3    3.930      36.502
2015    3       11    11  44    3.8683   454.0    3.935      36.469
2015    3       11    11  49    3.8693   453.7    3.940      36.436
2015    3       11    11  55    3.8702   453.4    3.945      36.403
2015    3       11    12   0    3.8712   453.1    3.950      36.371
2015    3       11    12   5    3.8723   452.8    3.955      36.338
2015    3       11    12  11    3.8733   452.5    3.960      36.306
2015    3       11    12  16    3.8743   452.3    3.966      36.273
2015    3       11    12  22    3.8754   452.0    3.971      36.242
2015    3       11    12  27    3.8765   451.7    3.976      36.210
2015    3       11    12  32    3.8776   451.4    3.981      36.178
2015    3       11    12  38    3.8787   451.1    3.986      36.147
2015    3       11    12  43    3.8798   450.8    3.991      36.115
2015    3       11    12  49    3.8810   450.6    3.997      36.084
2015    3       11    12  54    3.8822   450.3    4.002      36.053
2015    3       11    12  59    3.8833   450.0    4.007      36.022
2015    3       11    13   5    3.8845   449.7    4.013      35.992
2015    3       11    13  10    3.8858   449.4    4.018      35.962
2015    3       11    13  16    3.8870   449.2    4.024      35.931
2015    3       11    13  21    3.8883   448.9    4.029      35.901
2015    3       11    13  26    3.8895   448.6    4.035      35.871
2015    3       11    13  32    3.8907   448.3    4.040      35.842
2015    3       11    13  37    3.8920   448.0    4.046      35.812
2015    3       11    13  43    3.8933   447.8    4.051      35.783
2015    3       11    13  48    3.8948   447.5    4.057      35.754
2015    3       11    13  53    3.8961   447.2    4.063      35.724
2015    3       11    13  59    3.8974   446.9    4.068      35.696
2015    3       11    14   4    3.8988   446.7    4.074      35.667
2015    3       11    14  10    3.9002   446.4    4.080      35.638
2015    3       11    14  15    3.9015   446.1    4.086      35.610
2015    3       11    14  20    3.9029   445.8    4.092      35.581
2015    3       11    14  26    3.9043   445.6    4.097      35.553
2015    3       11    14  31    3.9057   445.3    4.103      35.525
2015    3       11    14  37    3.9072   445.0    4.109      35.497
2015    3       11    14  42    3.9086   444.7    4.115      35.469
2015    3       11    14  47    3.9101   444.5    4.121      35.441
2015    3       11    14  53    3.9116   444.2    4.127      35.413
2015    3       11    14  58    3.9131   443.9    4.133      35.386
2015    3       11    15   4    3.9146   443.7    4.139      35.358
2015    3       11    15   9    3.9163   443.4    4.145      35.331
2015    3       11    15  14    3.9177   443.1    4.152      35.304
2015    3       11    15  20    3.9193   442.8    4.158      35.276
2015    3       11    15  25    3.9209   442.6    4.164      35.249
2015    3       11    15  31    3.9225   442.3    4.170      35.222
2015    3       11    15  36    3.9241   442.0    4.176      35.195
2015    3       11    15  41    3.9257   441.8    4.183      35.168
2015    3       11    15  47    3.9274   441.5    4.189      35.141
2015    3       11    15  52    3.9290   441.2    4.195      35.115
2015    3       11    15  58    3.9307   441.0    4.201      35.088
2015    3       11    16   3    3.9324   440.7    4.208      35.061
2015    3       11    16   8    3.9341   440.4    4.214      35.035
2015    3       11    16  14    3.9359   440.2    4.220      35.008
2015    3       11    16  19    3.9376   439.9    4.227      34.982
2015    3       11    16  25    3.9394   439.6    4.233      34.955
2015    3       11    16  30    3.9411   439.4    4.240      34.929
2015    3       11    16  35    3.9430   439.1    4.246      34.903
2015    3       11    16  41    3.9448   438.8    4.253      34.876
2015    3       11    16  46    3.9467   438.6    4.259      34.850
2015    3       11    16  52    3.9486   438.3    4.266      34.824
2015    3       11    16  57    3.9505   438.0    4.272      34.798
2015    3       11    17   2    3.9523   437.8    4.279      34.772
2015    3       11    17   8    3.9542   437.5    4.285      34.746
2015    3       11    17  13    3.9561   437.3    4.292      34.721
2015    3       11    17  19    3.9581   437.0    4.298      34.695
2015    3       11    17  24    3.9601   436.7    4.305      34.669
2015    3       11    17  29    3.9621   436.5    4.312      34.644
2015    3       11    17  35    3.9641   436.2    4.318      34.618
2015    3       11    17  40    3.9662   435.9    4.325      34.593
2015    3       11    17  46    3.9682   435.7    4.332      34.567
2015    3       11    17  51    3.9703   435.4    4.338      34.542
2015    3       11    17  56    3.9724   435.2    4.345      34.517
2015    3       11    18   2    3.9746   434.9    4.352      34.491
2015    3       11    18   7    3.9767   434.7    4.359      34.466
2015    3       11    18  13    3.9789   434.4    4.365      34.441
2015    3       11    18  18    3.9811   434.1    4.372      34.416
2015    3       11    18  23    3.9833   433.9    4.379      34.391
2015    3       11    18  29    3.9857   433.6    4.386      34.367
2015    3       11    18  34    3.9878   433.4    4.393      34.342
2015    3       11    18  40    3.9901   433.1    4.400      34.317
2015    3       11    18  45    3.9924   432.9    4.407      34.293
2015    3       11    18  50    3.9948   432.6    4.413      34.269
2015    3       11    18  56    3.9971   432.4    4.420      34.244
2015    3       11    19   1    3.9995   432.1    4.427      34.220
2015    3       11    19   7    4.0019   431.9    4.434      34.196
2015    3       11    19  12    4.0043   431.6    4.442      34.172
2015    3       11    19  17    4.0068   431.4    4.449      34.148
2015    3       11    19  23    4.0094   431.1    4.456      34.124
2015    3       11    19  28    4.0118   430.9    4.463      34.101
2015    3       11    19  34    4.0143   430.6    4.470      34.078
2015    3       11    19  39    4.0168   430.4    4.477      34.054
2015    3       11    19  44    4.0194   430.1    4.484      34.031
2015    3       11    19  50    4.0219   429.9    4.492      34.008
2015    3       11    19  55    4.0245   429.6    4.499      33.985
2015    3       11    20   1    4.0272   429.4    4.506      33.962
2015    3       11    20   6    4.0298   429.1    4.514      33.940
2015    3       11    20  11    4.0325   428.9    4.521      33.917
2015    3       11    20  17    4.0353   428.6    4.528      33.895
2015    3       11    20  22    4.0378   428.4    4.536      33.873
2015    3       11    20  28    4.0406   428.2    4.543      33.851
2015    3       11    20  33    4.0433   427.9    4.551      33.830
2015    3       11    20  38    4.0461   427.7    4.559      33.808
2015    3       11    20  44    4.0490   427.4    4.566      33.787
2015    3       11    20  49    4.0517   427.2    4.574      33.765
2015    3       11    20  55    4.0545   427.0    4.582      33.745
2015    3       11    21   0    4.0573   426.7    4.590      33.724
2015    3       11    21   5    4.0602   426.5    4.598      33.703
2015    3       11    21  11    4.0632   426.2    4.605      33.683
2015    3       11    21  16    4.0660   426.0    4.613      33.663
2015    3       11    21  22    4.0689   425.8    4.621      33.643
2015    3       11    21  27    4.0719   425.5    4.630      33.623
2015    3       11    21  32    4.0749   425.3    4.638      33.603
2015    3       11    21  38    4.0779   425.1    4.646      33.584
2015    3       11    21  43    4.0809   424.8    4.654      33.565
2015    3       11    21  49    4.0839   424.6    4.662      33.546
2015    3       11    21  54    4.0869   424.4    4.671      33.528
2015    3       11    21  59    4.0900   424.1    4.679      33.509
2015    3       11    22   5    4.0931   423.9    4.688      33.491
2015    3       11    22  10    4.0962   423.7    4.696      33.473
2015    3       11    22  15    4.0993   423.4    4.705      33.456
2015    3       11    22  21    4.1025   423.2    4.714      33.438
2015    3       11    22  26    4.1056   423.0    4.723      33.421
2015    3       11    22  32    4.1088   422.8    4.731      33.404
2015    3       11    22  37    4.1120   422.5    4.740      33.388
2015    3       11    22  42    4.1153   422.3    4.749      33.371
2015    3       11    22  48    4.1185   422.1    4.758      33.355
2015    3       11    22  53    4.1218   421.9    4.768      33.339
2015    3       11    22  59    4.1251   421.6    4.777      33.324
2015    3       11    23   4    4.1284   421.4    4.786      33.309
2015    3       11    23   9    4.1319   421.2    4.795      33.293
2015    3       11    23  15    4.1351   421.0    4.805      33.279
2015    3       11    23  20    4.1384   420.8    4.814      33.264
2015    3       11    23  26    4.1418   420.5    4.824      33.250
2015    3       11    23  31    4.1452   420.3    4.833      33.236
2015    3       11    23  36    4.1488   420.1    4.843      33.222
2015    3       11    23  42    4.1521   419.9    4.853      33.209
2015    3       11    23  47    4.1556   419.7    4.863      33.196
2015    3       11    23  53    4.1591   419.5    4.872      33.183
2015    3       11    23  58    4.1628   419.2    4.882      33.170
2015    3       12     0   3    4.1662   419.0    4.892      33.158
2015    3       12     0   9    4.1699   418.8    4.902      33.146
2015    3       12     0  14    4.1733   418.6    4.912      33.134
2015    3       12     0  20    4.1769   418.4    4.923      33.122
2015    3       12     0  25    4.1805   418.2    4.933      33.111
2015    3       12     0  30    4.1842   418.0    4.943      33.100
2015    3       12     0  36    4.1879   417.8    4.953      33.089
2015    3       12     0  41    4.1916   417.6    4.964      33.079
2015    3       12     0  47    4.1953   417.4    4.974      33.069
2015    3       12     0  52    4.1992   417.1    4.985      33.059
2015    3       12     0  57    4.2028   416.9    4.995      33.049
2015    3       12     1   3    4.2066   416.7    5.006      33.039
2015    3       12     1   8    4.2104   416.5    5.017      33.030
2015    3       12     1  14    4.2145   416.3    5.027      33.021
2015    3       12     1  19    4.2181   416.1    5.038      33.013
2015    3       12     1  24    4.2221   415.9    5.049      33.004
2015    3       12     1  30    4.2260   415.7    5.059      32.996
2015    3       12     1  35    4.2301   415.5    5.070      32.988
2015    3       12     1  41    4.2339   415.3    5.081      32.980
2015    3       12     1  46    4.2379   415.2    5.092      32.972
2015    3       12     1  51    4.2419   415.0    5.103      32.964
2015    3       12     1  57    4.2459   414.8    5.114      32.957
2015    3       12     2   2    4.2500   414.6    5.125      32.950
2015    3       12     2   8    4.2541   414.4    5.136      32.943
2015    3       12     2  13    4.2584   414.2    5.147      32.936
2015    3       12     2  18    4.2623   414.0    5.158      32.929
2015    3       12     2  24    4.2665   413.8    5.168      32.922
2015    3       12     2  29    4.2707   413.6    5.179      32.916
2015    3       12     2  35    4.2749   413.5    5.190      32.910
2015    3       12     2  40    4.2791   413.3    5.201      32.903
2015    3       12     2  45    4.2833   413.1    5.212      32.897
2015    3       12     2  51    4.2876   412.9    5.223      32.891
2015    3       12     2  56    4.2920   412.7    5.234      32.885
2015    3       12     3   2    4.2961   412.5    5.245      32.879
2015    3       12     3   7    4.3004   412.4    5.256      32.873
2015    3       12     3  12    4.3047   412.2    5.267      32.867
2015    3       12     3  18    4.3092   412.0    5.278      32.862
2015    3       12     3  23    4.3134   411.8    5.289      32.856
2015    3       12     3  29    4.3178   411.7    5.300      32.850
2015    3       12     3  34    4.3222   411.5    5.311      32.845
2015    3       12     3  39    4.3266   411.3    5.322      32.840
2015    3       12     3  45    4.3310   411.1    5.333      32.834
2015    3       12     3  50    4.3355   411.0    5.344      32.829
2015    3       12     3  56    4.3400   410.8    5.355      32.824
2015    3       12     4   1    4.3444   410.6    5.366      32.819
2015    3       12     4   6    4.3490   410.4    5.377      32.814
2015    3       12     4  12    4.3535   410.3    5.388      32.810
2015    3       12     4  17    4.3580   410.1    5.399      32.805
2015    3       12     4  23    4.3626   409.9    5.410      32.800
2015    3       12     4  28    4.3671   409.8    5.421      32.796
2015    3       12     4  33    4.3717   409.6    5.433      32.791
2015    3       12     4  39    4.3764   409.4    5.444      32.787
2015    3       12     4  44    4.3810   409.3    5.455      32.783
2015    3       12     4  50    4.3856   409.1    5.466      32.779
2015    3       12     4  55    4.3903   409.0    5.478      32.775
2015    3       12     5   0    4.3950   408.8    5.489      32.771
2015    3       12     5   6    4.3997   408.6    5.500      32.768
2015    3       12     5  11    4.4044   408.5    5.512      32.764
2015    3       12     5  17    4.4092   408.3    5.523      32.761
2015    3       12     5  22    4.4139   408.2    5.535      32.758
2015    3       12     5  27    4.4187   408.0    5.546      32.755
2015    3       12     5  33    4.4237   407.8    5.558      32.753
2015    3       12     5  38    4.4285   407.7    5.570      32.750
2015    3       12     5  44    4.4331   407.5    5.582      32.748
2015    3       12     5  49    4.4380   407.4    5.593      32.746
2015    3       12     5  54    4.4428   407.2    5.605      32.744
2015    3       12     6   0    4.4477   407.1    5.617      32.743
2015    3       12     6   5    4.4528   406.9    5.629      32.741
2015    3       12     6  11    4.4576   406.8    5.642      32.740
2015    3       12     6  16    4.4625   406.6    5.654      32.740
2015    3       12     6  21    4.4675   406.5    5.666      32.739
2015    3       12     6  27    4.4725   406.4    5.678      32.739
2015    3       12     6  32    4.4775   406.2    5.691      32.739
2015    3       12     6  38    4.4825   406.1    5.703      32.739
2015    3       12     6  43    4.4877   405.9    5.716      32.740
2015    3       12     6  48    4.4925   405.8    5.728      32.741
2015    3       12     6  54    4.4978   405.6    5.741      32.742
2015    3       12     6  59    4.5027   405.5    5.754      32.744
2015    3       12     7   5    4.5078   405.4    5.766      32.746
2015    3       12     7  10    4.5130   405.2    5.779      32.748
2015    3       12     7  15    4.5181   405.1    5.792      32.751
2015    3       12     7  21    4.5232   405.0    5.805      32.754
2015    3       12     7  26    4.5284   404.8    5.818      32.757
2015    3       12     7  32    4.5336   404.7    5.831      32.761
2015    3       12     7  37    4.5388   404.6    5.844      32.764
2015    3       12     7  42    4.5441   404.4    5.857      32.769
2015    3       12     7  48    4.5493   404.3    5.871      32.773
2015    3       12     7  53    4.5546   404.2    5.884      32.778
2015    3       12     7  59    4.5599   404.1    5.897      32.783
2015    3       12     8   4    4.5652   403.9    5.910      32.789
2015    3       12     8   9    4.5706   403.8    5.924      32.794
2015    3       12     8  15    4.5758   403.7    5.937      32.800
2015    3       12     8  20    4.5812   403.6    5.950      32.806
2015    3       12     8  26    4.5866   403.5    5.964      32.813
2015    3       12     8  31    4.5920   403.3    5.977      32.820
2015    3       12     8  36    4.5974   403.2    5.991      32.827
2015    3       12     8  42    4.6028   403.1    6.004      32.834
2015    3       12     8  47    4.6082   403.0    6.018      32.842
2015    3       12     8  53    4.6137   402.9    6.031      32.849
2015    3       12     8  58    4.6192   402.8    6.045      32.857
2015    3       12     9   3    4.6247   402.6    6.058      32.866
2015    3       12     9   9    4.6302   402.5    6.072      32.874
2015    3       12     9  14    4.6357   402.4    6.085      32.883
2015    3       12     9  20    4.6412   402.3    6.099      32.891
2015    3       12     9  25    4.6468   402.2    6.112      32.900
2015    3       12     9  30    4.6525   402.1    6.126      32.909
2015    3       12     9  36    4.6579   402.0    6.139      32.918
2015    3       12     9  41    4.6635   401.9    6.153      32.928
2015    3       12     9  47    4.6692   401.8    6.166      32.937
2015    3       12     9  52    4.6749   401.7    6.180      32.946
2015    3       12     9  57    4.6804   401.6    6.193      32.956
2015    3       12    10   3    4.6862   401.5    6.206      32.966
2015    3       12    10   8    4.6917   401.4    6.220      32.975
2015    3       12    10  14    4.6974   401.3    6.233      32.985
2015    3       12    10  19    4.7031   401.2    6.246      32.995
2015    3       12    10  24    4.7089   401.1    6.260      33.005
2015    3       12    10  30    4.7145   401.0    6.273      33.015
2015    3       12    10  35    4.7202   400.9    6.286      33.025
2015    3       12    10  41    4.7259   400.8    6.299      33.035
2015    3       12    10  46    4.7317   400.7    6.312      33.045
2015    3       12    10  51    4.7374   400.6    6.325      33.055
2015    3       12    10  57    4.7432   400.5    6.338      33.065
2015    3       12    11   2    4.7490   400.4    6.351      33.075
2015    3       12    11   8    4.7548   400.3    6.364      33.085
2015    3       12    11  13    4.7606   400.2    6.377      33.095
2015    3       12    11  18    4.7664   400.1    6.390      33.105
2015    3       12    11  24    4.7723   400.0    6.403      33.115
2015    3       12    11  29    4.7782   399.9    6.416      33.126
2015    3       12    11  35    4.7840   399.8    6.429      33.136
2015    3       12    11  40    4.7898   399.8    6.442      33.146
2015    3       12    11  45    4.7958   399.7    6.455      33.156
2015    3       12    11  51    4.8016   399.6    6.468      33.166
2015    3       12    11  56    4.8075   399.5    6.481      33.177
2015    3       12    12   2    4.8134   399.4    6.493      33.187
2015    3       12    12   7    4.8195   399.3    6.506      33.197
2015    3       12    12  12    4.8253   399.2    6.519      33.208
2015    3       12    12  18    4.8312   399.2    6.532      33.218
2015    3       12    12  23    4.8372   399.1    6.544      33.229
2015    3       12    12  29    4.8432   399.0    6.557      33.239
2015    3       12    12  34    4.8492   398.9    6.570      33.250
2015    3       12    12  39    4.8552   398.8    6.583      33.261
2015    3       12    12  45    4.8612   398.8    6.595      33.272
2015    3       12    12  50    4.8672   398.7    6.608      33.283
2015    3       12    12  56    4.8733   398.6    6.621      33.294
2015    3       12    13   1    4.8793   398.5    6.633      33.306
2015    3       12    13   6    4.8853   398.5    6.646      33.317
2015    3       12    13  12    4.8914   398.4    6.659      33.329
2015    3       12    13  17    4.8975   398.3    6.671      33.340
2015    3       12    13  23    4.9035   398.2    6.684      33.352
2015    3       12    13  28    4.9096   398.2    6.696      33.364
2015    3       12    13  33    4.9157   398.1    6.709      33.376
2015    3       12    13  39    4.9218   398.0    6.721      33.388
2015    3       12    13  44    4.9278   398.0    6.734      33.401
2015    3       12    13  50    4.9340   397.9    6.746      33.413
2015    3       12    13  55    4.9400   397.8    6.758      33.425
2015    3       12    14   0    4.9461   397.8    6.771      33.438
2015    3       12    14   6    4.9522   397.7    6.783      33.451
2015    3       12    14  11    4.9583   397.6    6.796      33.463
2015    3       12    14  17    4.9644   397.6    6.808      33.476
2015    3       12    14  22    4.9706   397.5    6.820      33.489
2015    3       12    14  27    4.9767   397.4    6.832      33.502
2015    3       12    14  33    4.9828   397.4    6.845      33.515
2015    3       12    14  38    4.9889   397.3    6.857      33.528
2015    3       12    14  44    4.9950   397.3    6.869      33.541
2015    3       12    14  49    5.0011   397.2    6.881      33.554
2015    3       12    14  54    5.0073   397.1    6.893      33.567
2015    3       12    15   0    5.0134   397.1    6.905      33.581
2015    3       12    15   5    5.0196   397.0    6.917      33.594
2015    3       12    15  11    5.0258   397.0    6.929      33.607
2015    3       12    15  16    5.0319   396.9    6.941      33.620
2015    3       12    15  21    5.0380   396.9    6.953      33.634
2015    3       12    15  27    5.0442   396.8    6.965      33.647
2015    3       12    15  32    5.0503   396.7    6.977      33.660
2015    3       12    15  38    5.0565   396.7    6.989      33.674
2015    3       12    15  43    5.0627   396.6    7.001      33.688
2015    3       12    15  48    5.0689   396.6    7.013      33.701
2015    3       12    15  54    5.0750   396.5    7.025      33.715
2015    3       12    15  59    5.0812   396.5    7.037      33.728
2015    3       12    16   5    5.0874   396.4    7.048      33.742
2015    3       12    16  10    5.0937   396.4    7.060      33.756
2015    3       12    16  15    5.0998   396.3    7.072      33.770
2015    3       12    16  21    5.1060   396.3    7.084      33.784
2015    3       12    16  26    5.1122   396.2    7.095      33.798
2015    3       12    16  32    5.1185   396.2    7.107      33.812
2015    3       12    16  37    5.1247   396.1    7.119      33.826
2015    3       12    16  42    5.1309   396.1    7.130      33.841
2015    3       12    16  48    5.1372   396.0    7.142      33.855
2015    3       12    16  53    5.1434   396.0    7.153      33.870
2015    3       12    16  59    5.1497   395.9    7.165      33.884
2015    3       12    17   4    5.1560   395.9    7.177      33.899
2015    3       12    17   9    5.1623   395.9    7.188      33.914
2015    3       12    17  15    5.1686   395.8    7.200      33.929
2015    3       12    17  20    5.1749   395.8    7.211      33.944
2015    3       12    17  26    5.1812   395.7    7.223      33.959
2015    3       12    17  31    5.1875   395.7    7.234      33.974
2015    3       12    17  36    5.1938   395.6    7.246      33.990
2015    3       12    17  42    5.2002   395.6    7.257      34.005
2015    3       12    17  47    5.2065   395.5    7.269      34.021
2015    3       12    17  53    5.2129   395.5    7.280      34.037
2015    3       12    17  58    5.2193   395.5    7.292      34.053
2015    3       12    18   3    5.2257   395.4    7.303      34.069
2015    3       12    18   9    5.2321   395.4    7.315      34.085
2015    3       12    18  14    5.2385   395.3    7.326      34.101
2015    3       12    18  20    5.2450   395.3    7.338      34.118
2015    3       12    18  25    5.2514   395.3    7.350      34.134
2015    3       12    18  30    5.2579   395.2    7.361      34.151
2015    3       12    18  36    5.2644   395.2    7.373      34.168
2015    3       12    18  41    5.2709   395.2    7.384      34.185
2015    3       12    18  47    5.2774   395.1    7.396      34.202
2015    3       12    18  52    5.2839   395.1    7.407      34.219
2015    3       12    18  57    5.2904   395.1    7.419      34.237
2015    3       12    19   3    5.2970   395.0    7.431      34.255
2015    3       12    19   8    5.3035   395.0    7.442      34.272
2015    3       12    19  14    5.3101   395.0    7.454      34.290
2015    3       12    19  19    5.3167   394.9    7.465      34.309
2015    3       12    19  24    5.3233   394.9    7.477      34.327
2015    3       12    19  30    5.3299   394.9    7.488      34.345
2015    3       12    19  35    5.3365   394.8    7.500      34.364
2015    3       12    19  41    5.3432   394.8    7.511      34.383
2015    3       12    19  46    5.3498   394.8    7.523      34.402
2015    3       12    19  51    5.3565   394.7    7.534      34.421
2015    3       12    19  57    5.3631   394.7    7.545      34.440
2015    3       12    20   2    5.3698   394.7    7.557      34.460
2015    3       12    20   8    5.3765   394.7    7.568      34.480
2015    3       12    20  13    5.3831   394.6    7.579      34.499
2015    3       12    20  18    5.3898   394.6    7.591      34.519
2015    3       12    20  24    5.3965   394.6    7.602      34.539
2015    3       12    20  29    5.4032   394.6    7.613      34.559
2015    3       12    20  35    5.4099   394.5    7.624      34.579
2015    3       12    20  40    5.4166   394.5    7.635      34.599
2015    3       12    20  45    5.4233   394.5    7.647      34.620
2015    3       12    20  51    5.4301   394.5    7.658      34.640
2015    3       12    20  56    5.4368   394.5    7.669      34.661
2015    3       12    21   2    5.4434   394.4    7.680      34.681
2015    3       12    21   7    5.4501   394.4    7.691      34.702
2015    3       12    21  12    5.4568   394.4    7.701      34.724
2015    3       12    21  18    5.4635   394.4    7.712      34.745
2015    3       12    21  23    5.4701   394.4    7.723      34.766
2015    3       12    21  28    5.4768   394.4    7.734      34.788
2015    3       12    21  34    5.4835   394.3    7.744      34.809
2015    3       12    21  39    5.4901   394.3    7.755      34.831
2015    3       12    21  45    5.4967   394.3    7.765      34.853
2015    3       12    21  50    5.5034   394.3    7.775      34.875
2015    3       12    21  55    5.5100   394.3    7.786      34.897
2015    3       12    22   1    5.5166   394.3    7.796      34.920
2015    3       12    22   6    5.5232   394.3    7.806      34.942
2015    3       12    22  12    5.5298   394.2    7.816      34.965
2015    3       12    22  17    5.5364   394.2    7.826      34.987
2015    3       12    22  22    5.5430   394.2    7.836      35.010
2015    3       12    22  28    5.5496   394.2    7.846      35.032
2015    3       12    22  33    5.5562   394.2    7.856      35.055
2015    3       12    22  39    5.5628   394.2    7.866      35.078
2015    3       12    22  44    5.5694   394.2    7.875      35.102
2015    3       12    22  49    5.5760   394.2    7.885      35.125
2015    3       12    22  55    5.5825   394.2    7.895      35.148
2015    3       12    23   0    5.5891   394.2    7.904      35.171
2015    3       12    23   6    5.5957   394.2    7.913      35.195
2015    3       12    23  11    5.6022   394.2    7.923      35.218
2015    3       12    23  16    5.6088   394.2    7.932      35.242
2015    3       12    23  22    5.6153   394.2    7.941      35.265
2015    3       12    23  27    5.6219   394.1    7.950      35.289
2015    3       12    23  33    5.6284   394.1    7.960      35.313
2015    3       12    23  38    5.6349   394.1    7.969      35.336
2015    3       12    23  43    5.6415   394.1    7.978      35.360
2015    3       12    23  49    5.6480   394.1    7.987      35.383
2015    3       12    23  54    5.6545   394.1    7.995      35.407
2015    3       13     0   0    5.6611   394.1    8.004      35.431
