year    month   day   hour  minute  B_enl V_enl   n_enl       T_enl
[year] [month] [day] [hour][minute] [nT]  [km/s]  [cm-3]      [kK]
2014   12       28     0   4    6.6723   447.6    6.452      46.328
2014   12       28     0   9    6.6742   447.5    6.457      46.316
2014   12       28     0  14    6.6762   447.4    6.461      46.305
2014   12       28     0  19    6.6782   447.3    6.466      46.293
2014   12       28     0  24    6.6802   447.2    6.471      46.282
2014   12       28     0  29    6.6822   447.1    6.476      46.270
2014   12       28     0  34    6.6843   447.0    6.480      46.259
2014   12       28     0  39    6.6864   446.9    6.485      46.248
2014   12       28     0  44    6.6884   446.8    6.490      46.236
2014   12       28     0  49    6.6906   446.7    6.495      46.225
2014   12       28     0  54    6.6927   446.6    6.500      46.214
2014   12       28     0  59    6.6948   446.5    6.505      46.202
2014   12       28     1   4    6.6970   446.4    6.510      46.191
2014   12       28     1   9    6.6991   446.3    6.515      46.179
2014   12       28     1  14    6.7013   446.2    6.520      46.168
2014   12       28     1  19    6.7035   446.1    6.525      46.157
2014   12       28     1  24    6.7057   446.0    6.530      46.145
2014   12       28     1  29    6.7079   445.9    6.535      46.134
2014   12       28     1  34    6.7101   445.8    6.540      46.122
2014   12       28     1  39    6.7124   445.7    6.545      46.111
2014   12       28     1  44    6.7146   445.6    6.550      46.099
2014   12       28     1  49    6.7168   445.5    6.555      46.087
2014   12       28     1  53    6.7191   445.4    6.560      46.076
2014   12       28     1  58    6.7214   445.3    6.565      46.064
2014   12       28     2   3    6.7237   445.2    6.571      46.052
2014   12       28     2   8    6.7260   445.1    6.576      46.040
2014   12       28     2  13    6.7283   445.0    6.581      46.028
2014   12       28     2  18    6.7307   444.9    6.586      46.016
2014   12       28     2  23    6.7330   444.8    6.592      46.005
2014   12       28     2  28    6.7354   444.7    6.597      45.992
2014   12       28     2  33    6.7378   444.6    6.602      45.980
2014   12       28     2  38    6.7402   444.5    6.608      45.968
2014   12       28     2  43    6.7427   444.4    6.613      45.956
2014   12       28     2  48    6.7451   444.3    6.619      45.944
2014   12       28     2  53    6.7476   444.2    6.624      45.933
2014   12       28     2  58    6.7501   444.1    6.630      45.921
2014   12       28     3   3    6.7527   444.0    6.635      45.909
2014   12       28     3   8    6.7552   443.9    6.641      45.898
2014   12       28     3  13    6.7578   443.8    6.647      45.887
2014   12       28     3  18    6.7604   443.7    6.653      45.876
2014   12       28     3  23    6.7631   443.6    6.658      45.865
2014   12       28     3  28    6.7658   443.5    6.664      45.854
2014   12       28     3  33    6.7685   443.4    6.670      45.844
2014   12       28     3  38    6.7713   443.3    6.676      45.834
2014   12       28     3  42    6.7741   443.2    6.683      45.824
2014   12       28     3  47    6.7770   443.1    6.689      45.815
2014   12       28     3  52    6.7799   443.0    6.695      45.806
2014   12       28     3  57    6.7828   442.9    6.702      45.797
2014   12       28     4   2    6.7858   442.8    6.708      45.789
2014   12       28     4   7    6.7888   442.6    6.715      45.781
2014   12       28     4  12    6.7919   442.5    6.722      45.774
2014   12       28     4  17    6.7950   442.4    6.729      45.768
2014   12       28     4  22    6.7981   442.3    6.736      45.762
2014   12       28     4  27    6.8013   442.2    6.743      45.757
2014   12       28     4  32    6.8045   442.1    6.750      45.752
2014   12       28     4  37    6.8078   442.1    6.757      45.748
2014   12       28     4  42    6.8111   442.0    6.764      45.744
2014   12       28     4  47    6.8144   441.9    6.772      45.741
2014   12       28     4  52    6.8177   441.8    6.779      45.738
2014   12       28     4  57    6.8211   441.7    6.787      45.736
2014   12       28     5   2    6.8245   441.6    6.794      45.734
2014   12       28     5   7    6.8280   441.5    6.802      45.733
2014   12       28     5  12    6.8315   441.4    6.810      45.732
2014   12       28     5  17    6.8350   441.3    6.817      45.731
2014   12       28     5  22    6.8385   441.2    6.825      45.731
2014   12       28     5  27    6.8422   441.1    6.833      45.731
2014   12       28     5  32    6.8458   441.0    6.841      45.731
2014   12       28     5  37    6.8495   440.9    6.849      45.732
2014   12       28     5  41    6.8531   440.9    6.857      45.733
2014   12       28     5  46    6.8569   440.8    6.866      45.735
2014   12       28     5  51    6.8606   440.7    6.874      45.737
2014   12       28     5  56    6.8644   440.6    6.882      45.741
2014   12       28     6   1    6.8682   440.5    6.890      45.745
2014   12       28     6   6    6.8720   440.5    6.898      45.749
2014   12       28     6  11    6.8758   440.4    6.906      45.754
2014   12       28     6  16    6.8796   440.3    6.913      45.760
2014   12       28     6  21    6.8834   440.3    6.921      45.765
2014   12       28     6  26    6.8872   440.2    6.929      45.771
2014   12       28     6  31    6.8910   440.1    6.936      45.778
2014   12       28     6  36    6.8948   440.0    6.944      45.783
2014   12       28     6  41    6.8986   440.0    6.951      45.789
2014   12       28     6  46    6.9025   439.9    6.959      45.795
2014   12       28     6  51    6.9063   439.8    6.966      45.800
2014   12       28     6  56    6.9102   439.8    6.973      45.806
2014   12       28     7   1    6.9141   439.7    6.980      45.811
2014   12       28     7   6    6.9180   439.6    6.988      45.816
2014   12       28     7  11    6.9218   439.6    6.995      45.821
2014   12       28     7  16    6.9257   439.5    7.002      45.825
2014   12       28     7  21    6.9297   439.4    7.009      45.830
2014   12       28     7  26    6.9336   439.4    7.016      45.834
2014   12       28     7  31    6.9375   439.3    7.023      45.839
2014   12       28     7  36    6.9415   439.2    7.030      45.843
2014   12       28     7  41    6.9454   439.2    7.037      45.847
2014   12       28     7  46    6.9494   439.1    7.044      45.852
2014   12       28     7  51    6.9534   439.0    7.051      45.856
2014   12       28     7  56    6.9573   439.0    7.058      45.860
2014   12       28     8   1    6.9613   438.9    7.064      45.864
2014   12       28     8   6    6.9653   438.9    7.071      45.868
2014   12       28     8  10    6.9692   438.8    7.078      45.873
2014   12       28     8  15    6.9732   438.7    7.085      45.877
2014   12       28     8  20    6.9771   438.7    7.092      45.881
2014   12       28     8  25    6.9811   438.6    7.099      45.885
2014   12       28     8  30    6.9850   438.6    7.105      45.889
2014   12       28     8  35    6.9889   438.5    7.112      45.893
2014   12       28     8  40    6.9928   438.5    7.119      45.897
2014   12       28     8  45    6.9967   438.4    7.125      45.901
2014   12       28     8  50    7.0006   438.4    7.132      45.905
2014   12       28     8  55    7.0045   438.3    7.139      45.908
2014   12       28     9   0    7.0083   438.3    7.145      45.912
2014   12       28     9   5    7.0122   438.2    7.152      45.916
2014   12       28     9  10    7.0160   438.2    7.158      45.919
2014   12       28     9  15    7.0198   438.1    7.165      45.922
2014   12       28     9  20    7.0236   438.1    7.171      45.926
2014   12       28     9  25    7.0274   438.0    7.178      45.929
2014   12       28     9  30    7.0312   437.9    7.184      45.932
2014   12       28     9  35    7.0349   437.9    7.190      45.934
2014   12       28     9  40    7.0387   437.8    7.197      45.937
2014   12       28     9  45    7.0424   437.8    7.203      45.939
2014   12       28     9  50    7.0461   437.7    7.209      45.941
2014   12       28     9  55    7.0498   437.7    7.215      45.943
2014   12       28    10   0    7.0535   437.6    7.221      45.945
2014   12       28    10   5    7.0572   437.6    7.228      45.947
2014   12       28    10  10    7.0609   437.5    7.234      45.948
2014   12       28    10  14    7.0646   437.5    7.240      45.950
2014   12       28    10  19    7.0682   437.4    7.246      45.951
2014   12       28    10  24    7.0719   437.3    7.252      45.952
2014   12       28    10  29    7.0756   437.3    7.258      45.953
2014   12       28    10  34    7.0793   437.2    7.264      45.954
2014   12       28    10  39    7.0829   437.2    7.270      45.955
2014   12       28    10  44    7.0866   437.1    7.276      45.956
2014   12       28    10  49    7.0902   437.1    7.282      45.957
2014   12       28    10  54    7.0939   437.0    7.289      45.958
2014   12       28    10  59    7.0976   436.9    7.295      45.959
2014   12       28    11   4    7.1013   436.9    7.301      45.960
2014   12       28    11   9    7.1050   436.8    7.307      45.962
2014   12       28    11  14    7.1087   436.8    7.314      45.964
2014   12       28    11  19    7.1124   436.7    7.320      45.966
2014   12       28    11  24    7.1161   436.7    7.326      45.968
2014   12       28    11  29    7.1199   436.6    7.333      45.971
2014   12       28    11  34    7.1237   436.5    7.339      45.975
2014   12       28    11  39    7.1274   436.5    7.346      45.979
2014   12       28    11  44    7.1312   436.4    7.352      45.983
2014   12       28    11  49    7.1351   436.4    7.359      45.988
2014   12       28    11  54    7.1389   436.3    7.366      45.993
2014   12       28    11  59    7.1427   436.3    7.372      45.999
2014   12       28    12   3    7.1466   436.2    7.379      46.005
2014   12       28    12   8    7.1505   436.2    7.386      46.012
2014   12       28    12  13    7.1544   436.1    7.393      46.019
2014   12       28    12  18    7.1583   436.1    7.400      46.027
2014   12       28    12  23    7.1622   436.0    7.407      46.035
2014   12       28    12  28    7.1662   436.0    7.414      46.044
2014   12       28    12  33    7.1701   435.9    7.421      46.053
2014   12       28    12  38    7.1741   435.9    7.428      46.062
2014   12       28    12  43    7.1782   435.8    7.436      46.072
2014   12       28    12  48    7.1822   435.8    7.443      46.083
2014   12       28    12  53    7.1863   435.7    7.451      46.093
2014   12       28    12  58    7.1905   435.7    7.458      46.105
2014   12       28    13   3    7.1947   435.7    7.466      46.117
2014   12       28    13   8    7.1988   435.6    7.474      46.129
2014   12       28    13  13    7.2030   435.6    7.481      46.143
2014   12       28    13  18    7.2072   435.6    7.489      46.157
2014   12       28    13  23    7.2115   435.5    7.497      46.172
2014   12       28    13  28    7.2157   435.5    7.505      46.188
2014   12       28    13  33    7.2199   435.5    7.513      46.204
2014   12       28    13  38    7.2241   435.4    7.520      46.222
2014   12       28    13  43    7.2283   435.4    7.528      46.240
2014   12       28    13  48    7.2324   435.4    7.535      46.259
2014   12       28    13  53    7.2365   435.4    7.543      46.277
2014   12       28    13  58    7.2406   435.3    7.550      46.296
2014   12       28    14   3    7.2447   435.3    7.557      46.315
2014   12       28    14   8    7.2487   435.3    7.564      46.334
2014   12       28    14  13    7.2528   435.3    7.572      46.352
2014   12       28    14  17    7.2568   435.3    7.579      46.370
2014   12       28    14  22    7.2608   435.3    7.585      46.388
2014   12       28    14  27    7.2648   435.2    7.592      46.406
2014   12       28    14  32    7.2687   435.2    7.599      46.424
2014   12       28    14  37    7.2727   435.2    7.606      46.441
2014   12       28    14  42    7.2766   435.2    7.612      46.458
2014   12       28    14  47    7.2805   435.2    7.619      46.475
2014   12       28    14  52    7.2844   435.1    7.626      46.492
2014   12       28    14  57    7.2884   435.1    7.632      46.508
2014   12       28    15   2    7.2923   435.1    7.639      46.524
2014   12       28    15   7    7.2962   435.1    7.645      46.540
2014   12       28    15  12    7.3001   435.1    7.652      46.556
2014   12       28    15  17    7.3040   435.1    7.658      46.573
2014   12       28    15  22    7.3078   435.1    7.665      46.589
2014   12       28    15  27    7.3117   435.1    7.671      46.605
2014   12       28    15  32    7.3155   435.0    7.677      46.622
2014   12       28    15  37    7.3193   435.0    7.684      46.639
2014   12       28    15  42    7.3231   435.0    7.690      46.657
2014   12       28    15  47    7.3268   435.0    7.696      46.675
2014   12       28    15  52    7.3305   435.0    7.702      46.693
2014   12       28    15  57    7.3342   435.0    7.708      46.711
2014   12       28    16   2    7.3379   435.0    7.714      46.731
2014   12       28    16   7    7.3415   435.0    7.719      46.750
2014   12       28    16  12    7.3452   435.0    7.725      46.770
2014   12       28    16  17    7.3487   435.0    7.730      46.791
2014   12       28    16  22    7.3522   435.0    7.736      46.811
2014   12       28    16  27    7.3557   435.0    7.741      46.832
2014   12       28    16  32    7.3592   435.0    7.747      46.852
2014   12       28    16  37    7.3626   435.1    7.752      46.873
2014   12       28    16  42    7.3660   435.1    7.757      46.892
2014   12       28    16  46    7.3694   435.1    7.762      46.912
2014   12       28    16  51    7.3727   435.1    7.767      46.932
2014   12       28    16  56    7.3760   435.1    7.772      46.951
2014   12       28    17   1    7.3792   435.1    7.777      46.971
2014   12       28    17   6    7.3825   435.1    7.782      46.989
2014   12       28    17  11    7.3857   435.1    7.787      47.008
2014   12       28    17  16    7.3888   435.1    7.792      47.026
2014   12       28    17  21    7.3920   435.1    7.796      47.044
2014   12       28    17  26    7.3951   435.1    7.801      47.062
2014   12       28    17  31    7.3982   435.1    7.806      47.079
2014   12       28    17  36    7.4013   435.1    7.810      47.097
2014   12       28    17  41    7.4043   435.1    7.815      47.114
2014   12       28    17  46    7.4074   435.1    7.819      47.130
2014   12       28    17  51    7.4104   435.1    7.824      47.147
2014   12       28    17  56    7.4134   435.1    7.828      47.163
2014   12       28    18   1    7.4164   435.1    7.833      47.178
2014   12       28    18   6    7.4193   435.1    7.837      47.194
2014   12       28    18  11    7.4223   435.1    7.842      47.209
2014   12       28    18  16    7.4252   435.1    7.846      47.225
2014   12       28    18  21    7.4281   435.1    7.850      47.240
2014   12       28    18  26    7.4310   435.1    7.855      47.255
2014   12       28    18  31    7.4339   435.1    7.859      47.270
2014   12       28    18  35    7.4368   435.1    7.864      47.284
2014   12       28    18  40    7.4397   435.1    7.868      47.299
2014   12       28    18  45    7.4425   435.1    7.872      47.313
2014   12       28    18  50    7.4454   435.1    7.877      47.327
2014   12       28    18  55    7.4482   435.1    7.881      47.341
2014   12       28    19   0    7.4511   435.1    7.885      47.355
2014   12       28    19   5    7.4539   435.1    7.890      47.369
2014   12       28    19  10    7.4568   435.1    7.894      47.383
2014   12       28    19  15    7.4596   435.1    7.899      47.396
2014   12       28    19  20    7.4625   435.1    7.903      47.410
2014   12       28    19  25    7.4654   435.1    7.908      47.423
2014   12       28    19  30    7.4683   435.1    7.912      47.437
2014   12       28    19  35    7.4712   435.1    7.917      47.451
2014   12       28    19  40    7.4741   435.1    7.921      47.465
2014   12       28    19  45    7.4771   435.1    7.926      47.480
2014   12       28    19  50    7.4800   435.1    7.930      47.494
2014   12       28    19  55    7.4831   435.1    7.935      47.509
2014   12       28    20   0    7.4861   435.1    7.940      47.524
2014   12       28    20   5    7.4892   435.1    7.944      47.539
2014   12       28    20  10    7.4923   435.1    7.949      47.554
2014   12       28    20  15    7.4954   435.1    7.953      47.570
2014   12       28    20  20    7.4986   435.1    7.958      47.585
2014   12       28    20  25    7.5018   435.1    7.963      47.600
2014   12       28    20  30    7.5051   435.1    7.968      47.616
2014   12       28    20  34    7.5083   435.1    7.973      47.632
2014   12       28    20  39    7.5116   435.1    7.977      47.648
2014   12       28    20  44    7.5148   435.1    7.982      47.665
2014   12       28    20  49    7.5181   435.1    7.987      47.682
2014   12       28    20  54    7.5213   435.1    7.992      47.700
2014   12       28    20  59    7.5245   435.2    7.996      47.718
2014   12       28    21   4    7.5277   435.2    8.001      47.736
2014   12       28    21   9    7.5309   435.2    8.005      47.754
2014   12       28    21  14    7.5340   435.2    8.010      47.773
2014   12       28    21  19    7.5370   435.2    8.014      47.791
2014   12       28    21  24    7.5401   435.2    8.018      47.808
2014   12       28    21  29    7.5431   435.3    8.022      47.825
2014   12       28    21  34    7.5461   435.3    8.026      47.843
2014   12       28    21  39    7.5490   435.3    8.029      47.859
2014   12       28    21  44    7.5519   435.3    8.033      47.875
2014   12       28    21  49    7.5548   435.4    8.036      47.891
2014   12       28    21  54    7.5576   435.4    8.040      47.907
2014   12       28    21  59    7.5604   435.4    8.043      47.921
2014   12       28    22   4    7.5632   435.4    8.046      47.936
2014   12       28    22   9    7.5659   435.4    8.049      47.950
2014   12       28    22  14    7.5686   435.5    8.052      47.963
2014   12       28    22  19    7.5713   435.5    8.055      47.976
2014   12       28    22  24    7.5740   435.5    8.058      47.989
2014   12       28    22  29    7.5766   435.5    8.061      48.002
2014   12       28    22  34    7.5792   435.6    8.064      48.014
2014   12       28    22  39    7.5818   435.6    8.066      48.026
2014   12       28    22  44    7.5844   435.6    8.069      48.038
2014   12       28    22  49    7.5870   435.6    8.071      48.050
2014   12       28    22  54    7.5895   435.6    8.074      48.061
2014   12       28    22  59    7.5921   435.7    8.076      48.072
2014   12       28    23   4    7.5946   435.7    8.079      48.083
2014   12       28    23   9    7.5971   435.7    8.081      48.094
2014   12       28    23  13    7.5996   435.7    8.084      48.106
2014   12       28    23  18    7.6021   435.8    8.086      48.117
2014   12       28    23  23    7.6046   435.8    8.088      48.129
2014   12       28    23  28    7.6070   435.8    8.091      48.140
2014   12       28    23  33    7.6094   435.9    8.093      48.152
2014   12       28    23  38    7.6118   435.9    8.095      48.165
2014   12       28    23  43    7.6142   435.9    8.097      48.178
2014   12       28    23  48    7.6165   435.9    8.100      48.191
2014   12       28    23  53    7.6188   436.0    8.102      48.205
2014   12       28    23  58    7.6211   436.0    8.104      48.220
2014   12       29     0   3    7.6233   436.1    8.105      48.234
2014   12       29     0   8    7.6255   436.1    8.107      48.249
2014   12       29     0  13    7.6277   436.1    8.109      48.265
2014   12       29     0  18    7.6298   436.2    8.111      48.280
2014   12       29     0  23    7.6319   436.2    8.113      48.296
2014   12       29     0  28    7.6339   436.2    8.114      48.311
2014   12       29     0  33    7.6360   436.3    8.116      48.326
2014   12       29     0  38    7.6379   436.3    8.117      48.341
2014   12       29     0  43    7.6399   436.3    8.119      48.356
2014   12       29     0  48    7.6418   436.4    8.120      48.371
2014   12       29     0  53    7.6437   436.4    8.122      48.386
2014   12       29     0  58    7.6456   436.5    8.123      48.401
2014   12       29     1   2    7.6474   436.5    8.125      48.415
2014   12       29     1   7    7.6492   436.5    8.126      48.430
2014   12       29     1  12    7.6510   436.6    8.127      48.444
2014   12       29     1  17    7.6528   436.6    8.129      48.459
2014   12       29     1  22    7.6545   436.6    8.130      48.473
2014   12       29     1  27    7.6562   436.7    8.132      48.486
2014   12       29     1  32    7.6579   436.7    8.133      48.500
2014   12       29     1  37    7.6596   436.7    8.135      48.514
2014   12       29     1  42    7.6612   436.8    8.137      48.528
2014   12       29     1  47    7.6629   436.8    8.138      48.541
2014   12       29     1  52    7.6645   436.8    8.140      48.554
2014   12       29     1  57    7.6661   436.9    8.142      48.567
2014   12       29     2   2    7.6677   436.9    8.144      48.580
2014   12       29     2   7    7.6692   436.9    8.146      48.593
2014   12       29     2  12    7.6708   436.9    8.148      48.606
2014   12       29     2  17    7.6724   437.0    8.150      48.619
2014   12       29     2  22    7.6740   437.0    8.153      48.632
2014   12       29     2  27    7.6756   437.0    8.155      48.645
2014   12       29     2  31    7.6772   437.0    8.158      48.658
2014   12       29     2  36    7.6789   437.1    8.161      48.672
2014   12       29     2  41    7.6805   437.1    8.165      48.686
2014   12       29     2  46    7.6822   437.1    8.168      48.701
2014   12       29     2  51    7.6840   437.1    8.172      48.717
2014   12       29     2  56    7.6858   437.1    8.176      48.733
2014   12       29     3   1    7.6876   437.2    8.180      48.750
2014   12       29     3   6    7.6896   437.2    8.185      48.767
2014   12       29     3  11    7.6916   437.2    8.190      48.785
2014   12       29     3  16    7.6937   437.2    8.196      48.804
2014   12       29     3  21    7.6959   437.2    8.201      48.824
2014   12       29     3  26    7.6982   437.3    8.207      48.846
2014   12       29     3  31    7.7005   437.3    8.213      48.869
2014   12       29     3  36    7.7030   437.3    8.220      48.894
2014   12       29     3  41    7.7055   437.4    8.226      48.921
2014   12       29     3  46    7.7081   437.4    8.232      48.949
2014   12       29     3  51    7.7107   437.4    8.239      48.978
2014   12       29     3  55    7.7134   437.5    8.245      49.010
2014   12       29     4   0    7.7160   437.5    8.252      49.042
2014   12       29     4   5    7.7187   437.6    8.258      49.074
2014   12       29     4  10    7.7213   437.6    8.263      49.107
2014   12       29     4  15    7.7238   437.7    8.269      49.139
2014   12       29     4  20    7.7263   437.8    8.274      49.170
2014   12       29     4  25    7.7288   437.8    8.279      49.201
2014   12       29     4  30    7.7311   437.9    8.284      49.232
2014   12       29     4  35    7.7334   438.0    8.288      49.261
2014   12       29     4  40    7.7356   438.0    8.292      49.289
2014   12       29     4  45    7.7377   438.1    8.295      49.316
2014   12       29     4  50    7.7398   438.2    8.298      49.342
2014   12       29     4  55    7.7417   438.2    8.301      49.366
2014   12       29     5   0    7.7436   438.3    8.303      49.389
2014   12       29     5   5    7.7454   438.4    8.305      49.411
2014   12       29     5  10    7.7471   438.4    8.307      49.431
2014   12       29     5  15    7.7487   438.5    8.308      49.451
2014   12       29     5  20    7.7503   438.6    8.309      49.469
2014   12       29     5  25    7.7519   438.6    8.310      49.486
2014   12       29     5  30    7.7534   438.7    8.310      49.502
2014   12       29     5  35    7.7548   438.8    8.311      49.516
2014   12       29     5  39    7.7562   438.8    8.311      49.530
2014   12       29     5  44    7.7576   438.9    8.310      49.543
2014   12       29     5  49    7.7589   439.0    8.310      49.555
2014   12       29     5  54    7.7602   439.0    8.309      49.566
2014   12       29     5  59    7.7615   439.1    8.308      49.576
2014   12       29     6   4    7.7627   439.2    8.307      49.586
2014   12       29     6   9    7.7640   439.2    8.306      49.595
2014   12       29     6  14    7.7652   439.3    8.305      49.603
2014   12       29     6  19    7.7664   439.4    8.304      49.611
2014   12       29     6  24    7.7675   439.4    8.302      49.617
2014   12       29     6  29    7.7687   439.5    8.301      49.624
2014   12       29     6  34    7.7698   439.6    8.299      49.630
2014   12       29     6  39    7.7709   439.6    8.297      49.635
2014   12       29     6  44    7.7720   439.7    8.295      49.640
2014   12       29     6  49    7.7731   439.8    8.293      49.645
2014   12       29     6  54    7.7741   439.8    8.291      49.649
2014   12       29     6  59    7.7752   439.9    8.289      49.653
2014   12       29     7   4    7.7762   440.0    8.287      49.656
2014   12       29     7   9    7.7772   440.0    8.285      49.659
2014   12       29     7  14    7.7782   440.1    8.282      49.662
2014   12       29     7  19    7.7791   440.1    8.280      49.665
2014   12       29     7  24    7.7801   440.2    8.278      49.667
2014   12       29     7  28    7.7810   440.3    8.275      49.670
2014   12       29     7  33    7.7819   440.3    8.273      49.672
2014   12       29     7  38    7.7828   440.4    8.271      49.674
2014   12       29     7  43    7.7837   440.5    8.268      49.676
2014   12       29     7  48    7.7846   440.5    8.266      49.678
2014   12       29     7  53    7.7854   440.6    8.263      49.680
2014   12       29     7  58    7.7863   440.6    8.261      49.682
2014   12       29     8   3    7.7871   440.7    8.258      49.684
2014   12       29     8   8    7.7879   440.8    8.256      49.686
2014   12       29     8  13    7.7887   440.8    8.253      49.688
2014   12       29     8  18    7.7895   440.9    8.251      49.689
2014   12       29     8  23    7.7902   441.0    8.248      49.691
2014   12       29     8  28    7.7910   441.0    8.246      49.692
2014   12       29     8  33    7.7917   441.1    8.244      49.694
2014   12       29     8  38    7.7925   441.1    8.242      49.695
2014   12       29     8  43    7.7932   441.2    8.239      49.697
2014   12       29     8  48    7.7939   441.3    8.237      49.698
2014   12       29     8  53    7.7946   441.3    8.235      49.700
2014   12       29     8  58    7.7953   441.4    8.234      49.701
2014   12       29     9   3    7.7960   441.4    8.232      49.703
2014   12       29     9   7    7.7967   441.5    8.231      49.704
2014   12       29     9  12    7.7974   441.5    8.229      49.706
2014   12       29     9  17    7.7981   441.6    8.228      49.708
2014   12       29     9  22    7.7989   441.6    8.227      49.710
2014   12       29     9  27    7.7996   441.7    8.227      49.712
2014   12       29     9  32    7.8004   441.8    8.226      49.715
2014   12       29     9  37    7.8011   441.8    8.226      49.719
2014   12       29     9  42    7.8019   441.9    8.226      49.723
2014   12       29     9  47    7.8028   441.9    8.227      49.727
2014   12       29     9  52    7.8036   442.0    8.228      49.733
2014   12       29     9  57    7.8046   442.0    8.229      49.739
2014   12       29    10   2    7.8055   442.1    8.231      49.746
2014   12       29    10   7    7.8066   442.1    8.233      49.754
2014   12       29    10  12    7.8076   442.2    8.236      49.763
2014   12       29    10  17    7.8088   442.2    8.239      49.774
2014   12       29    10  22    7.8100   442.2    8.243      49.785
2014   12       29    10  27    7.8114   442.3    8.247      49.798
2014   12       29    10  32    7.8128   442.3    8.252      49.813
2014   12       29    10  36    7.8143   442.4    8.257      49.830
2014   12       29    10  41    7.8159   442.4    8.263      49.849
2014   12       29    10  46    7.8176   442.5    8.270      49.870
2014   12       29    10  51    7.8194   442.6    8.277      49.895
2014   12       29    10  56    7.8212   442.6    8.284      49.923
2014   12       29    11   1    7.8230   442.7    8.291      49.955
2014   12       29    11   6    7.8248   442.8    8.298      49.990
2014   12       29    11  11    7.8266   442.9    8.305      50.029
2014   12       29    11  16    7.8285   443.0    8.312      50.069
2014   12       29    11  21    7.8302   443.0    8.319      50.111
2014   12       29    11  26    7.8320   443.1    8.325      50.155
2014   12       29    11  31    7.8336   443.2    8.332      50.199
2014   12       29    11  36    7.8353   443.3    8.337      50.242
2014   12       29    11  41    7.8368   443.4    8.343      50.284
2014   12       29    11  46    7.8383   443.5    8.348      50.326
2014   12       29    11  51    7.8396   443.6    8.352      50.366
2014   12       29    11  56    7.8408   443.8    8.356      50.406
2014   12       29    12   1    7.8420   443.9    8.359      50.443
2014   12       29    12   6    7.8430   444.0    8.362      50.479
2014   12       29    12  10    7.8440   444.1    8.364      50.514
2014   12       29    12  15    7.8448   444.2    8.366      50.547
2014   12       29    12  20    7.8456   444.3    8.368      50.578
2014   12       29    12  25    7.8464   444.4    8.369      50.608
2014   12       29    12  30    7.8470   444.5    8.369      50.636
2014   12       29    12  35    7.8476   444.6    8.369      50.663
2014   12       29    12  40    7.8482   444.7    8.369      50.688
2014   12       29    12  45    7.8487   444.8    8.368      50.711
2014   12       29    12  50    7.8492   444.9    8.367      50.734
2014   12       29    12  55    7.8496   445.0    8.366      50.755
2014   12       29    13   0    7.8501   445.2    8.364      50.774
2014   12       29    13   5    7.8505   445.3    8.363      50.793
2014   12       29    13  10    7.8508   445.4    8.360      50.810
2014   12       29    13  15    7.8512   445.5    8.358      50.826
2014   12       29    13  20    7.8515   445.6    8.355      50.840
2014   12       29    13  25    7.8518   445.7    8.352      50.854
2014   12       29    13  30    7.8522   445.8    8.349      50.867
2014   12       29    13  35    7.8525   445.9    8.346      50.878
2014   12       29    13  40    7.8528   446.0    8.342      50.889
2014   12       29    13  45    7.8530   446.1    8.338      50.899
2014   12       29    13  50    7.8533   446.2    8.334      50.907
2014   12       29    13  55    7.8536   446.3    8.330      50.915
2014   12       29    14   0    7.8538   446.4    8.326      50.922
2014   12       29    14   4    7.8540   446.6    8.322      50.928
2014   12       29    14   9    7.8542   446.7    8.317      50.934
2014   12       29    14  14    7.8544   446.8    8.313      50.939
2014   12       29    14  19    7.8546   446.9    8.308      50.943
2014   12       29    14  24    7.8548   447.0    8.303      50.946
2014   12       29    14  29    7.8549   447.1    8.298      50.949
2014   12       29    14  34    7.8551   447.2    8.293      50.951
2014   12       29    14  39    7.8552   447.3    8.288      50.952
2014   12       29    14  44    7.8553   447.4    8.283      50.953
2014   12       29    14  49    7.8554   447.5    8.277      50.953
2014   12       29    14  54    7.8555   447.6    8.272      50.953
2014   12       29    14  59    7.8556   447.7    8.267      50.953
2014   12       29    15   4    7.8556   447.8    8.261      50.952
2014   12       29    15   9    7.8557   447.9    8.256      50.950
2014   12       29    15  14    7.8557   448.0    8.250      50.949
2014   12       29    15  19    7.8557   448.1    8.245      50.946
2014   12       29    15  24    7.8558   448.2    8.239      50.944
2014   12       29    15  29    7.8558   448.3    8.233      50.941
2014   12       29    15  34    7.8558   448.4    8.228      50.937
2014   12       29    15  39    7.8558   448.5    8.222      50.934
2014   12       29    15  43    7.8557   448.6    8.217      50.930
2014   12       29    15  48    7.8557   448.7    8.211      50.926
2014   12       29    15  53    7.8557   448.8    8.206      50.922
2014   12       29    15  58    7.8557   448.9    8.200      50.917
2014   12       29    16   3    7.8556   449.0    8.195      50.913
2014   12       29    16   8    7.8556   449.1    8.190      50.908
2014   12       29    16  13    7.8555   449.2    8.184      50.903
2014   12       29    16  18    7.8555   449.3    8.179      50.898
2014   12       29    16  23    7.8554   449.4    8.174      50.892
2014   12       29    16  28    7.8553   449.5    8.169      50.887
2014   12       29    16  33    7.8553   449.6    8.164      50.882
2014   12       29    16  38    7.8552   449.7    8.160      50.876
2014   12       29    16  43    7.8551   449.8    8.155      50.871
2014   12       29    16  48    7.8551   449.9    8.151      50.865
2014   12       29    16  53    7.8550   450.0    8.146      50.860
2014   12       29    16  58    7.8550   450.1    8.142      50.855
2014   12       29    17   3    7.8549   450.2    8.138      50.850
2014   12       29    17   8    7.8549   450.3    8.135      50.845
2014   12       29    17  13    7.8549   450.4    8.131      50.841
2014   12       29    17  17    7.8548   450.5    8.128      50.837
2014   12       29    17  22    7.8548   450.6    8.125      50.833
2014   12       29    17  27    7.8548   450.7    8.122      50.830
2014   12       29    17  32    7.8549   450.8    8.120      50.828
2014   12       29    17  37    7.8549   450.9    8.118      50.826
2014   12       29    17  42    7.8550   451.0    8.116      50.825
2014   12       29    17  47    7.8551   451.0    8.114      50.824
2014   12       29    17  52    7.8552   451.1    8.113      50.824
2014   12       29    17  57    7.8552   451.2    8.112      50.824
2014   12       29    18   2    7.8553   451.3    8.112      50.826
2014   12       29    18   7    7.8553   451.4    8.111      50.830
2014   12       29    18  12    7.8553   451.5    8.111      50.836
2014   12       29    18  17    7.8553   451.6    8.111      50.844
2014   12       29    18  22    7.8552   451.7    8.111      50.854
2014   12       29    18  27    7.8551   451.9    8.110      50.865
2014   12       29    18  32    7.8549   452.0    8.110      50.879
2014   12       29    18  37    7.8547   452.1    8.110      50.895
2014   12       29    18  41    7.8545   452.2    8.109      50.911
2014   12       29    18  46    7.8542   452.3    8.108      50.927
2014   12       29    18  51    7.8538   452.4    8.107      50.943
2014   12       29    18  56    7.8534   452.5    8.106      50.958
2014   12       29    19   1    7.8529   452.6    8.105      50.973
2014   12       29    19   6    7.8524   452.8    8.103      50.987
2014   12       29    19  11    7.8518   452.9    8.102      51.000
2014   12       29    19  16    7.8512   453.0    8.100      51.013
2014   12       29    19  21    7.8506   453.1    8.098      51.025
2014   12       29    19  26    7.8499   453.2    8.096      51.037
2014   12       29    19  31    7.8492   453.3    8.093      51.048
2014   12       29    19  36    7.8485   453.4    8.091      51.058
2014   12       29    19  41    7.8478   453.5    8.088      51.067
2014   12       29    19  46    7.8471   453.6    8.085      51.076
2014   12       29    19  51    7.8464   453.8    8.082      51.085
2014   12       29    19  56    7.8456   453.9    8.079      51.093
2014   12       29    20   1    7.8449   454.0    8.076      51.100
2014   12       29    20   6    7.8441   454.1    8.072      51.106
2014   12       29    20  11    7.8434   454.2    8.069      51.112
2014   12       29    20  16    7.8427   454.3    8.065      51.118
2014   12       29    20  21    7.8419   454.4    8.061      51.122
2014   12       29    20  26    7.8412   454.5    8.057      51.126
2014   12       29    20  30    7.8405   454.7    8.053      51.129
2014   12       29    20  35    7.8398   454.8    8.049      51.132
2014   12       29    20  40    7.8391   454.9    8.044      51.134
2014   12       29    20  45    7.8384   455.0    8.040      51.135
2014   12       29    20  50    7.8377   455.1    8.035      51.135
2014   12       29    20  55    7.8370   455.2    8.030      51.135
2014   12       29    21   0    7.8363   455.3    8.025      51.134
2014   12       29    21   5    7.8356   455.5    8.020      51.133
2014   12       29    21  10    7.8350   455.6    8.015      51.131
2014   12       29    21  15    7.8343   455.7    8.009      51.128
2014   12       29    21  20    7.8337   455.8    8.004      51.125
2014   12       29    21  25    7.8330   455.9    7.999      51.121
2014   12       29    21  30    7.8324   456.0    7.993      51.117
2014   12       29    21  35    7.8318   456.1    7.987      51.112
2014   12       29    21  40    7.8312   456.3    7.982      51.107
2014   12       29    21  45    7.8306   456.4    7.976      51.101
2014   12       29    21  50    7.8301   456.5    7.970      51.095
2014   12       29    21  55    7.8296   456.6    7.964      51.088
2014   12       29    22   0    7.8291   456.7    7.958      51.081
2014   12       29    22   5    7.8286   456.8    7.952      51.074
2014   12       29    22  10    7.8282   456.9    7.946      51.066
2014   12       29    22  15    7.8277   457.1    7.940      51.058
2014   12       29    22  19    7.8274   457.2    7.934      51.050
2014   12       29    22  24    7.8270   457.3    7.928      51.041
2014   12       29    22  29    7.8267   457.4    7.921      51.031
2014   12       29    22  34    7.8264   457.5    7.915      51.022
2014   12       29    22  39    7.8261   457.6    7.909      51.012
2014   12       29    22  44    7.8258   457.7    7.903      51.002
2014   12       29    22  49    7.8255   457.9    7.897      50.992
2014   12       29    22  54    7.8253   458.0    7.890      50.981
2014   12       29    22  59    7.8250   458.1    7.884      50.971
2014   12       29    23   4    7.8247   458.2    7.878      50.960
2014   12       29    23   9    7.8243   458.3    7.872      50.949
2014   12       29    23  14    7.8240   458.4    7.865      50.937
2014   12       29    23  19    7.8237   458.5    7.859      50.926
2014   12       29    23  24    7.8233   458.6    7.853      50.914
2014   12       29    23  29    7.8229   458.7    7.847      50.903
2014   12       29    23  34    7.8225   458.9    7.841      50.891
2014   12       29    23  39    7.8221   459.0    7.835      50.879
2014   12       29    23  44    7.8216   459.1    7.828      50.867
2014   12       29    23  49    7.8212   459.2    7.822      50.854
2014   12       29    23  53    7.8207   459.3    7.816      50.842
2014   12       29    23  58    7.8201   459.4    7.810      50.829
2014   12       30     0   3    7.8196   459.5    7.804      50.816
2014   12       30     0   8    7.8190   459.6    7.798      50.802
2014   12       30     0  13    7.8184   459.7    7.792      50.788
2014   12       30     0  18    7.8178   459.8    7.786      50.774
2014   12       30     0  23    7.8171   459.9    7.780      50.760
2014   12       30     0  28    7.8165   460.0    7.774      50.745
2014   12       30     0  33    7.8158   460.1    7.768      50.730
2014   12       30     0  38    7.8150   460.2    7.762      50.715
2014   12       30     0  43    7.8143   460.4    7.756      50.700
2014   12       30     0  48    7.8135   460.5    7.750      50.684
2014   12       30     0  53    7.8127   460.6    7.744      50.668
2014   12       30     0  58    7.8119   460.7    7.738      50.651
2014   12       30     1   3    7.8111   460.8    7.732      50.635
2014   12       30     1   8    7.8102   460.9    7.727      50.618
2014   12       30     1  13    7.8093   461.0    7.721      50.601
2014   12       30     1  18    7.8084   461.1    7.715      50.584
2014   12       30     1  22    7.8075   461.2    7.709      50.566
2014   12       30     1  27    7.8065   461.3    7.704      50.548
2014   12       30     1  32    7.8056   461.4    7.698      50.530
2014   12       30     1  37    7.8046   461.5    7.692      50.512
2014   12       30     1  42    7.8036   461.5    7.687      50.494
2014   12       30     1  47    7.8026   461.6    7.681      50.475
2014   12       30     1  52    7.8016   461.7    7.676      50.456
2014   12       30     1  57    7.8006   461.8    7.670      50.438
2014   12       30     2   2    7.7996   461.9    7.665      50.419
2014   12       30     2   7    7.7986   462.0    7.660      50.400
2014   12       30     2  12    7.7976   462.1    7.654      50.380
2014   12       30     2  17    7.7966   462.2    7.649      50.361
2014   12       30     2  22    7.7956   462.3    7.644      50.342
2014   12       30     2  27    7.7946   462.4    7.639      50.323
2014   12       30     2  32    7.7936   462.4    7.634      50.303
2014   12       30     2  37    7.7926   462.5    7.629      50.284
2014   12       30     2  42    7.7916   462.6    7.624      50.264
2014   12       30     2  47    7.7907   462.7    7.619      50.245
2014   12       30     2  52    7.7897   462.8    7.614      50.226
2014   12       30     2  57    7.7888   462.9    7.609      50.207
2014   12       30     3   1    7.7879   462.9    7.605      50.189
2014   12       30     3   6    7.7870   463.0    7.600      50.170
2014   12       30     3  11    7.7862   463.1    7.595      50.152
2014   12       30     3  16    7.7853   463.2    7.591      50.134
2014   12       30     3  21    7.7845   463.2    7.586      50.116
2014   12       30     3  26    7.7838   463.3    7.581      50.098
2014   12       30     3  31    7.7830   463.4    7.577      50.080
2014   12       30     3  36    7.7823   463.5    7.572      50.062
2014   12       30     3  41    7.7816   463.5    7.567      50.043
2014   12       30     3  46    7.7809   463.6    7.563      50.025
2014   12       30     3  51    7.7803   463.7    7.558      50.007
2014   12       30     3  56    7.7797   463.8    7.554      49.988
2014   12       30     4   1    7.7792   463.8    7.550      49.970
2014   12       30     4   6    7.7787   463.9    7.545      49.952
2014   12       30     4  11    7.7782   464.0    7.541      49.934
2014   12       30     4  16    7.7778   464.0    7.537      49.915
2014   12       30     4  21    7.7775   464.1    7.533      49.897
2014   12       30     4  26    7.7772   464.2    7.528      49.879
2014   12       30     4  31    7.7769   464.3    7.524      49.861
2014   12       30     4  36    7.7767   464.3    7.521      49.843
2014   12       30     4  41    7.7765   464.4    7.517      49.826
2014   12       30     4  46    7.7764   464.5    7.513      49.808
2014   12       30     4  50    7.7764   464.5    7.509      49.791
2014   12       30     4  55    7.7764   464.6    7.506      49.774
2014   12       30     5   0    7.7765   464.7    7.502      49.757
2014   12       30     5   5    7.7767   464.7    7.499      49.740
2014   12       30     5  10    7.7769   464.8    7.496      49.724
2014   12       30     5  15    7.7772   464.9    7.492      49.708
2014   12       30     5  20    7.7776   464.9    7.489      49.692
2014   12       30     5  25    7.7780   465.0    7.486      49.677
2014   12       30     5  30    7.7785   465.1    7.483      49.662
2014   12       30     5  35    7.7790   465.2    7.481      49.647
2014   12       30     5  40    7.7796   465.2    7.478      49.632
2014   12       30     5  45    7.7803   465.3    7.475      49.618
2014   12       30     5  50    7.7810   465.4    7.473      49.604
2014   12       30     5  55    7.7818   465.4    7.471      49.591
2014   12       30     6   0    7.7827   465.5    7.468      49.578
2014   12       30     6   5    7.7836   465.6    7.466      49.565
2014   12       30     6  10    7.7845   465.6    7.464      49.552
2014   12       30     6  15    7.7854   465.7    7.462      49.540
2014   12       30     6  20    7.7863   465.8    7.461      49.528
2014   12       30     6  25    7.7872   465.9    7.459      49.517
2014   12       30     6  30    7.7881   465.9    7.457      49.506
2014   12       30     6  34    7.7889   466.0    7.456      49.495
2014   12       30     6  39    7.7897   466.1    7.455      49.484
2014   12       30     6  44    7.7905   466.2    7.454      49.474
2014   12       30     6  49    7.7913   466.2    7.453      49.465
2014   12       30     6  54    7.7920   466.3    7.452      49.457
2014   12       30     6  59    7.7927   466.4    7.451      49.450
2014   12       30     7   4    7.7934   466.5    7.449      49.444
2014   12       30     7   9    7.7940   466.5    7.448      49.439
2014   12       30     7  14    7.7946   466.6    7.447      49.435
2014   12       30     7  19    7.7952   466.7    7.446      49.431
2014   12       30     7  24    7.7957   466.8    7.444      49.428
2014   12       30     7  29    7.7963   466.8    7.443      49.423
2014   12       30     7  34    7.7968   466.9    7.441      49.419
2014   12       30     7  39    7.7973   467.0    7.439      49.414
2014   12       30     7  44    7.7977   467.1    7.437      49.409
2014   12       30     7  49    7.7982   467.1    7.435      49.403
2014   12       30     7  54    7.7986   467.2    7.433      49.397
2014   12       30     7  59    7.7991   467.3    7.431      49.391
2014   12       30     8   3    7.7995   467.3    7.429      49.384
2014   12       30     8   8    7.8000   467.4    7.427      49.377
2014   12       30     8  13    7.8004   467.5    7.425      49.369
2014   12       30     8  18    7.8009   467.6    7.422      49.361
2014   12       30     8  23    7.8013   467.6    7.420      49.352
2014   12       30     8  28    7.8018   467.7    7.418      49.343
2014   12       30     8  33    7.8023   467.8    7.415      49.334
2014   12       30     8  38    7.8028   467.8    7.413      49.324
2014   12       30     8  43    7.8033   467.9    7.410      49.314
2014   12       30     8  48    7.8039   468.0    7.408      49.303
2014   12       30     8  53    7.8044   468.0    7.405      49.292
2014   12       30     8  58    7.8050   468.1    7.403      49.281
2014   12       30     9   3    7.8056   468.1    7.400      49.270
2014   12       30     9   8    7.8063   468.2    7.397      49.259
2014   12       30     9  13    7.8069   468.3    7.395      49.248
2014   12       30     9  18    7.8076   468.3    7.392      49.236
2014   12       30     9  23    7.8084   468.4    7.389      49.224
2014   12       30     9  28    7.8092   468.5    7.387      49.212
2014   12       30     9  32    7.8100   468.5    7.384      49.200
2014   12       30     9  37    7.8108   468.6    7.381      49.188
2014   12       30     9  42    7.8117   468.7    7.379      49.176
2014   12       30     9  47    7.8127   468.7    7.376      49.163
2014   12       30     9  52    7.8136   468.8    7.373      49.151
2014   12       30     9  57    7.8147   468.8    7.371      49.138
2014   12       30    10   2    7.8157   468.9    7.368      49.125
2014   12       30    10   7    7.8168   469.0    7.365      49.112
2014   12       30    10  12    7.8179   469.0    7.363      49.100
2014   12       30    10  17    7.8191   469.1    7.360      49.087
2014   12       30    10  22    7.8203   469.1    7.358      49.075
2014   12       30    10  27    7.8216   469.2    7.355      49.063
2014   12       30    10  32    7.8229   469.3    7.353      49.051
2014   12       30    10  37    7.8242   469.3    7.350      49.039
2014   12       30    10  42    7.8256   469.4    7.348      49.027
2014   12       30    10  47    7.8270   469.4    7.345      49.015
2014   12       30    10  52    7.8285   469.5    7.343      49.004
2014   12       30    10  57    7.8300   469.6    7.340      48.992
2014   12       30    11   2    7.8315   469.6    7.338      48.980
2014   12       30    11   7    7.8331   469.7    7.335      48.969
2014   12       30    11  12    7.8347   469.7    7.333      48.957
2014   12       30    11  17    7.8364   469.8    7.331      48.946
2014   12       30    11  21    7.8380   469.8    7.329      48.935
2014   12       30    11  26    7.8398   469.9    7.326      48.923
2014   12       30    11  31    7.8416   470.0    7.324      48.913
2014   12       30    11  36    7.8434   470.0    7.322      48.902
2014   12       30    11  41    7.8453   470.1    7.320      48.891
2014   12       30    11  46    7.8472   470.1    7.318      48.881
2014   12       30    11  51    7.8491   470.2    7.317      48.871
2014   12       30    11  56    7.8511   470.2    7.315      48.862
2014   12       30    12   1    7.8532   470.3    7.313      48.853
2014   12       30    12   6    7.8553   470.3    7.312      48.844
2014   12       30    12  11    7.8574   470.4    7.311      48.836
2014   12       30    12  16    7.8596   470.5    7.309      48.828
2014   12       30    12  21    7.8618   470.5    7.308      48.821
2014   12       30    12  26    7.8641   470.6    7.307      48.814
2014   12       30    12  31    7.8664   470.6    7.307      48.807
2014   12       30    12  36    7.8688   470.7    7.306      48.802
2014   12       30    12  41    7.8712   470.7    7.305      48.797
2014   12       30    12  46    7.8736   470.8    7.305      48.793
2014   12       30    12  51    7.8761   470.8    7.304      48.789
2014   12       30    12  56    7.8787   470.9    7.304      48.786
2014   12       30    13   1    7.8813   471.0    7.304      48.785
2014   12       30    13   5    7.8839   471.0    7.304      48.783
2014   12       30    13  10    7.8866   471.1    7.304      48.783
2014   12       30    13  15    7.8894   471.1    7.304      48.783
2014   12       30    13  20    7.8922   471.2    7.305      48.784
2014   12       30    13  25    7.8950   471.3    7.305      48.785
2014   12       30    13  30    7.8979   471.3    7.306      48.787
2014   12       30    13  35    7.9009   471.4    7.307      48.790
2014   12       30    13  40    7.9039   471.5    7.308      48.793
2014   12       30    13  45    7.9069   471.5    7.309      48.797
2014   12       30    13  50    7.9099   471.6    7.311      48.802
2014   12       30    13  55    7.9130   471.7    7.312      48.808
2014   12       30    14   0    7.9160   471.7    7.314      48.815
2014   12       30    14   5    7.9191   471.8    7.316      48.822
2014   12       30    14  10    7.9221   471.9    7.319      48.830
2014   12       30    14  15    7.9251   472.0    7.321      48.839
2014   12       30    14  20    7.9281   472.0    7.324      48.849
2014   12       30    14  25    7.9312   472.1    7.327      48.861
2014   12       30    14  30    7.9342   472.2    7.330      48.874
2014   12       30    14  35    7.9372   472.3    7.333      48.889
2014   12       30    14  39    7.9402   472.3    7.336      48.905
2014   12       30    14  44    7.9432   472.4    7.340      48.923
2014   12       30    14  49    7.9461   472.5    7.343      48.943
2014   12       30    14  54    7.9491   472.6    7.347      48.963
2014   12       30    14  59    7.9521   472.7    7.350      48.985
2014   12       30    15   4    7.9551   472.7    7.354      49.007
2014   12       30    15   9    7.9581   472.8    7.358      49.029
2014   12       30    15  14    7.9612   472.9    7.361      49.053
2014   12       30    15  19    7.9643   473.0    7.365      49.075
2014   12       30    15  24    7.9674   473.1    7.370      49.098
2014   12       30    15  29    7.9705   473.1    7.374      49.122
2014   12       30    15  34    7.9737   473.2    7.378      49.148
2014   12       30    15  39    7.9768   473.3    7.383      49.176
2014   12       30    15  44    7.9801   473.4    7.387      49.205
2014   12       30    15  49    7.9834   473.5    7.392      49.234
2014   12       30    15  54    7.9868   473.6    7.396      49.265
2014   12       30    15  59    7.9901   473.7    7.400      49.297
2014   12       30    16   3    7.9936   473.8    7.404      49.331
2014   12       30    16   8    7.9970   473.9    7.407      49.364
2014   12       30    16  13    8.0006   474.0    7.410      49.396
2014   12       30    16  18    8.0040   474.1    7.413      49.427
2014   12       30    16  23    8.0076   474.2    7.416      49.457
2014   12       30    16  28    8.0110   474.3    7.418      49.486
2014   12       30    16  33    8.0145   474.4    7.420      49.514
2014   12       30    16  38    8.0180   474.6    7.422      49.541
2014   12       30    16  43    8.0215   474.7    7.423      49.567
2014   12       30    16  48    8.0249   474.8    7.424      49.592
2014   12       30    16  53    8.0284   474.9    7.425      49.615
2014   12       30    16  58    8.0319   475.0    7.425      49.637
2014   12       30    17   3    8.0353   475.1    7.425      49.658
2014   12       30    17   8    8.0388   475.3    7.425      49.679
2014   12       30    17  13    8.0422   475.4    7.425      49.698
2014   12       30    17  18    8.0457   475.5    7.424      49.716
2014   12       30    17  23    8.0491   475.6    7.423      49.733
2014   12       30    17  28    8.0526   475.7    7.422      49.750
2014   12       30    17  33    8.0560   475.9    7.421      49.766
2014   12       30    17  38    8.0595   476.0    7.420      49.781
2014   12       30    17  43    8.0629   476.1    7.418      49.795
2014   12       30    17  47    8.0664   476.2    7.416      49.809
2014   12       30    17  52    8.0699   476.4    7.415      49.823
2014   12       30    17  57    8.0733   476.5    7.413      49.836
2014   12       30    18   2    8.0768   476.6    7.410      49.848
2014   12       30    18   7    8.0803   476.7    7.408      49.860
2014   12       30    18  12    8.0838   476.9    7.406      49.872
2014   12       30    18  17    8.0873   477.0    7.404      49.883
2014   12       30    18  22    8.0909   477.1    7.401      49.895
2014   12       30    18  27    8.0944   477.3    7.399      49.906
2014   12       30    18  32    8.0980   477.4    7.396      49.917
2014   12       30    18  37    8.1015   477.5    7.394      49.928
2014   12       30    18  42    8.1051   477.6    7.391      49.938
2014   12       30    18  47    8.1087   477.8    7.389      49.949
2014   12       30    18  52    8.1123   477.9    7.386      49.960
2014   12       30    18  57    8.1160   478.0    7.384      49.971
2014   12       30    19   2    8.1197   478.2    7.381      49.981
2014   12       30    19   7    8.1234   478.3    7.379      49.992
2014   12       30    19  12    8.1272   478.4    7.376      50.003
2014   12       30    19  17    8.1310   478.6    7.374      50.015
2014   12       30    19  22    8.1348   478.7    7.372      50.026
2014   12       30    19  27    8.1387   478.8    7.370      50.038
2014   12       30    19  32    8.1427   479.0    7.368      50.050
2014   12       30    19  36    8.1467   479.1    7.366      50.063
2014   12       30    19  41    8.1508   479.2    7.364      50.076
2014   12       30    19  46    8.1549   479.4    7.362      50.090
2014   12       30    19  51    8.1591   479.5    7.361      50.105
2014   12       30    19  56    8.1634   479.6    7.359      50.120
2014   12       30    20   1    8.1678   479.8    7.358      50.136
2014   12       30    20   6    8.1723   479.9    7.357      50.154
2014   12       30    20  11    8.1768   480.1    7.356      50.172
2014   12       30    20  16    8.1814   480.2    7.356      50.192
2014   12       30    20  21    8.1861   480.4    7.355      50.213
2014   12       30    20  26    8.1909   480.5    7.355      50.235
2014   12       30    20  31    8.1957   480.7    7.355      50.259
2014   12       30    20  36    8.2007   480.9    7.355      50.285
2014   12       30    20  41    8.2058   481.0    7.356      50.312
2014   12       30    20  46    8.2109   481.2    7.356      50.341
2014   12       30    20  51    8.2162   481.3    7.357      50.371
2014   12       30    20  56    8.2215   481.5    7.357      50.403
2014   12       30    21   1    8.2269   481.7    7.358      50.436
2014   12       30    21   6    8.2323   481.8    7.359      50.470
2014   12       30    21  11    8.2377   482.0    7.360      50.504
2014   12       30    21  15    8.2432   482.2    7.361      50.540
2014   12       30    21  20    8.2486   482.4    7.363      50.576
2014   12       30    21  25    8.2540   482.5    7.364      50.613
2014   12       30    21  30    8.2594   482.7    7.366      50.652
2014   12       30    21  35    8.2648   482.9    7.368      50.691
2014   12       30    21  40    8.2701   483.0    7.370      50.731
2014   12       30    21  45    8.2753   483.2    7.372      50.773
2014   12       30    21  50    8.2806   483.4    7.374      50.815
2014   12       30    21  55    8.2857   483.6    7.377      50.859
2014   12       30    22   0    8.2909   483.8    7.380      50.903
2014   12       30    22   5    8.2959   483.9    7.383      50.949
2014   12       30    22  10    8.3009   484.1    7.386      50.995
2014   12       30    22  15    8.3058   484.3    7.390      51.042
2014   12       30    22  20    8.3107   484.5    7.394      51.091
2014   12       30    22  25    8.3156   484.7    7.398      51.140
2014   12       30    22  30    8.3204   484.8    7.402      51.191
2014   12       30    22  35    8.3251   485.0    7.407      51.242
2014   12       30    22  40    8.3298   485.2    7.412      51.293
2014   12       30    22  44    8.3344   485.4    7.417      51.344
2014   12       30    22  49    8.3390   485.6    7.422      51.397
2014   12       30    22  54    8.3436   485.7    7.428      51.453
2014   12       30    22  59    8.3481   485.9    7.434      51.510
2014   12       30    23   4    8.3527   486.1    7.439      51.569
2014   12       30    23   9    8.3572   486.3    7.445      51.630
2014   12       30    23  14    8.3617   486.5    7.451      51.694
2014   12       30    23  19    8.3662   486.7    7.456      51.759
2014   12       30    23  24    8.3707   486.9    7.461      51.826
2014   12       30    23  29    8.3751   487.1    7.465      51.892
2014   12       30    23  34    8.3795   487.2    7.469      51.958
2014   12       30    23  39    8.3839   487.4    7.473      52.023
2014   12       30    23  44    8.3882   487.6    7.476      52.087
2014   12       30    23  49    8.3925   487.8    7.479      52.150
2014   12       30    23  54    8.3967   488.0    7.482      52.211
2014   12       30    23  59    8.4008   488.2    7.484      52.270
2014   12       31     0   4    8.4050   488.4    7.485      52.328
2014   12       31     0   9    8.4091   488.6    7.486      52.384
2014   12       31     0  13    8.4131   488.8    7.487      52.438
2014   12       31     0  18    8.4171   489.0    7.487      52.491
2014   12       31     0  23    8.4212   489.3    7.487      52.542
2014   12       31     0  28    8.4252   489.5    7.486      52.591
2014   12       31     0  33    8.4291   489.7    7.486      52.638
2014   12       31     0  38    8.4331   489.9    7.484      52.684
2014   12       31     0  43    8.4371   490.1    7.483      52.729
2014   12       31     0  48    8.4411   490.3    7.481      52.772
2014   12       31     0  53    8.4450   490.5    7.479      52.814
2014   12       31     0  58    8.4490   490.8    7.476      52.854
2014   12       31     1   3    8.4530   491.0    7.473      52.894
2014   12       31     1   8    8.4569   491.2    7.470      52.932
2014   12       31     1  13    8.4609   491.4    7.467      52.970
2014   12       31     1  18    8.4649   491.6    7.464      53.007
2014   12       31     1  23    8.4689   491.9    7.460      53.043
2014   12       31     1  28    8.4729   492.1    7.457      53.078
2014   12       31     1  33    8.4769   492.3    7.453      53.113
2014   12       31     1  38    8.4809   492.5    7.449      53.147
2014   12       31     1  43    8.4848   492.8    7.445      53.182
2014   12       31     1  48    8.4889   493.0    7.441      53.215
2014   12       31     1  53    8.4929   493.2    7.437      53.249
2014   12       31     1  58    8.4970   493.5    7.433      53.283
2014   12       31     2   3    8.5010   493.7    7.429      53.318
2014   12       31     2   7    8.5052   493.9    7.425      53.352
2014   12       31     2  12    8.5093   494.2    7.421      53.386
2014   12       31     2  17    8.5136   494.4    7.417      53.421
2014   12       31     2  22    8.5178   494.6    7.413      53.456
2014   12       31     2  27    8.5222   494.9    7.409      53.491
2014   12       31     2  32    8.5266   495.1    7.405      53.527
2014   12       31     2  37    8.5311   495.3    7.402      53.563
2014   12       31     2  42    8.5357   495.6    7.398      53.600
2014   12       31     2  47    8.5404   495.8    7.395      53.638
2014   12       31     2  52    8.5451   496.1    7.392      53.677
2014   12       31     2  57    8.5500   496.3    7.389      53.717
2014   12       31     3   2    8.5549   496.6    7.386      53.758
2014   12       31     3   7    8.5600   496.8    7.383      53.801
2014   12       31     3  12    8.5652   497.1    7.381      53.845
2014   12       31     3  17    8.5705   497.4    7.379      53.891
2014   12       31     3  22    8.5758   497.6    7.377      53.938
2014   12       31     3  27    8.5813   497.9    7.376      53.988
2014   12       31     3  32    8.5868   498.1    7.375      54.040
2014   12       31     3  37    8.5923   498.4    7.375      54.096
2014   12       31     3  42    8.5980   498.7    7.375      54.154
2014   12       31     3  47    8.6037   499.0    7.375      54.214
2014   12       31     3  51    8.6096   499.3    7.375      54.278
2014   12       31     3  56    8.6155   499.6    7.376      54.344
2014   12       31     4   1    8.6216   499.9    7.377      54.413
2014   12       31     4   6    8.6277   500.2    7.379      54.484
2014   12       31     4  11    8.6340   500.5    7.381      54.557
2014   12       31     4  16    8.6404   500.8    7.383      54.633
2014   12       31     4  21    8.6470   501.1    7.386      54.713
2014   12       31     4  26    8.6536   501.3    7.390      54.794
2014   12       31     4  31    8.6602   501.6    7.394      54.876
2014   12       31     4  36    8.6669   501.9    7.399      54.964
2014   12       31     4  41    8.6735   502.3    7.404      55.060
2014   12       31     4  46    8.6801   502.6    7.410      55.164
2014   12       31     4  51    8.6865   503.0    7.416      55.274
2014   12       31     4  56    8.6928   503.3    7.422      55.390
2014   12       31     5   1    8.6989   503.7    7.428      55.513
2014   12       31     5   6    8.7049   504.1    7.433      55.642
2014   12       31     5  11    8.7106   504.5    7.437      55.768
2014   12       31     5  16    8.7161   505.0    7.441      55.893
2014   12       31     5  20    8.7214   505.4    7.445      56.014
2014   12       31     5  25    8.7264   505.8    7.447      56.131
2014   12       31     5  30    8.7311   506.2    7.449      56.245
2014   12       31     5  35    8.7356   506.6    7.449      56.355
2014   12       31     5  40    8.7398   507.0    7.449      56.460
2014   12       31     5  45    8.7438   507.4    7.448      56.560
2014   12       31     5  50    8.7476   507.8    7.446      56.655
2014   12       31     5  55    8.7513   508.2    7.444      56.746
2014   12       31     6   0    8.7548   508.6    7.441      56.832
2014   12       31     6   5    8.7581   509.0    7.438      56.915
2014   12       31     6  10    8.7613   509.4    7.434      56.993
2014   12       31     6  15    8.7644   509.8    7.430      57.068
2014   12       31     6  20    8.7673   510.1    7.426      57.139
2014   12       31     6  25    8.7701   510.5    7.421      57.208
2014   12       31     6  30    8.7729   510.8    7.417      57.274
2014   12       31     6  35    8.7757   511.2    7.412      57.339
2014   12       31     6  40    8.7784   511.5    7.407      57.402
2014   12       31     6  45    8.7812   511.8    7.402      57.464
2014   12       31     6  49    8.7841   512.2    7.396      57.526
2014   12       31     6  54    8.7871   512.5    7.391      57.588
2014   12       31     6  59    8.7901   512.8    7.386      57.650
2014   12       31     7   4    8.7931   513.1    7.380      57.713
2014   12       31     7   9    8.7962   513.5    7.374      57.777
2014   12       31     7  14    8.7994   513.8    7.368      57.843
2014   12       31     7  19    8.8026   514.1    7.362      57.910
2014   12       31     7  24    8.8058   514.5    7.356      57.977
2014   12       31     7  29    8.8091   514.8    7.349      58.046
2014   12       31     7  34    8.8125   515.2    7.343      58.115
2014   12       31     7  39    8.8158   515.5    7.337      58.185
2014   12       31     7  44    8.8193   515.9    7.330      58.255
2014   12       31     7  49    8.8227   516.2    7.324      58.325
2014   12       31     7  54    8.8263   516.6    7.318      58.397
2014   12       31     7  59    8.8300   516.9    7.312      58.469
2014   12       31     8   4    8.8337   517.3    7.306      58.543
2014   12       31     8   9    8.8374   517.6    7.299      58.618
2014   12       31     8  14    8.8413   518.0    7.294      58.695
2014   12       31     8  19    8.8453   518.4    7.288      58.773
2014   12       31     8  24    8.8494   518.8    7.282      58.854
2014   12       31     8  28    8.8536   519.2    7.276      58.938
2014   12       31     8  33    8.8577   519.6    7.270      59.023
2014   12       31     8  38    8.8619   520.1    7.265      59.111
2014   12       31     8  43    8.8659   520.5    7.259      59.201
2014   12       31     8  48    8.8699   520.9    7.254      59.292
2014   12       31     8  53    8.8737   521.4    7.249      59.385
2014   12       31     8  58    8.8774   521.8    7.243      59.478
2014   12       31     9   3    8.8810   522.2    7.238      59.573
2014   12       31     9   8    8.8844   522.6    7.233      59.668
2014   12       31     9  13    8.8878   523.0    7.228      59.764
2014   12       31     9  18    8.8910   523.4    7.223      59.861
2014   12       31     9  23    8.8940   523.8    7.218      59.962
2014   12       31     9  28    8.8970   524.2    7.213      60.065
2014   12       31     9  33    8.8999   524.7    7.208      60.170
2014   12       31     9  38    8.9027   525.1    7.204      60.278
2014   12       31     9  43    8.9053   525.6    7.199      60.388
2014   12       31     9  48    8.9079   526.0    7.194      60.500
2014   12       31     9  53    8.9103   526.4    7.188      60.613
2014   12       31     9  58    8.9127   526.9    7.183      60.725
2014   12       31    10   3    8.9149   527.3    7.177      60.837
2014   12       31    10   8    8.9170   527.8    7.171      60.949
2014   12       31    10  13    8.9191   528.2    7.165      61.060
2014   12       31    10  18    8.9210   528.7    7.159      61.171
2014   12       31    10  22    8.9229   529.1    7.152      61.281
2014   12       31    10  27    8.9248   529.6    7.146      61.390
2014   12       31    10  32    8.9266   530.0    7.139      61.499
2014   12       31    10  37    8.9284   530.5    7.132      61.607
2014   12       31    10  42    8.9301   530.9    7.126      61.715
2014   12       31    10  47    8.9318   531.3    7.120      61.823
2014   12       31    10  52    8.9334   531.8    7.113      61.931
2014   12       31    10  57    8.9349   532.2    7.107      62.040
2014   12       31    11   2    8.9363   532.7    7.102      62.148
2014   12       31    11   7    8.9376   533.1    7.097      62.253
2014   12       31    11  12    8.9387   533.5    7.093      62.364
2014   12       31    11  17    8.9397   533.9    7.090      62.479
2014   12       31    11  22    8.9405   534.4    7.086      62.600
2014   12       31    11  27    8.9411   534.8    7.083      62.724
2014   12       31    11  32    8.9416   535.3    7.080      62.853
2014   12       31    11  37    8.9420   535.8    7.076      62.986
2014   12       31    11  42    8.9422   536.3    7.071      63.124
2014   12       31    11  47    8.9422   536.9    7.066      63.258
2014   12       31    11  52    8.9419   537.4    7.060      63.390
2014   12       31    11  56    8.9415   537.9    7.053      63.518
2014   12       31    12   1    8.9409   538.4    7.045      63.643
2014   12       31    12   6    8.9400   538.9    7.036      63.763
2014   12       31    12  11    8.9390   539.5    7.026      63.878
2014   12       31    12  16    8.9377   540.0    7.014      63.987
2014   12       31    12  21    8.9363   540.5    7.002      64.090
2014   12       31    12  26    8.9348   541.1    6.988      64.187
2014   12       31    12  31    8.9330   541.6    6.974      64.279
2014   12       31    12  36    8.9312   542.1    6.958      64.364
2014   12       31    12  41    8.9291   542.7    6.942      64.442
2014   12       31    12  46    8.9270   543.2    6.925      64.512
2014   12       31    12  51    8.9246   543.7    6.907      64.577
2014   12       31    12  56    8.9220   544.3    6.889      64.636
2014   12       31    13   1    8.9193   544.8    6.870      64.690
2014   12       31    13   6    8.9165   545.3    6.851      64.740
2014   12       31    13  11    8.9137   545.8    6.832      64.789
2014   12       31    13  16    8.9109   546.4    6.813      64.839
2014   12       31    13  21    8.9081   546.9    6.793      64.891
2014   12       31    13  25    8.9055   547.4    6.773      64.944
2014   12       31    13  30    8.9029   547.9    6.753      64.998
2014   12       31    13  35    8.9004   548.4    6.732      65.053
2014   12       31    13  40    8.8980   549.0    6.711      65.109
2014   12       31    13  45    8.8957   549.5    6.689      65.167
2014   12       31    13  50    8.8934   550.0    6.667      65.226
2014   12       31    13  55    8.8910   550.5    6.644      65.286
2014   12       31    14   0    8.8886   551.0    6.620      65.346
2014   12       31    14   5    8.8861   551.6    6.595      65.404
2014   12       31    14  10    8.8835   552.1    6.570      65.460
2014   12       31    14  15    8.8808   552.6    6.543      65.516
2014   12       31    14  20    8.8778   553.1    6.515      65.571
2014   12       31    14  25    8.8746   553.6    6.486      65.621
2014   12       31    14  30    8.8712   554.1    6.456      65.657
2014   12       31    14  35    8.8677   554.6    6.425      65.683
2014   12       31    14  40    8.8641   555.0    6.394      65.700
2014   12       31    14  45    8.8605   555.5    6.363      65.708
2014   12       31    14  50    8.8568   555.9    6.332      65.706
2014   12       31    14  54    8.8532   556.3    6.302      65.695
2014   12       31    14  59    8.8498   556.7    6.272      65.681
2014   12       31    15   4    8.8466   557.1    6.242      65.669
2014   12       31    15   9    8.8435   557.6    6.213      65.656
2014   12       31    15  14    8.8406   558.0    6.184      65.642
2014   12       31    15  19    8.8378   558.5    6.156      65.627
2014   12       31    15  24    8.8351   558.9    6.129      65.611
2014   12       31    15  29    8.8326   559.4    6.102      65.595
2014   12       31    15  34    8.8303   559.9    6.077      65.579
2014   12       31    15  39    8.8281   560.4    6.052      65.566
2014   12       31    15  44    8.8261   560.9    6.028      65.554
2014   12       31    15  49    8.8241   561.4    6.004      65.543
2014   12       31    15  54    8.8222   561.9    5.981      65.535
2014   12       31    15  59    8.8204   562.5    5.958      65.527
2014   12       31    16   4    8.8186   563.0    5.936      65.520
2014   12       31    16   9    8.8166   563.5    5.914      65.513
2014   12       31    16  14    8.8147   564.0    5.893      65.508
2014   12       31    16  19    8.8126   564.6    5.872      65.509
2014   12       31    16  24    8.8105   565.1    5.851      65.515
2014   12       31    16  29    8.8083   565.6    5.831      65.524
2014   12       31    16  34    8.8060   566.1    5.811      65.536
2014   12       31    16  39    8.8037   566.6    5.792      65.552
2014   12       31    16  44    8.8013   567.1    5.773      65.573
2014   12       31    16  48    8.7990   567.6    5.754      65.598
2014   12       31    16  53    8.7967   568.0    5.735      65.624
2014   12       31    16  58    8.7943   568.5    5.716      65.649
2014   12       31    17   3    8.7920   568.9    5.698      65.677
2014   12       31    17   8    8.7896   569.4    5.679      65.710
2014   12       31    17  13    8.7872   569.8    5.660      65.745
2014   12       31    17  18    8.7850   570.3    5.640      65.785
2014   12       31    17  23    8.7828   570.8    5.620      65.830
2014   12       31    17  28    8.7806   571.4    5.601      65.883
2014   12       31    17  33    8.7785   571.9    5.581      65.944
2014   12       31    17  38    8.7765   572.5    5.562      66.008
2014   12       31    17  43    8.7746   573.1    5.543      66.070
2014   12       31    17  48    8.7726   573.8    5.524      66.130
2014   12       31    17  53    8.7706   574.4    5.506      66.183
2014   12       31    17  58    8.7685   575.1    5.489      66.232
2014   12       31    18   3    8.7663   575.7    5.472      66.272
2014   12       31    18   8    8.7640   576.4    5.455      66.305
2014   12       31    18  13    8.7614   577.0    5.439      66.332
2014   12       31    18  18    8.7584   577.7    5.424      66.360
2014   12       31    18  23    8.7552   578.3    5.409      66.390
2014   12       31    18  28    8.7514   578.9    5.394      66.420
2014   12       31    18  32    8.7472   579.5    5.380      66.453
2014   12       31    18  37    8.7425   580.2    5.366      66.486
2014   12       31    18  42    8.7374   580.8    5.353      66.521
2014   12       31    18  47    8.7318   581.4    5.339      66.557
2014   12       31    18  52    8.7260   582.0    5.327      66.591
2014   12       31    18  57    8.7199   582.5    5.314      66.625
2014   12       31    19   2    8.7137   583.1    5.302      66.661
2014   12       31    19   7    8.7073   583.6    5.290      66.698
2014   12       31    19  12    8.7010   584.1    5.279      66.731
2014   12       31    19  17    8.6946   584.6    5.268      66.763
2014   12       31    19  22    8.6882   585.1    5.258      66.796
2014   12       31    19  27    8.6817   585.5    5.248      66.831
2014   12       31    19  32    8.6753   585.9    5.238      66.866
2014   12       31    19  37    8.6688   586.3    5.229      66.899
2014   12       31    19  42    8.6626   586.7    5.221      66.932
2014   12       31    19  47    8.6563   587.1    5.213      66.971
2014   12       31    19  52    8.6502   587.5    5.205      67.013
2014   12       31    19  57    8.6441   587.9    5.198      67.060
2014   12       31    20   1    8.6384   588.4    5.191      67.115
2014   12       31    20   6    8.6327   588.8    5.185      67.181
2014   12       31    20  11    8.6272   589.3    5.180      67.258
2014   12       31    20  16    8.6218   589.7    5.175      67.341
2014   12       31    20  21    8.6164   590.2    5.172      67.435
2014   12       31    20  26    8.6109   590.7    5.168      67.545
2014   12       31    20  31    8.6053   591.3    5.166      67.664
2014   12       31    20  36    8.5992   591.9    5.163      67.791
2014   12       31    20  41    8.5928   592.4    5.160      67.922
2014   12       31    20  46    8.5860   593.1    5.157      68.058
2014   12       31    20  51    8.5790   593.7    5.153      68.194
2014   12       31    20  56    8.5716   594.3    5.148      68.320
2014   12       31    21   1    8.5640   594.9    5.143      68.439
2014   12       31    21   6    8.5560   595.5    5.136      68.549
2014   12       31    21  11    8.5479   596.0    5.129      68.650
2014   12       31    21  16    8.5394   596.6    5.121      68.745
2014   12       31    21  21    8.5308   597.2    5.112      68.834
2014   12       31    21  25    8.5219   597.8    5.103      68.916
2014   12       31    21  30    8.5128   598.3    5.093      68.991
2014   12       31    21  35    8.5035   598.8    5.083      69.062
2014   12       31    21  40    8.4941   599.3    5.073      69.128
2014   12       31    21  45    8.4846   599.8    5.062      69.192
2014   12       31    21  50    8.4751   600.3    5.052      69.251
2014   12       31    21  55    8.4655   600.8    5.041      69.308
2014   12       31    22   0    8.4560   601.3    5.030      69.364
2014   12       31    22   5    8.4466   601.7    5.020      69.418
2014   12       31    22  10    8.4374   602.2    5.009      69.471
2014   12       31    22  15    8.4281   602.7    4.998      69.522
2014   12       31    22  20    8.4191   603.1    4.988      69.572
2014   12       31    22  25    8.4100   603.6    4.977      69.622
2014   12       31    22  30    8.4011   604.0    4.966      69.671
2014   12       31    22  35    8.3922   604.5    4.955      69.719
2014   12       31    22  40    8.3834   605.0    4.945      69.767
2014   12       31    22  45    8.3745   605.5    4.934      69.816
2014   12       31    22  50    8.3658   605.9    4.923      69.862
2014   12       31    22  55    8.3570   606.4    4.912      69.908
2014   12       31    23   0    8.3483   606.9    4.901      69.952
2014   12       31    23   5    8.3395   607.4    4.890      69.995
2014   12       31    23  10    8.3308   607.9    4.879      70.036
2014   12       31    23  14    8.3221   608.3    4.868      70.075
2014   12       31    23  19    8.3133   608.8    4.857      70.111
2014   12       31    23  24    8.3045   609.3    4.846      70.147
2014   12       31    23  29    8.2957   609.8    4.835      70.182
2014   12       31    23  34    8.2867   610.3    4.823      70.217
2014   12       31    23  39    8.2778   610.8    4.812      70.252
2014   12       31    23  44    8.2686   611.3    4.800      70.286
2014   12       31    23  49    8.2595   611.8    4.788      70.316
2014   12       31    23  54    8.2502   612.3    4.775      70.343
2014   12       31    23  59    8.2409   612.8    4.763      70.367
2015    1        1     0   4    8.2316   613.2    4.751      70.388
2015    1        1     0   9    8.2223   613.7    4.738      70.404
2015    1        1     0  14    8.2130   614.1    4.726      70.417
2015    1        1     0  19    8.2037   614.6    4.714      70.430
2015    1        1     0  24    8.1944   615.0    4.702      70.441
2015    1        1     0  29    8.1852   615.4    4.691      70.451
2015    1        1     0  34    8.1759   615.9    4.679      70.461
2015    1        1     0  39    8.1668   616.3    4.668      70.469
2015    1        1     0  44    8.1576   616.7    4.656      70.478
2015    1        1     0  49    8.1485   617.1    4.645      70.485
2015    1        1     0  54    8.1393   617.5    4.634      70.491
2015    1        1     0  58    8.1302   617.9    4.623      70.497
2015    1        1     1   3    8.1210   618.3    4.612      70.501
2015    1        1     1   8    8.1119   618.7    4.601      70.507
2015    1        1     1  13    8.1026   619.1    4.591      70.513
2015    1        1     1  18    8.0934   619.5    4.580      70.518
2015    1        1     1  23    8.0841   619.9    4.569      70.523
2015    1        1     1  28    8.0748   620.4    4.558      70.527
2015    1        1     1  33    8.0653   620.8    4.547      70.531
2015    1        1     1  38    8.0559   621.2    4.536      70.533
2015    1        1     1  43    8.0464   621.6    4.525      70.534
2015    1        1     1  48    8.0368   622.0    4.515      70.534
2015    1        1     1  53    8.0272   622.4    4.504      70.532
2015    1        1     1  58    8.0175   622.8    4.493      70.530
2015    1        1     2   3    8.0076   623.2    4.482      70.528
2015    1        1     2   8    7.9978   623.6    4.471      70.525
2015    1        1     2  13    7.9878   624.0    4.460      70.523
2015    1        1     2  18    7.9778   624.4    4.450      70.520
2015    1        1     2  23    7.9677   624.8    4.439      70.518
2015    1        1     2  28    7.9577   625.2    4.428      70.515
2015    1        1     2  33    7.9475   625.6    4.418      70.511
2015    1        1     2  37    7.9373   626.0    4.407      70.508
2015    1        1     2  42    7.9271   626.5    4.397      70.506
2015    1        1     2  47    7.9168   626.9    4.386      70.503
2015    1        1     2  52    7.9064   627.3    4.376      70.499
2015    1        1     2  57    7.8961   627.7    4.365      70.495
2015    1        1     3   2    7.8856   628.1    4.355      70.490
2015    1        1     3   7    7.8751   628.5    4.344      70.484
2015    1        1     3  12    7.8645   629.0    4.334      70.478
2015    1        1     3  17    7.8539   629.4    4.323      70.472
2015    1        1     3  22    7.8431   629.8    4.312      70.467
2015    1        1     3  27    7.8323   630.2    4.301      70.460
2015    1        1     3  32    7.8214   630.6    4.290      70.452
2015    1        1     3  37    7.8104   631.0    4.279      70.443
2015    1        1     3  42    7.7992   631.4    4.268      70.432
2015    1        1     3  47    7.7880   631.8    4.257      70.419
2015    1        1     3  52    7.7766   632.2    4.246      70.405
2015    1        1     3  57    7.7651   632.6    4.235      70.390
2015    1        1     4   1    7.7536   633.0    4.224      70.375
2015    1        1     4   6    7.7421   633.3    4.214      70.358
2015    1        1     4  11    7.7305   633.7    4.203      70.341
2015    1        1     4  16    7.7190   634.0    4.192      70.322
2015    1        1     4  21    7.7073   634.4    4.182      70.302
2015    1        1     4  26    7.6957   634.7    4.171      70.282
2015    1        1     4  31    7.6841   635.1    4.161      70.262
2015    1        1     4  36    7.6724   635.5    4.150      70.242
2015    1        1     4  41    7.6607   635.9    4.139      70.224
2015    1        1     4  46    7.6490   636.3    4.129      70.204
2015    1        1     4  51    7.6373   636.7    4.118      70.182
2015    1        1     4  56    7.6255   637.1    4.107      70.157
2015    1        1     5   1    7.6137   637.6    4.096      70.128
2015    1        1     5   6    7.6020   638.0    4.085      70.097
2015    1        1     5  11    7.5902   638.4    4.074      70.064
2015    1        1     5  16    7.5785   638.8    4.063      70.028
2015    1        1     5  21    7.5667   639.2    4.052      69.990
2015    1        1     5  26    7.5550   639.6    4.041      69.954
2015    1        1     5  31    7.5432   640.0    4.030      69.917
2015    1        1     5  35    7.5315   640.4    4.019      69.881
2015    1        1     5  40    7.5198   640.8    4.007      69.845
2015    1        1     5  45    7.5082   641.2    3.996      69.811
2015    1        1     5  50    7.4967   641.6    3.985      69.776
2015    1        1     5  55    7.4852   642.0    3.974      69.741
2015    1        1     6   0    7.4739   642.4    3.963      69.705
2015    1        1     6   5    7.4626   642.8    3.951      69.669
2015    1        1     6  10    7.4513   643.2    3.940      69.630
2015    1        1     6  15    7.4402   643.6    3.928      69.590
2015    1        1     6  20    7.4292   644.0    3.916      69.546
2015    1        1     6  25    7.4182   644.4    3.904      69.498
2015    1        1     6  30    7.4073   644.8    3.891      69.446
2015    1        1     6  35    7.3964   645.2    3.879      69.392
2015    1        1     6  40    7.3857   645.6    3.866      69.338
2015    1        1     6  45    7.3750   646.0    3.852      69.273
2015    1        1     6  50    7.3645   646.4    3.839      69.201
2015    1        1     6  55    7.3541   646.8    3.825      69.122
2015    1        1     7   0    7.3438   647.1    3.811      69.038
2015    1        1     7   5    7.3338   647.4    3.798      68.949
2015    1        1     7  10    7.3238   647.8    3.784      68.856
2015    1        1     7  15    7.3141   648.1    3.771      68.758
2015    1        1     7  20    7.3045   648.3    3.758      68.662
2015    1        1     7  24    7.2951   648.6    3.746      68.569
2015    1        1     7  29    7.2858   648.9    3.734      68.479
2015    1        1     7  34    7.2767   649.2    3.723      68.394
2015    1        1     7  39    7.2677   649.4    3.712      68.313
2015    1        1     7  44    7.2588   649.7    3.701      68.235
2015    1        1     7  49    7.2501   650.0    3.691      68.159
2015    1        1     7  54    7.2415   650.2    3.682      68.086
2015    1        1     7  59    7.2330   650.5    3.672      68.016
2015    1        1     8   4    7.2246   650.7    3.664      67.951
2015    1        1     8   9    7.2164   651.0    3.655      67.890
2015    1        1     8  14    7.2081   651.2    3.647      67.831
2015    1        1     8  19    7.2001   651.5    3.638      67.775
2015    1        1     8  24    7.1921   651.7    3.630      67.721
2015    1        1     8  29    7.1842   651.9    3.622      67.670
2015    1        1     8  34    7.1764   652.2    3.615      67.621
2015    1        1     8  39    7.1688   652.4    3.607      67.570
2015    1        1     8  44    7.1613   652.6    3.600      67.520
2015    1        1     8  49    7.1540   652.8    3.592      67.469
2015    1        1     8  54    7.1467   652.9    3.585      67.417
2015    1        1     8  59    7.1396   653.1    3.578      67.367
2015    1        1     9   4    7.1326   653.3    3.571      67.316
2015    1        1     9   8    7.1258   653.5    3.565      67.267
2015    1        1     9  13    7.1190   653.6    3.558      67.216
2015    1        1     9  18    7.1124   653.7    3.552      67.166
2015    1        1     9  23    7.1059   653.9    3.546      67.117
2015    1        1     9  28    7.0995   654.0    3.540      67.068
2015    1        1     9  33    7.0932   654.1    3.534      67.019
2015    1        1     9  38    7.0870   654.2    3.529      66.970
2015    1        1     9  43    7.0808   654.3    3.523      66.922
2015    1        1     9  48    7.0748   654.4    3.518      66.876
2015    1        1     9  53    7.0688   654.5    3.513      66.832
2015    1        1     9  58    7.0629   654.6    3.508      66.792
2015    1        1    10   3    7.0569   654.7    3.503      66.754
2015    1        1    10   8    7.0511   654.9    3.498      66.718
2015    1        1    10  13    7.0453   655.0    3.493      66.684
2015    1        1    10  18    7.0395   655.2    3.488      66.651
2015    1        1    10  23    7.0336   655.4    3.484      66.617
2015    1        1    10  28    7.0279   655.6    3.479      66.581
2015    1        1    10  33    7.0221   655.7    3.475      66.545
2015    1        1    10  37    7.0163   655.9    3.470      66.507
2015    1        1    10  42    7.0105   656.0    3.466      66.467
2015    1        1    10  47    7.0047   656.2    3.461      66.426
2015    1        1    10  52    6.9989   656.3    3.456      66.385
2015    1        1    10  57    6.9930   656.5    3.452      66.344
2015    1        1    11   2    6.9872   656.6    3.447      66.301
2015    1        1    11   7    6.9814   656.8    3.442      66.258
2015    1        1    11  12    6.9756   656.9    3.438      66.214
2015    1        1    11  17    6.9700   657.0    3.433      66.171
2015    1        1    11  22    6.9644   657.1    3.429      66.128
2015    1        1    11  27    6.9588   657.2    3.425      66.085
2015    1        1    11  32    6.9533   657.4    3.420      66.042
2015    1        1    11  37    6.9479   657.5    3.416      66.000
2015    1        1    11  42    6.9425   657.6    3.412      65.958
2015    1        1    11  47    6.9372   657.7    3.408      65.917
2015    1        1    11  52    6.9319   657.8    3.404      65.877
2015    1        1    11  57    6.9267   657.9    3.400      65.838
2015    1        1    12   1    6.9216   657.9    3.397      65.801
2015    1        1    12   6    6.9165   658.0    3.393      65.764
2015    1        1    12  11    6.9114   658.1    3.390      65.729
2015    1        1    12  16    6.9064   658.2    3.387      65.695
2015    1        1    12  21    6.9014   658.2    3.384      65.663
2015    1        1    12  26    6.8965   658.3    3.381      65.633
2015    1        1    12  31    6.8917   658.4    3.378      65.605
2015    1        1    12  36    6.8869   658.4    3.376      65.578
2015    1        1    12  41    6.8821   658.5    3.373      65.552
2015    1        1    12  46    6.8773   658.6    3.371      65.527
2015    1        1    12  51    6.8726   658.6    3.369      65.505
2015    1        1    12  56    6.8680   658.7    3.367      65.486
2015    1        1    13   1    6.8633   658.7    3.365      65.467
2015    1        1    13   6    6.8588   658.8    3.363      65.449
2015    1        1    13  11    6.8542   658.8    3.361      65.433
2015    1        1    13  16    6.8497   658.9    3.359      65.418
2015    1        1    13  21    6.8453   659.0    3.356      65.401
2015    1        1    13  26    6.8409   659.0    3.354      65.384
2015    1        1    13  31    6.8365   659.1    3.352      65.367
2015    1        1    13  36    6.8322   659.1    3.350      65.348
2015    1        1    13  41    6.8280   659.2    3.347      65.329
2015    1        1    13  46    6.8237   659.3    3.345      65.310
2015    1        1    13  50    6.8195   659.3    3.343      65.290
2015    1        1    13  55    6.8154   659.4    3.340      65.269
2015    1        1    14   0    6.8113   659.4    3.338      65.248
2015    1        1    14   5    6.8072   659.5    3.335      65.226
2015    1        1    14  10    6.8031   659.5    3.333      65.203
2015    1        1    14  15    6.7991   659.6    3.330      65.180
2015    1        1    14  20    6.7951   659.6    3.328      65.156
2015    1        1    14  25    6.7912   659.7    3.325      65.131
2015    1        1    14  30    6.7872   659.7    3.323      65.107
2015    1        1    14  35    6.7833   659.7    3.320      65.081
2015    1        1    14  40    6.7794   659.8    3.318      65.056
2015    1        1    14  45    6.7756   659.8    3.315      65.029
2015    1        1    14  50    6.7717   659.9    3.312      65.003
2015    1        1    14  55    6.7679   659.9    3.310      64.975
2015    1        1    15   0    6.7641   659.9    3.307      64.948
2015    1        1    15   5    6.7603   660.0    3.305      64.919
2015    1        1    15  10    6.7565   660.0    3.302      64.891
2015    1        1    15  15    6.7527   660.0    3.300      64.862
2015    1        1    15  20    6.7490   660.1    3.297      64.832
2015    1        1    15  25    6.7452   660.1    3.294      64.802
2015    1        1    15  30    6.7415   660.1    3.292      64.772
2015    1        1    15  35    6.7378   660.2    3.289      64.741
2015    1        1    15  39    6.7340   660.2    3.287      64.710
2015    1        1    15  44    6.7303   660.2    3.284      64.678
2015    1        1    15  49    6.7265   660.2    3.282      64.646
2015    1        1    15  54    6.7228   660.2    3.279      64.613
2015    1        1    15  59    6.7190   660.3    3.277      64.580
2015    1        1    16   4    6.7153   660.3    3.274      64.547
2015    1        1    16   9    6.7115   660.3    3.272      64.513
2015    1        1    16  14    6.7077   660.3    3.269      64.478
2015    1        1    16  19    6.7039   660.3    3.267      64.444
2015    1        1    16  24    6.7001   660.3    3.264      64.409
2015    1        1    16  29    6.6963   660.3    3.262      64.374
2015    1        1    16  34    6.6925   660.3    3.260      64.339
2015    1        1    16  39    6.6887   660.3    3.257      64.303
2015    1        1    16  44    6.6849   660.3    3.255      64.267
2015    1        1    16  49    6.6811   660.3    3.253      64.231
2015    1        1    16  54    6.6773   660.3    3.251      64.195
2015    1        1    16  59    6.6735   660.3    3.248      64.159
2015    1        1    17   4    6.6698   660.3    3.246      64.123
2015    1        1    17   8    6.6660   660.3    3.244      64.087
2015    1        1    17  13    6.6622   660.3    3.242      64.051
2015    1        1    17  18    6.6584   660.3    3.240      64.015
2015    1        1    17  23    6.6547   660.3    3.237      63.979
2015    1        1    17  28    6.6509   660.3    3.235      63.943
2015    1        1    17  33    6.6472   660.3    3.233      63.907
2015    1        1    17  38    6.6435   660.3    3.231      63.871
2015    1        1    17  43    6.6398   660.2    3.229      63.836
2015    1        1    17  48    6.6360   660.2    3.227      63.800
2015    1        1    17  53    6.6323   660.2    3.225      63.764
2015    1        1    17  58    6.6287   660.2    3.223      63.729
2015    1        1    18   3    6.6250   660.2    3.221      63.694
2015    1        1    18   8    6.6213   660.2    3.219      63.659
2015    1        1    18  13    6.6177   660.1    3.217      63.624
2015    1        1    18  18    6.6141   660.1    3.216      63.590
2015    1        1    18  23    6.6104   660.1    3.214      63.555
2015    1        1    18  28    6.6068   660.1    3.212      63.521
2015    1        1    18  33    6.6032   660.0    3.210      63.486
2015    1        1    18  37    6.5996   660.0    3.208      63.452
2015    1        1    18  42    6.5960   660.0    3.206      63.418
2015    1        1    18  47    6.5925   659.9    3.205      63.384
2015    1        1    18  52    6.5889   659.9    3.203      63.351
2015    1        1    18  57    6.5853   659.9    3.201      63.317
2015    1        1    19   2    6.5818   659.8    3.200      63.283
2015    1        1    19   7    6.5782   659.8    3.198      63.250
2015    1        1    19  12    6.5747   659.8    3.196      63.217
2015    1        1    19  17    6.5712   659.7    3.195      63.184
2015    1        1    19  22    6.5677   659.7    3.193      63.151
2015    1        1    19  27    6.5641   659.7    3.192      63.118
2015    1        1    19  32    6.5607   659.6    3.190      63.084
2015    1        1    19  37    6.5572   659.6    3.189      63.052
2015    1        1    19  42    6.5537   659.5    3.187      63.019
2015    1        1    19  47    6.5502   659.5    3.186      62.986
2015    1        1    19  52    6.5468   659.4    3.184      62.953
2015    1        1    19  57    6.5433   659.4    3.183      62.921
2015    1        1    20   2    6.5399   659.3    3.182      62.889
2015    1        1    20   7    6.5365   659.3    3.180      62.856
2015    1        1    20  11    6.5331   659.2    3.179      62.824
2015    1        1    20  16    6.5296   659.2    3.178      62.792
2015    1        1    20  21    6.5262   659.1    3.177      62.761
2015    1        1    20  26    6.5229   659.1    3.176      62.729
2015    1        1    20  31    6.5195   659.0    3.174      62.698
2015    1        1    20  36    6.5161   659.0    3.173      62.667
2015    1        1    20  41    6.5127   658.9    3.172      62.636
2015    1        1    20  46    6.5094   658.9    3.171      62.606
2015    1        1    20  51    6.5060   658.8    3.170      62.575
2015    1        1    20  56    6.5027   658.7    3.169      62.546
2015    1        1    21   1    6.4993   658.7    3.168      62.516
2015    1        1    21   6    6.4960   658.6    3.167      62.487
2015    1        1    21  11    6.4927   658.5    3.166      62.458
2015    1        1    21  16    6.4894   658.5    3.166      62.430
2015    1        1    21  21    6.4860   658.4    3.165      62.401
2015    1        1    21  26    6.4827   658.4    3.164      62.373
2015    1        1    21  31    6.4794   658.3    3.163      62.346
2015    1        1    21  36    6.4761   658.2    3.163      62.319
2015    1        1    21  41    6.4729   658.2    3.162      62.292
2015    1        1    21  46    6.4696   658.1    3.161      62.265
2015    1        1    21  51    6.4663   658.0    3.161      62.239
2015    1        1    21  56    6.4630   658.0    3.160      62.213
2015    1        1    22   0    6.4598   657.9    3.160      62.187
2015    1        1    22   5    6.4565   657.8    3.159      62.162
2015    1        1    22  10    6.4533   657.7    3.159      62.137
2015    1        1    22  15    6.4500   657.7    3.158      62.112
2015    1        1    22  20    6.4468   657.6    3.158      62.087
2015    1        1    22  25    6.4436   657.5    3.157      62.063
2015    1        1    22  30    6.4403   657.5    3.157      62.038
2015    1        1    22  35    6.4371   657.4    3.157      62.014
2015    1        1    22  40    6.4339   657.3    3.156      61.990
2015    1        1    22  45    6.4307   657.2    3.156      61.966
2015    1        1    22  50    6.4275   657.2    3.156      61.941
2015    1        1    22  55    6.4242   657.1    3.155      61.917
2015    1        1    23   0    6.4210   657.0    3.155      61.892
2015    1        1    23   5    6.4178   656.9    3.155      61.868
2015    1        1    23  10    6.4146   656.9    3.155      61.843
2015    1        1    23  15    6.4114   656.8    3.154      61.818
2015    1        1    23  20    6.4082   656.7    3.154      61.792
2015    1        1    23  25    6.4050   656.6    3.153      61.766
2015    1        1    23  30    6.4018   656.6    3.153      61.739
2015    1        1    23  35    6.3986   656.5    3.153      61.713
2015    1        1    23  40    6.3955   656.4    3.152      61.685
2015    1        1    23  44    6.3923   656.3    3.152      61.657
2015    1        1    23  49    6.3891   656.2    3.151      61.629
2015    1        1    23  54    6.3860   656.2    3.151      61.600
2015    1        1    23  59    6.3828   656.1    3.150      61.571
2015    1        2     0   4    6.3797   656.0    3.150      61.541
2015    1        2     0   9    6.3766   655.9    3.149      61.510
2015    1        2     0  14    6.3735   655.8    3.148      61.479
2015    1        2     0  19    6.3704   655.7    3.148      61.447
2015    1        2     0  24    6.3673   655.6    3.147      61.416
2015    1        2     0  29    6.3642   655.5    3.146      61.383
2015    1        2     0  34    6.3612   655.5    3.146      61.351
2015    1        2     0  39    6.3581   655.4    3.145      61.317
2015    1        2     0  44    6.3551   655.3    3.144      61.284
2015    1        2     0  49    6.3521   655.2    3.143      61.250
2015    1        2     0  54    6.3491   655.1    3.142      61.216
2015    1        2     0  59    6.3462   655.0    3.142      61.181
2015    1        2     1   4    6.3433   654.9    3.141      61.146
2015    1        2     1   9    6.3404   654.8    3.140      61.111
2015    1        2     1  13    6.3375   654.7    3.139      61.076
2015    1        2     1  18    6.3346   654.6    3.138      61.040
2015    1        2     1  23    6.3318   654.5    3.137      61.005
2015    1        2     1  28    6.3289   654.4    3.136      60.969
2015    1        2     1  33    6.3261   654.3    3.136      60.933
2015    1        2     1  38    6.3233   654.1    3.135      60.896
2015    1        2     1  43    6.3206   654.0    3.134      60.860
2015    1        2     1  48    6.3179   653.9    3.133      60.823
2015    1        2     1  53    6.3151   653.8    3.132      60.786
2015    1        2     1  58    6.3125   653.7    3.131      60.749
2015    1        2     2   3    6.3098   653.6    3.130      60.711
2015    1        2     2   8    6.3071   653.5    3.129      60.674
2015    1        2     2  13    6.3045   653.4    3.128      60.636
2015    1        2     2  18    6.3019   653.3    3.127      60.598
2015    1        2     2  23    6.2993   653.2    3.126      60.560
2015    1        2     2  28    6.2967   653.1    3.125      60.521
2015    1        2     2  33    6.2942   652.9    3.124      60.482
2015    1        2     2  37    6.2916   652.8    3.123      60.443
2015    1        2     2  42    6.2891   652.7    3.122      60.404
2015    1        2     2  47    6.2866   652.6    3.121      60.365
2015    1        2     2  52    6.2841   652.5    3.120      60.325
2015    1        2     2  57    6.2816   652.4    3.119      60.285
2015    1        2     3   2    6.2792   652.2    3.118      60.245
2015    1        2     3   7    6.2767   652.1    3.117      60.204
2015    1        2     3  12    6.2743   652.0    3.116      60.164
2015    1        2     3  17    6.2719   651.9    3.115      60.123
2015    1        2     3  22    6.2695   651.7    3.114      60.082
2015    1        2     3  27    6.2671   651.6    3.113      60.040
2015    1        2     3  32    6.2647   651.5    3.112      59.999
2015    1        2     3  37    6.2623   651.4    3.111      59.957
2015    1        2     3  42    6.2599   651.2    3.110      59.915
2015    1        2     3  47    6.2575   651.1    3.109      59.873
2015    1        2     3  52    6.2552   651.0    3.108      59.831
2015    1        2     3  57    6.2528   650.8    3.107      59.789
2015    1        2     4   2    6.2504   650.7    3.106      59.747
2015    1        2     4   7    6.2481   650.6    3.105      59.705
2015    1        2     4  12    6.2457   650.4    3.104      59.663
2015    1        2     4  17    6.2434   650.3    3.104      59.621
2015    1        2     4  21    6.2410   650.2    3.103      59.579
2015    1        2     4  26    6.2387   650.0    3.102      59.537
2015    1        2     4  31    6.2364   649.9    3.101      59.496
2015    1        2     4  36    6.2340   649.7    3.100      59.455
2015    1        2     4  41    6.2317   649.6    3.100      59.413
2015    1        2     4  46    6.2294   649.4    3.099      59.373
2015    1        2     4  51    6.2270   649.3    3.098      59.332
2015    1        2     4  56    6.2247   649.2    3.098      59.292
2015    1        2     5   1    6.2224   649.0    3.097      59.252
2015    1        2     5   6    6.2200   648.9    3.097      59.212
2015    1        2     5  11    6.2177   648.7    3.096      59.173
2015    1        2     5  16    6.2154   648.6    3.096      59.134
2015    1        2     5  21    6.2130   648.4    3.096      59.096
2015    1        2     5  26    6.2107   648.3    3.095      59.058
2015    1        2     5  31    6.2083   648.1    3.095      59.020
2015    1        2     5  36    6.2060   648.0    3.095      58.983
2015    1        2     5  41    6.2036   647.8    3.095      58.946
2015    1        2     5  46    6.2012   647.7    3.095      58.909
2015    1        2     5  51    6.1989   647.5    3.095      58.873
2015    1        2     5  56    6.1965   647.4    3.095      58.837
2015    1        2     6   1    6.1941   647.2    3.095      58.802
2015    1        2     6   6    6.1917   647.1    3.095      58.767
2015    1        2     6  10    6.1894   646.9    3.095      58.732
2015    1        2     6  15    6.1870   646.7    3.095      58.697
2015    1        2     6  20    6.1846   646.6    3.095      58.663
2015    1        2     6  25    6.1821   646.4    3.096      58.629
2015    1        2     6  30    6.1797   646.3    3.096      58.596
2015    1        2     6  35    6.1773   646.1    3.096      58.562
2015    1        2     6  40    6.1748   646.0    3.097      58.529
2015    1        2     6  45    6.1724   645.8    3.097      58.496
2015    1        2     6  50    6.1699   645.6    3.097      58.463
2015    1        2     6  55    6.1675   645.5    3.098      58.430
2015    1        2     7   0    6.1650   645.3    3.098      58.397
2015    1        2     7   5    6.1626   645.2    3.099      58.364
2015    1        2     7  10    6.1601   645.0    3.099      58.331
2015    1        2     7  15    6.1577   644.8    3.100      58.299
2015    1        2     7  20    6.1552   644.7    3.100      58.267
2015    1        2     7  25    6.1528   644.5    3.101      58.234
2015    1        2     7  30    6.1503   644.3    3.102      58.202
2015    1        2     7  35    6.1479   644.2    3.102      58.169
2015    1        2     7  40    6.1455   644.0    3.103      58.137
2015    1        2     7  44    6.1430   643.8    3.103      58.105
2015    1        2     7  49    6.1406   643.6    3.104      58.074
2015    1        2     7  54    6.1383   643.5    3.105      58.042
2015    1        2     7  59    6.1359   643.3    3.105      58.010
2015    1        2     8   4    6.1335   643.1    3.106      57.978
2015    1        2     8   9    6.1312   643.0    3.107      57.947
2015    1        2     8  14    6.1289   642.8    3.107      57.915
2015    1        2     8  19    6.1265   642.6    3.108      57.884
2015    1        2     8  24    6.1243   642.4    3.109      57.852
2015    1        2     8  29    6.1220   642.2    3.109      57.821
2015    1        2     8  34    6.1197   642.1    3.110      57.790
2015    1        2     8  39    6.1175   641.9    3.111      57.758
2015    1        2     8  44    6.1153   641.7    3.111      57.726
2015    1        2     8  49    6.1131   641.5    3.112      57.695
2015    1        2     8  54    6.1109   641.3    3.113      57.663
2015    1        2     8  59    6.1087   641.1    3.113      57.631
2015    1        2     9   4    6.1065   641.0    3.114      57.598
2015    1        2     9   8    6.1044   640.8    3.115      57.566
2015    1        2     9  13    6.1023   640.6    3.115      57.533
2015    1        2     9  18    6.1001   640.4    3.116      57.500
2015    1        2     9  23    6.0980   640.2    3.116      57.466
2015    1        2     9  28    6.0959   640.0    3.117      57.433
2015    1        2     9  33    6.0938   639.8    3.117      57.399
2015    1        2     9  38    6.0918   639.6    3.118      57.364
2015    1        2     9  43    6.0897   639.4    3.118      57.329
2015    1        2     9  48    6.0877   639.2    3.118      57.294
2015    1        2     9  53    6.0856   639.1    3.119      57.258
2015    1        2     9  58    6.0836   638.9    3.119      57.222
2015    1        2    10   3    6.0816   638.7    3.119      57.185
2015    1        2    10   8    6.0796   638.5    3.120      57.148
2015    1        2    10  13    6.0776   638.3    3.120      57.111
2015    1        2    10  18    6.0756   638.1    3.120      57.073
2015    1        2    10  23    6.0736   637.9    3.120      57.034
2015    1        2    10  28    6.0717   637.7    3.120      56.995
2015    1        2    10  33    6.0697   637.5    3.120      56.956
2015    1        2    10  38    6.0677   637.3    3.121      56.916
2015    1        2    10  42    6.0658   637.1    3.121      56.876
2015    1        2    10  47    6.0638   636.9    3.121      56.835
2015    1        2    10  52    6.0619   636.7    3.121      56.794
2015    1        2    10  57    6.0599   636.5    3.120      56.752
2015    1        2    11   2    6.0579   636.3    3.120      56.710
2015    1        2    11   7    6.0560   636.1    3.120      56.668
2015    1        2    11  12    6.0541   635.9    3.120      56.624
2015    1        2    11  17    6.0521   635.7    3.120      56.581
2015    1        2    11  22    6.0502   635.5    3.120      56.537
2015    1        2    11  27    6.0482   635.3    3.120      56.493
2015    1        2    11  32    6.0462   635.1    3.119      56.448
2015    1        2    11  37    6.0443   634.9    3.119      56.403
2015    1        2    11  42    6.0423   634.7    3.119      56.357
2015    1        2    11  47    6.0404   634.4    3.119      56.311
2015    1        2    11  52    6.0384   634.2    3.118      56.264
2015    1        2    11  57    6.0365   634.0    3.118      56.218
2015    1        2    12   2    6.0345   633.8    3.118      56.171
2015    1        2    12   7    6.0325   633.6    3.118      56.123
2015    1        2    12  12    6.0306   633.4    3.117      56.076
2015    1        2    12  17    6.0286   633.2    3.117      56.028
2015    1        2    12  22    6.0267   633.0    3.117      55.980
2015    1        2    12  27    6.0247   632.7    3.116      55.931
2015    1        2    12  32    6.0227   632.5    3.116      55.883
2015    1        2    12  36    6.0207   632.3    3.116      55.834
2015    1        2    12  41    6.0188   632.1    3.115      55.785
2015    1        2    12  46    6.0168   631.9    3.115      55.736
2015    1        2    12  51    6.0148   631.7    3.115      55.688
2015    1        2    12  56    6.0128   631.4    3.115      55.639
2015    1        2    13   1    6.0108   631.2    3.115      55.590
2015    1        2    13   6    6.0089   631.0    3.114      55.541
2015    1        2    13  11    6.0069   630.8    3.114      55.492
2015    1        2    13  16    6.0049   630.5    3.114      55.444
2015    1        2    13  21    6.0030   630.3    3.114      55.395
2015    1        2    13  26    6.0010   630.1    3.114      55.347
2015    1        2    13  31    5.9990   629.8    3.114      55.298
2015    1        2    13  36    5.9971   629.6    3.114      55.249
2015    1        2    13  41    5.9951   629.4    3.114      55.201
2015    1        2    13  46    5.9931   629.1    3.114      55.152
2015    1        2    13  51    5.9912   628.9    3.114      55.103
2015    1        2    13  56    5.9892   628.7    3.115      55.055
2015    1        2    14   1    5.9872   628.4    3.115      55.006
2015    1        2    14   6    5.9853   628.2    3.115      54.958
2015    1        2    14  11    5.9833   627.9    3.115      54.909
2015    1        2    14  15    5.9813   627.7    3.116      54.861
2015    1        2    14  20    5.9794   627.4    3.116      54.813
2015    1        2    14  25    5.9775   627.2    3.117      54.765
2015    1        2    14  30    5.9755   626.9    3.117      54.717
2015    1        2    14  35    5.9736   626.7    3.118      54.669
2015    1        2    14  40    5.9717   626.4    3.118      54.622
2015    1        2    14  45    5.9697   626.2    3.119      54.575
2015    1        2    14  50    5.9678   625.9    3.119      54.529
2015    1        2    14  55    5.9659   625.6    3.120      54.483
2015    1        2    15   0    5.9641   625.4    3.121      54.437
2015    1        2    15   5    5.9622   625.1    3.122      54.392
2015    1        2    15  10    5.9604   624.8    3.123      54.347
2015    1        2    15  15    5.9585   624.6    3.124      54.303
2015    1        2    15  20    5.9567   624.3    3.125      54.259
2015    1        2    15  25    5.9550   624.0    3.126      54.216
2015    1        2    15  30    5.9532   623.8    3.127      54.173
2015    1        2    15  35    5.9514   623.5    3.128      54.131
2015    1        2    15  40    5.9496   623.2    3.129      54.089
2015    1        2    15  44    5.9479   623.0    3.131      54.047
2015    1        2    15  49    5.9462   622.7    3.132      54.005
2015    1        2    15  54    5.9444   622.4    3.133      53.964
2015    1        2    15  59    5.9427   622.1    3.135      53.923
2015    1        2    16   4    5.9410   621.9    3.136      53.882
2015    1        2    16   9    5.9394   621.6    3.137      53.840
2015    1        2    16  14    5.9377   621.3    3.139      53.799
2015    1        2    16  19    5.9360   621.0    3.140      53.758
2015    1        2    16  24    5.9343   620.7    3.141      53.717
2015    1        2    16  29    5.9327   620.5    3.143      53.676
2015    1        2    16  34    5.9310   620.2    3.144      53.635
2015    1        2    16  39    5.9294   619.9    3.146      53.593
2015    1        2    16  44    5.9277   619.6    3.147      53.553
2015    1        2    16  49    5.9261   619.3    3.149      53.511
2015    1        2    16  54    5.9245   619.0    3.150      53.471
2015    1        2    16  59    5.9228   618.8    3.152      53.430
2015    1        2    17   4    5.9212   618.5    3.153      53.389
2015    1        2    17   8    5.9196   618.2    3.154      53.348
2015    1        2    17  13    5.9180   617.9    3.156      53.306
2015    1        2    17  18    5.9164   617.6    3.157      53.265
2015    1        2    17  23    5.9148   617.3    3.159      53.224
2015    1        2    17  28    5.9132   617.0    3.160      53.182
2015    1        2    17  33    5.9117   616.7    3.162      53.140
2015    1        2    17  38    5.9101   616.4    3.163      53.099
2015    1        2    17  43    5.9085   616.2    3.164      53.057
2015    1        2    17  48    5.9070   615.9    3.166      53.015
2015    1        2    17  53    5.9054   615.6    3.167      52.973
2015    1        2    17  58    5.9038   615.3    3.169      52.931
2015    1        2    18   3    5.9023   615.0    3.170      52.889
2015    1        2    18   8    5.9007   614.7    3.172      52.847
2015    1        2    18  13    5.8991   614.4    3.173      52.805
2015    1        2    18  18    5.8975   614.1    3.175      52.763
2015    1        2    18  23    5.8960   613.8    3.176      52.721
2015    1        2    18  28    5.8944   613.5    3.178      52.678
2015    1        2    18  33    5.8928   613.2    3.179      52.636
2015    1        2    18  38    5.8912   612.9    3.181      52.593
2015    1        2    18  43    5.8896   612.6    3.182      52.550
2015    1        2    18  48    5.8880   612.3    3.184      52.508
2015    1        2    18  52    5.8864   612.0    3.185      52.465
2015    1        2    18  57    5.8849   611.7    3.187      52.422
2015    1        2    19   2    5.8833   611.4    3.188      52.379
2015    1        2    19   7    5.8817   611.1    3.190      52.336
2015    1        2    19  12    5.8801   610.8    3.191      52.292
2015    1        2    19  17    5.8785   610.5    3.193      52.249
2015    1        2    19  22    5.8769   610.2    3.194      52.206
2015    1        2    19  27    5.8754   609.9    3.196      52.162
2015    1        2    19  32    5.8738   609.6    3.197      52.118
2015    1        2    19  37    5.8722   609.3    3.199      52.074
2015    1        2    19  42    5.8706   609.0    3.201      52.030
2015    1        2    19  47    5.8690   608.7    3.202      51.986
2015    1        2    19  52    5.8674   608.4    3.204      51.942
2015    1        2    19  57    5.8658   608.1    3.205      51.897
2015    1        2    20   2    5.8642   607.8    3.207      51.853
2015    1        2    20   7    5.8626   607.5    3.208      51.808
2015    1        2    20  12    5.8610   607.2    3.210      51.763
2015    1        2    20  17    5.8594   606.9    3.211      51.718
2015    1        2    20  22    5.8578   606.6    3.213      51.673
2015    1        2    20  27    5.8563   606.3    3.214      51.628
2015    1        2    20  32    5.8547   606.0    3.216      51.582
2015    1        2    20  37    5.8531   605.7    3.217      51.536
2015    1        2    20  41    5.8515   605.3    3.219      51.490
2015    1        2    20  46    5.8499   605.0    3.220      51.444
2015    1        2    20  51    5.8483   604.7    3.222      51.398
2015    1        2    20  56    5.8468   604.4    3.223      51.351
2015    1        2    21   1    5.8452   604.1    3.225      51.304
2015    1        2    21   6    5.8437   603.8    3.226      51.258
2015    1        2    21  11    5.8421   603.5    3.228      51.211
2015    1        2    21  16    5.8406   603.1    3.229      51.163
2015    1        2    21  21    5.8391   602.8    3.231      51.117
2015    1        2    21  26    5.8376   602.5    3.232      51.069
2015    1        2    21  31    5.8361   602.2    3.234      51.022
2015    1        2    21  36    5.8346   601.8    3.235      50.975
2015    1        2    21  41    5.8332   601.5    3.237      50.928
2015    1        2    21  46    5.8318   601.2    3.238      50.881
2015    1        2    21  51    5.8303   600.9    3.240      50.834
2015    1        2    21  56    5.8289   600.5    3.242      50.787
2015    1        2    22   1    5.8276   600.2    3.243      50.741
2015    1        2    22   6    5.8262   599.9    3.245      50.694
2015    1        2    22  11    5.8249   599.5    3.247      50.648
2015    1        2    22  15    5.8236   599.2    3.249      50.602
2015    1        2    22  20    5.8223   598.9    3.251      50.556
2015    1        2    22  25    5.8210   598.5    3.253      50.511
2015    1        2    22  30    5.8198   598.2    3.255      50.466
2015    1        2    22  35    5.8186   597.9    3.257      50.421
2015    1        2    22  40    5.8174   597.5    3.259      50.377
2015    1        2    22  45    5.8162   597.2    3.261      50.333
2015    1        2    22  50    5.8151   596.9    3.263      50.288
2015    1        2    22  55    5.8139   596.5    3.265      50.244
2015    1        2    23   0    5.8128   596.2    3.267      50.200
2015    1        2    23   5    5.8117   595.9    3.270      50.156
2015    1        2    23  10    5.8106   595.5    3.272      50.112
2015    1        2    23  15    5.8096   595.2    3.274      50.068
2015    1        2    23  20    5.8085   594.9    3.276      50.024
2015    1        2    23  25    5.8075   594.5    3.278      49.980
2015    1        2    23  30    5.8065   594.2    3.281      49.936
2015    1        2    23  35    5.8055   593.9    3.283      49.891
2015    1        2    23  39    5.8044   593.5    3.285      49.846
2015    1        2    23  44    5.8034   593.2    3.287      49.801
2015    1        2    23  49    5.8025   592.8    3.289      49.756
2015    1        2    23  54    5.8015   592.5    3.291      49.711
2015    1        2    23  59    5.8005   592.1    3.294      49.666
2015    1        3     0   4    5.7995   591.8    3.296      49.620
2015    1        3     0   9    5.7986   591.5    3.298      49.575
2015    1        3     0  14    5.7976   591.1    3.300      49.529
2015    1        3     0  19    5.7967   590.8    3.302      49.483
2015    1        3     0  24    5.7958   590.4    3.304      49.438
2015    1        3     0  29    5.7949   590.1    3.306      49.392
2015    1        3     0  34    5.7940   589.8    3.309      49.346
2015    1        3     0  39    5.7931   589.4    3.311      49.301
2015    1        3     0  44    5.7922   589.1    3.313      49.255
2015    1        3     0  49    5.7913   588.7    3.315      49.210
2015    1        3     0  54    5.7905   588.4    3.317      49.164
2015    1        3     0  59    5.7896   588.0    3.319      49.119
2015    1        3     1   4    5.7888   587.7    3.322      49.074
2015    1        3     1   8    5.7879   587.4    3.324      49.029
2015    1        3     1  13    5.7871   587.0    3.326      48.984
2015    1        3     1  18    5.7862   586.7    3.328      48.939
2015    1        3     1  23    5.7854   586.3    3.331      48.894
2015    1        3     1  28    5.7846   586.0    3.333      48.849
2015    1        3     1  33    5.7837   585.7    3.336      48.804
2015    1        3     1  38    5.7829   585.3    3.338      48.760
2015    1        3     1  43    5.7820   585.0    3.341      48.715
2015    1        3     1  48    5.7812   584.6    3.343      48.671
2015    1        3     1  53    5.7804   584.3    3.346      48.627
2015    1        3     1  58    5.7796   583.9    3.348      48.583
2015    1        3     2   3    5.7788   583.6    3.351      48.540
2015    1        3     2   8    5.7780   583.2    3.354      48.497
2015    1        3     2  13    5.7772   582.9    3.357      48.454
2015    1        3     2  18    5.7765   582.5    3.360      48.413
2015    1        3     2  23    5.7757   582.2    3.363      48.371
2015    1        3     2  28    5.7750   581.8    3.366      48.330
2015    1        3     2  33    5.7743   581.5    3.369      48.289
2015    1        3     2  38    5.7736   581.1    3.372      48.249
2015    1        3     2  43    5.7730   580.8    3.376      48.210
2015    1        3     2  48    5.7723   580.4    3.379      48.171
2015    1        3     2  53    5.7717   580.1    3.382      48.133
2015    1        3     2  57    5.7711   579.7    3.386      48.095
2015    1        3     3   2    5.7706   579.4    3.389      48.058
2015    1        3     3   7    5.7700   579.0    3.393      48.021
2015    1        3     3  12    5.7694   578.7    3.397      47.984
2015    1        3     3  17    5.7689   578.3    3.401      47.948
2015    1        3     3  22    5.7684   578.0    3.404      47.912
2015    1        3     3  27    5.7679   577.6    3.408      47.876
2015    1        3     3  32    5.7674   577.3    3.412      47.840
2015    1        3     3  37    5.7669   577.0    3.416      47.805
2015    1        3     3  42    5.7664   576.6    3.420      47.769
2015    1        3     3  47    5.7660   576.2    3.424      47.733
2015    1        3     3  52    5.7655   575.9    3.427      47.698
2015    1        3     3  57    5.7651   575.5    3.431      47.662
2015    1        3     4   2    5.7647   575.2    3.435      47.626
2015    1        3     4   7    5.7642   574.8    3.439      47.590
2015    1        3     4  12    5.7638   574.5    3.443      47.554
2015    1        3     4  17    5.7634   574.1    3.446      47.517
2015    1        3     4  22    5.7631   573.8    3.450      47.480
2015    1        3     4  27    5.7627   573.5    3.454      47.444
2015    1        3     4  32    5.7624   573.1    3.458      47.407
2015    1        3     4  37    5.7620   572.8    3.461      47.369
2015    1        3     4  41    5.7617   572.4    3.465      47.332
2015    1        3     4  46    5.7614   572.1    3.469      47.294
2015    1        3     4  51    5.7612   571.7    3.472      47.256
2015    1        3     4  56    5.7609   571.4    3.476      47.218
2015    1        3     5   1    5.7606   571.0    3.479      47.180
2015    1        3     5   6    5.7604   570.7    3.483      47.142
2015    1        3     5  11    5.7602   570.3    3.486      47.103
2015    1        3     5  16    5.7600   570.0    3.490      47.065
2015    1        3     5  21    5.7598   569.6    3.493      47.026
2015    1        3     5  26    5.7597   569.3    3.497      46.988
2015    1        3     5  31    5.7595   568.9    3.500      46.949
2015    1        3     5  36    5.7594   568.6    3.503      46.910
2015    1        3     5  41    5.7593   568.3    3.507      46.872
2015    1        3     5  46    5.7592   567.9    3.510      46.833
2015    1        3     5  51    5.7592   567.6    3.513      46.794
2015    1        3     5  56    5.7591   567.2    3.517      46.755
2015    1        3     6   1    5.7591   566.9    3.520      46.716
2015    1        3     6   6    5.7591   566.6    3.524      46.677
2015    1        3     6  10    5.7591   566.2    3.527      46.638
2015    1        3     6  15    5.7591   565.9    3.530      46.599
2015    1        3     6  20    5.7591   565.5    3.534      46.560
2015    1        3     6  25    5.7592   565.2    3.537      46.522
2015    1        3     6  30    5.7592   564.9    3.540      46.482
2015    1        3     6  35    5.7593   564.5    3.543      46.444
2015    1        3     6  40    5.7594   564.2    3.547      46.404
2015    1        3     6  45    5.7595   563.9    3.550      46.365
2015    1        3     6  50    5.7596   563.5    3.553      46.326
2015    1        3     6  55    5.7597   563.2    3.557      46.287
2015    1        3     7   0    5.7598   562.9    3.560      46.248
2015    1        3     7   5    5.7600   562.5    3.563      46.209
2015    1        3     7  10    5.7602   562.2    3.567      46.170
2015    1        3     7  15    5.7603   561.9    3.570      46.132
2015    1        3     7  20    5.7605   561.5    3.573      46.093
2015    1        3     7  25    5.7607   561.2    3.577      46.054
2015    1        3     7  30    5.7610   560.9    3.580      46.016
2015    1        3     7  34    5.7612   560.5    3.584      45.977
2015    1        3     7  39    5.7615   560.2    3.587      45.939
2015    1        3     7  44    5.7617   559.9    3.590      45.900
2015    1        3     7  49    5.7620   559.5    3.594      45.862
2015    1        3     7  54    5.7623   559.2    3.597      45.824
2015    1        3     7  59    5.7626   558.9    3.601      45.786
2015    1        3     8   4    5.7629   558.6    3.604      45.748
2015    1        3     8   9    5.7632   558.2    3.608      45.710
2015    1        3     8  14    5.7636   557.9    3.611      45.673
2015    1        3     8  19    5.7639   557.6    3.615      45.635
2015    1        3     8  24    5.7643   557.2    3.618      45.598
2015    1        3     8  29    5.7647   556.9    3.622      45.561
2015    1        3     8  34    5.7650   556.6    3.625      45.524
2015    1        3     8  39    5.7654   556.2    3.629      45.487
2015    1        3     8  44    5.7658   555.9    3.633      45.450
2015    1        3     8  49    5.7662   555.6    3.636      45.413
2015    1        3     8  54    5.7667   555.2    3.640      45.377
2015    1        3     8  59    5.7671   554.9    3.643      45.341
2015    1        3     9   4    5.7675   554.6    3.647      45.305
2015    1        3     9   9    5.7680   554.3    3.651      45.269
2015    1        3     9  14    5.7684   553.9    3.654      45.233
2015    1        3     9  18    5.7689   553.6    3.658      45.198
2015    1        3     9  23    5.7694   553.3    3.662      45.163
2015    1        3     9  28    5.7699   552.9    3.666      45.128
2015    1        3     9  33    5.7704   552.6    3.669      45.093
2015    1        3     9  38    5.7709   552.3    3.673      45.059
2015    1        3     9  43    5.7714   552.0    3.677      45.025
2015    1        3     9  48    5.7720   551.6    3.681      44.991
2015    1        3     9  53    5.7725   551.3    3.685      44.958
2015    1        3     9  58    5.7731   551.0    3.689      44.924
2015    1        3    10   3    5.7737   550.6    3.693      44.892
2015    1        3    10   8    5.7744   550.3    3.697      44.859
2015    1        3    10  13    5.7750   550.0    3.701      44.828
2015    1        3    10  18    5.7757   549.7    3.705      44.796
2015    1        3    10  23    5.7764   549.4    3.709      44.765
2015    1        3    10  28    5.7771   549.0    3.713      44.734
2015    1        3    10  33    5.7778   548.7    3.717      44.703
2015    1        3    10  38    5.7786   548.4    3.722      44.673
2015    1        3    10  43    5.7793   548.1    3.726      44.644
2015    1        3    10  48    5.7801   547.8    3.730      44.614
2015    1        3    10  53    5.7809   547.4    3.735      44.585
2015    1        3    10  58    5.7817   547.1    3.739      44.556
2015    1        3    11   3    5.7826   546.8    3.744      44.527
2015    1        3    11   7    5.7834   546.5    3.748      44.499
2015    1        3    11  12    5.7843   546.2    3.752      44.471
2015    1        3    11  17    5.7852   545.9    3.757      44.443
2015    1        3    11  22    5.7861   545.5    3.762      44.415
2015    1        3    11  27    5.7870   545.2    3.766      44.388
2015    1        3    11  32    5.7879   544.9    3.771      44.360
2015    1        3    11  37    5.7889   544.6    3.775      44.333
2015    1        3    11  42    5.7898   544.3    3.780      44.306
2015    1        3    11  47    5.7908   544.0    3.784      44.279
2015    1        3    11  52    5.7917   543.7    3.789      44.252
2015    1        3    11  57    5.7927   543.4    3.794      44.225
2015    1        3    12   2    5.7937   543.1    3.798      44.199
2015    1        3    12   7    5.7947   542.8    3.803      44.172
2015    1        3    12  12    5.7957   542.4    3.808      44.145
2015    1        3    12  17    5.7967   542.1    3.812      44.118
2015    1        3    12  22    5.7977   541.8    3.817      44.092
2015    1        3    12  27    5.7988   541.5    3.822      44.066
2015    1        3    12  32    5.7998   541.2    3.826      44.039
2015    1        3    12  37    5.8009   540.9    3.831      44.013
2015    1        3    12  41    5.8020   540.6    3.836      43.987
2015    1        3    12  46    5.8030   540.3    3.841      43.961
2015    1        3    12  51    5.8041   540.0    3.846      43.935
2015    1        3    12  56    5.8052   539.7    3.850      43.910
2015    1        3    13   1    5.8064   539.4    3.855      43.885
2015    1        3    13   6    5.8075   539.1    3.860      43.860
2015    1        3    13  11    5.8086   538.8    3.865      43.835
2015    1        3    13  16    5.8098   538.4    3.870      43.811
2015    1        3    13  21    5.8110   538.1    3.875      43.786
2015    1        3    13  26    5.8122   537.8    3.880      43.763
2015    1        3    13  31    5.8134   537.5    3.885      43.739
2015    1        3    13  36    5.8146   537.2    3.890      43.715
2015    1        3    13  41    5.8159   536.9    3.895      43.692
2015    1        3    13  46    5.8171   536.6    3.900      43.669
2015    1        3    13  51    5.8184   536.3    3.905      43.647
2015    1        3    13  56    5.8197   536.0    3.910      43.624
2015    1        3    14   1    5.8210   535.8    3.915      43.602
2015    1        3    14   5    5.8223   535.5    3.921      43.580
2015    1        3    14  10    5.8236   535.2    3.926      43.559
2015    1        3    14  15    5.8250   534.9    3.931      43.537
2015    1        3    14  20    5.8263   534.6    3.936      43.515
2015    1        3    14  25    5.8277   534.3    3.941      43.494
2015    1        3    14  30    5.8291   534.0    3.946      43.472
2015    1        3    14  35    5.8305   533.7    3.951      43.450
2015    1        3    14  40    5.8319   533.5    3.956      43.428
2015    1        3    14  45    5.8333   533.2    3.961      43.406
2015    1        3    14  50    5.8347   532.9    3.965      43.383
2015    1        3    14  55    5.8361   532.6    3.970      43.360
2015    1        3    15   0    5.8375   532.3    3.975      43.338
2015    1        3    15   5    5.8389   532.1    3.980      43.315
2015    1        3    15  10    5.8403   531.8    3.985      43.292
2015    1        3    15  15    5.8417   531.5    3.989      43.269
2015    1        3    15  20    5.8431   531.2    3.994      43.246
2015    1        3    15  25    5.8445   531.0    3.999      43.223
2015    1        3    15  30    5.8459   530.7    4.003      43.200
2015    1        3    15  34    5.8474   530.4    4.008      43.177
2015    1        3    15  39    5.8488   530.1    4.013      43.154
2015    1        3    15  44    5.8502   529.9    4.017      43.131
2015    1        3    15  49    5.8517   529.6    4.022      43.108
2015    1        3    15  54    5.8531   529.3    4.027      43.086
2015    1        3    15  59    5.8546   529.1    4.031      43.064
2015    1        3    16   4    5.8560   528.8    4.036      43.041
2015    1        3    16   9    5.8575   528.6    4.041      43.019
2015    1        3    16  14    5.8590   528.3    4.045      42.997
2015    1        3    16  19    5.8604   528.0    4.050      42.975
2015    1        3    16  24    5.8619   527.8    4.054      42.954
2015    1        3    16  29    5.8634   527.5    4.059      42.932
2015    1        3    16  34    5.8649   527.3    4.064      42.911
2015    1        3    16  39    5.8663   527.0    4.068      42.889
2015    1        3    16  44    5.8678   526.7    4.073      42.868
2015    1        3    16  49    5.8693   526.5    4.077      42.847
2015    1        3    16  54    5.8708   526.2    4.082      42.826
2015    1        3    16  59    5.8722   526.0    4.086      42.805
2015    1        3    17   4    5.8737   525.7    4.090      42.784
2015    1        3    17   9    5.8752   525.5    4.095      42.763
2015    1        3    17  14    5.8767   525.2    4.099      42.742
2015    1        3    17  19    5.8781   525.0    4.104      42.721
2015    1        3    17  24    5.8796   524.7    4.108      42.700
2015    1        3    17  28    5.8811   524.5    4.112      42.680
2015    1        3    17  33    5.8826   524.2    4.116      42.659
2015    1        3    17  38    5.8840   524.0    4.121      42.639
2015    1        3    17  43    5.8855   523.7    4.125      42.618
2015    1        3    17  48    5.8870   523.5    4.129      42.598
2015    1        3    17  53    5.8885   523.2    4.133      42.577
2015    1        3    17  58    5.8899   523.0    4.137      42.557
2015    1        3    18   3    5.8914   522.7    4.141      42.537
2015    1        3    18   8    5.8929   522.5    4.146      42.517
2015    1        3    18  13    5.8944   522.3    4.150      42.497
2015    1        3    18  18    5.8959   522.0    4.154      42.477
2015    1        3    18  23    5.8974   521.8    4.158      42.458
2015    1        3    18  28    5.8989   521.5    4.162      42.438
2015    1        3    18  33    5.9004   521.3    4.166      42.419
2015    1        3    18  38    5.9019   521.0    4.170      42.400
2015    1        3    18  43    5.9035   520.8    4.175      42.381
2015    1        3    18  48    5.9050   520.6    4.179      42.363
2015    1        3    18  53    5.9065   520.3    4.183      42.345
2015    1        3    18  58    5.9080   520.1    4.187      42.327
2015    1        3    19   3    5.9096   519.8    4.192      42.309
2015    1        3    19   7    5.9111   519.6    4.196      42.292
2015    1        3    19  12    5.9127   519.4    4.200      42.275
2015    1        3    19  17    5.9142   519.1    4.205      42.259
2015    1        3    19  22    5.9158   518.9    4.209      42.242
2015    1        3    19  27    5.9174   518.6    4.214      42.227
2015    1        3    19  32    5.9189   518.4    4.218      42.212
2015    1        3    19  37    5.9205   518.2    4.223      42.197
2015    1        3    19  42    5.9221   517.9    4.227      42.182
2015    1        3    19  47    5.9237   517.7    4.232      42.168
2015    1        3    19  52    5.9253   517.5    4.237      42.155
2015    1        3    19  57    5.9269   517.2    4.242      42.142
2015    1        3    20   2    5.9286   517.0    4.247      42.129
2015    1        3    20   7    5.9302   516.8    4.252      42.117
2015    1        3    20  12    5.9319   516.5    4.257      42.106
2015    1        3    20  17    5.9335   516.3    4.262      42.095
2015    1        3    20  22    5.9352   516.1    4.267      42.085
2015    1        3    20  27    5.9369   515.9    4.273      42.075
2015    1        3    20  32    5.9386   515.6    4.278      42.065
2015    1        3    20  36    5.9403   515.4    4.283      42.056
2015    1        3    20  41    5.9421   515.2    4.289      42.048
2015    1        3    20  46    5.9438   515.0    4.295      42.040
2015    1        3    20  51    5.9456   514.7    4.300      42.032
2015    1        3    20  56    5.9474   514.5    4.306      42.026
2015    1        3    21   1    5.9492   514.3    4.312      42.020
2015    1        3    21   6    5.9510   514.1    4.317      42.014
2015    1        3    21  11    5.9529   513.9    4.323      42.010
2015    1        3    21  16    5.9547   513.7    4.329      42.005
2015    1        3    21  21    5.9566   513.5    4.334      42.001
2015    1        3    21  26    5.9585   513.2    4.340      41.998
2015    1        3    21  31    5.9604   513.0    4.345      41.994
2015    1        3    21  36    5.9623   512.8    4.351      41.991
2015    1        3    21  41    5.9642   512.6    4.356      41.987
2015    1        3    21  46    5.9661   512.4    4.361      41.983
2015    1        3    21  51    5.9680   512.2    4.367      41.978
2015    1        3    21  56    5.9699   512.0    4.372      41.973
2015    1        3    22   0    5.9718   511.8    4.377      41.968
2015    1        3    22   5    5.9737   511.6    4.382      41.962
2015    1        3    22  10    5.9755   511.4    4.387      41.956
2015    1        3    22  15    5.9774   511.2    4.392      41.949
2015    1        3    22  20    5.9793   511.0    4.396      41.942
2015    1        3    22  25    5.9811   510.8    4.401      41.935
2015    1        3    22  30    5.9829   510.6    4.406      41.927
2015    1        3    22  35    5.9848   510.5    4.411      41.919
2015    1        3    22  40    5.9866   510.3    4.415      41.911
2015    1        3    22  45    5.9884   510.1    4.420      41.902
2015    1        3    22  50    5.9902   509.9    4.424      41.893
2015    1        3    22  55    5.9920   509.7    4.429      41.884
2015    1        3    23   0    5.9937   509.5    4.433      41.874
2015    1        3    23   5    5.9955   509.3    4.437      41.865
2015    1        3    23  10    5.9973   509.1    4.442      41.855
2015    1        3    23  15    5.9990   508.9    4.446      41.844
2015    1        3    23  20    6.0008   508.7    4.450      41.834
2015    1        3    23  25    6.0025   508.6    4.454      41.823
2015    1        3    23  30    6.0043   508.4    4.458      41.812
2015    1        3    23  35    6.0060   508.2    4.463      41.801
2015    1        3    23  40    6.0077   508.0    4.467      41.790
2015    1        3    23  44    6.0094   507.8    4.471      41.779
2015    1        3    23  49    6.0111   507.6    4.475      41.767
2015    1        3    23  54    6.0129   507.5    4.479      41.756
2015    1        3    23  59    6.0145   507.3    4.483      41.744
2015    1        4     0   4    6.0162   507.1    4.487      41.732
2015    1        4     0   9    6.0179   506.9    4.490      41.720
2015    1        4     0  14    6.0196   506.7    4.494      41.708
2015    1        4     0  19    6.0213   506.6    4.498      41.696
2015    1        4     0  24    6.0229   506.4    4.502      41.684
2015    1        4     0  29    6.0246   506.2    4.506      41.672
2015    1        4     0  34    6.0262   506.0    4.510      41.659
2015    1        4     0  39    6.0279   505.9    4.513      41.647
2015    1        4     0  44    6.0295   505.7    4.517      41.635
2015    1        4     0  49    6.0312   505.5    4.521      41.623
2015    1        4     0  54    6.0328   505.3    4.524      41.611
2015    1        4     0  59    6.0345   505.2    4.528      41.599
2015    1        4     1   4    6.0361   505.0    4.532      41.587
2015    1        4     1   9    6.0377   504.8    4.536      41.575
2015    1        4     1  14    6.0394   504.6    4.539      41.563
2015    1        4     1  19    6.0410   504.5    4.543      41.552
2015    1        4     1  24    6.0426   504.3    4.547      41.541
2015    1        4     1  29    6.0442   504.1    4.550      41.529
2015    1        4     1  33    6.0459   503.9    4.554      41.518
2015    1        4     1  38    6.0475   503.8    4.558      41.507
2015    1        4     1  43    6.0491   503.6    4.562      41.497
2015    1        4     1  48    6.0507   503.4    4.565      41.486
2015    1        4     1  53    6.0523   503.3    4.569      41.476
2015    1        4     1  58    6.0540   503.1    4.573      41.466
2015    1        4     2   3    6.0556   502.9    4.577      41.456
2015    1        4     2   8    6.0572   502.8    4.581      41.447
2015    1        4     2  13    6.0588   502.6    4.585      41.438
2015    1        4     2  18    6.0605   502.4    4.589      41.429
2015    1        4     2  23    6.0621   502.2    4.592      41.421
2015    1        4     2  28    6.0637   502.1    4.596      41.412
2015    1        4     2  33    6.0653   501.9    4.600      41.405
2015    1        4     2  38    6.0670   501.8    4.604      41.397
2015    1        4     2  43    6.0686   501.6    4.608      41.390
2015    1        4     2  48    6.0702   501.4    4.613      41.383
2015    1        4     2  53    6.0719   501.3    4.617      41.376
2015    1        4     2  58    6.0735   501.1    4.621      41.370
2015    1        4     3   3    6.0751   500.9    4.625      41.364
2015    1        4     3   7    6.0768   500.8    4.629      41.358
2015    1        4     3  12    6.0784   500.6    4.633      41.352
2015    1        4     3  17    6.0801   500.5    4.638      41.347
2015    1        4     3  22    6.0818   500.3    4.642      41.342
2015    1        4     3  27    6.0834   500.2    4.646      41.338
2015    1        4     3  32    6.0851   500.0    4.650      41.333
2015    1        4     3  37    6.0868   499.8    4.655      41.329
2015    1        4     3  42    6.0885   499.7    4.659      41.325
2015    1        4     3  47    6.0902   499.5    4.663      41.322
2015    1        4     3  52    6.0919   499.4    4.668      41.318
2015    1        4     3  57    6.0936   499.2    4.672      41.315
2015    1        4     4   2    6.0953   499.1    4.676      41.312
2015    1        4     4   7    6.0970   498.9    4.680      41.310
2015    1        4     4  12    6.0987   498.8    4.684      41.308
2015    1        4     4  17    6.1005   498.6    4.689      41.306
2015    1        4     4  22    6.1022   498.5    4.693      41.305
2015    1        4     4  27    6.1039   498.4    4.697      41.303
2015    1        4     4  31    6.1057   498.2    4.701      41.302
2015    1        4     4  36    6.1074   498.1    4.705      41.301
2015    1        4     4  41    6.1092   497.9    4.708      41.300
2015    1        4     4  46    6.1109   497.8    4.712      41.298
2015    1        4     4  51    6.1127   497.6    4.716      41.297
2015    1        4     4  56    6.1144   497.5    4.720      41.295
2015    1        4     5   1    6.1162   497.4    4.723      41.293
2015    1        4     5   6    6.1179   497.2    4.727      41.291
2015    1        4     5  11    6.1197   497.1    4.731      41.288
2015    1        4     5  16    6.1214   496.9    4.734      41.286
2015    1        4     5  21    6.1231   496.8    4.738      41.283
2015    1        4     5  26    6.1249   496.7    4.741      41.280
2015    1        4     5  31    6.1265   496.5    4.745      41.277
2015    1        4     5  36    6.1283   496.4    4.748      41.273
2015    1        4     5  41    6.1299   496.3    4.751      41.270
2015    1        4     5  46    6.1316   496.1    4.755      41.266
2015    1        4     5  51    6.1333   496.0    4.758      41.262
2015    1        4     5  56    6.1349   495.8    4.761      41.258
2015    1        4     6   0    6.1366   495.7    4.764      41.254
2015    1        4     6   5    6.1382   495.6    4.767      41.249
2015    1        4     6  10    6.1398   495.4    4.770      41.245
2015    1        4     6  15    6.1414   495.3    4.774      41.240
2015    1        4     6  20    6.1430   495.2    4.777      41.235
2015    1        4     6  25    6.1446   495.1    4.780      41.230
2015    1        4     6  30    6.1462   494.9    4.783      41.224
2015    1        4     6  35    6.1478   494.8    4.786      41.219
2015    1        4     6  40    6.1493   494.7    4.789      41.213
2015    1        4     6  45    6.1509   494.5    4.792      41.208
2015    1        4     6  50    6.1524   494.4    4.794      41.202
2015    1        4     6  55    6.1540   494.3    4.797      41.196
2015    1        4     7   0    6.1555   494.1    4.800      41.190
2015    1        4     7   5    6.1570   494.0    4.803      41.184
2015    1        4     7  10    6.1585   493.9    4.806      41.178
2015    1        4     7  15    6.1601   493.8    4.809      41.172
2015    1        4     7  20    6.1616   493.6    4.812      41.165
2015    1        4     7  25    6.1630   493.5    4.815      41.159
2015    1        4     7  30    6.1645   493.4    4.818      41.153
2015    1        4     7  35    6.1660   493.3    4.820      41.146
2015    1        4     7  40    6.1675   493.1    4.823      41.140
2015    1        4     7  45    6.1689   493.0    4.826      41.134
2015    1        4     7  49    6.1704   492.9    4.829      41.128
2015    1        4     7  54    6.1719   492.8    4.832      41.121
2015    1        4     7  59    6.1733   492.6    4.835      41.115
2015    1        4     8   4    6.1747   492.5    4.838      41.109
2015    1        4     8   9    6.1762   492.4    4.841      41.103
2015    1        4     8  14    6.1776   492.3    4.844      41.097
2015    1        4     8  19    6.1790   492.1    4.847      41.092
2015    1        4     8  24    6.1805   492.0    4.850      41.086
2015    1        4     8  29    6.1819   491.9    4.853      41.081
2015    1        4     8  34    6.1833   491.8    4.856      41.075
2015    1        4     8  39    6.1847   491.7    4.859      41.070
2015    1        4     8  44    6.1861   491.5    4.862      41.065
2015    1        4     8  49    6.1876   491.4    4.865      41.060
2015    1        4     8  54    6.1890   491.3    4.868      41.056
2015    1        4     8  59    6.1904   491.2    4.871      41.051
2015    1        4     9   4    6.1918   491.1    4.875      41.047
2015    1        4     9   9    6.1932   491.0    4.878      41.043
2015    1        4     9  14    6.1946   490.8    4.881      41.039
2015    1        4     9  19    6.1960   490.7    4.884      41.035
2015    1        4     9  24    6.1974   490.6    4.888      41.031
2015    1        4     9  29    6.1988   490.5    4.891      41.028
2015    1        4     9  33    6.2002   490.4    4.894      41.025
2015    1        4     9  38    6.2016   490.3    4.897      41.021
2015    1        4     9  43    6.2030   490.1    4.901      41.019
2015    1        4     9  48    6.2043   490.0    4.904      41.016
2015    1        4     9  53    6.2057   489.9    4.907      41.013
2015    1        4     9  58    6.2071   489.8    4.911      41.011
2015    1        4    10   3    6.2085   489.7    4.914      41.008
2015    1        4    10   8    6.2099   489.6    4.917      41.006
2015    1        4    10  13    6.2113   489.5    4.921      41.004
2015    1        4    10  18    6.2127   489.4    4.924      41.002
2015    1        4    10  23    6.2142   489.3    4.927      41.001
2015    1        4    10  28    6.2156   489.2    4.931      40.999
2015    1        4    10  33    6.2170   489.0    4.934      40.997
2015    1        4    10  38    6.2184   488.9    4.937      40.996
2015    1        4    10  43    6.2198   488.8    4.941      40.995
2015    1        4    10  48    6.2212   488.7    4.944      40.993
2015    1        4    10  53    6.2226   488.6    4.947      40.992
2015    1        4    10  58    6.2241   488.5    4.950      40.991
2015    1        4    11   2    6.2255   488.4    4.953      40.990
2015    1        4    11   7    6.2269   488.3    4.957      40.989
2015    1        4    11  12    6.2283   488.2    4.960      40.988
2015    1        4    11  17    6.2298   488.1    4.963      40.987
2015    1        4    11  22    6.2312   488.0    4.966      40.986
2015    1        4    11  27    6.2327   487.9    4.969      40.984
2015    1        4    11  32    6.2341   487.8    4.972      40.983
2015    1        4    11  37    6.2355   487.7    4.974      40.982
2015    1        4    11  42    6.2370   487.6    4.977      40.980
2015    1        4    11  47    6.2384   487.5    4.980      40.979
2015    1        4    11  52    6.2399   487.4    4.983      40.977
2015    1        4    11  57    6.2413   487.3    4.986      40.975
2015    1        4    12   2    6.2428   487.2    4.988      40.973
2015    1        4    12   7    6.2443   487.1    4.991      40.971
2015    1        4    12  12    6.2457   487.0    4.993      40.969
2015    1        4    12  17    6.2472   486.9    4.996      40.967
2015    1        4    12  22    6.2486   486.8    4.999      40.964
2015    1        4    12  26    6.2501   486.7    5.001      40.962
2015    1        4    12  31    6.2516   486.6    5.004      40.959
2015    1        4    12  36    6.2530   486.5    5.006      40.957
2015    1        4    12  41    6.2545   486.4    5.008      40.954
2015    1        4    12  46    6.2559   486.3    5.011      40.952
2015    1        4    12  51    6.2574   486.2    5.013      40.949
2015    1        4    12  56    6.2588   486.1    5.015      40.946
2015    1        4    13   1    6.2602   486.1    5.018      40.943
2015    1        4    13   6    6.2617   486.0    5.020      40.941
2015    1        4    13  11    6.2631   485.9    5.022      40.938
2015    1        4    13  16    6.2645   485.8    5.025      40.935
2015    1        4    13  21    6.2659   485.7    5.027      40.932
2015    1        4    13  26    6.2673   485.6    5.029      40.929
2015    1        4    13  31    6.2687   485.5    5.031      40.927
2015    1        4    13  36    6.2702   485.4    5.034      40.924
2015    1        4    13  41    6.2715   485.3    5.036      40.921
2015    1        4    13  46    6.2729   485.2    5.038      40.918
2015    1        4    13  51    6.2743   485.1    5.040      40.916
2015    1        4    13  56    6.2757   485.0    5.042      40.913
2015    1        4    14   1    6.2770   485.0    5.045      40.910
2015    1        4    14   5    6.2784   484.9    5.047      40.908
2015    1        4    14  10    6.2797   484.8    5.049      40.906
2015    1        4    14  15    6.2811   484.7    5.051      40.903
2015    1        4    14  20    6.2824   484.6    5.054      40.901
2015    1        4    14  25    6.2837   484.5    5.056      40.898
2015    1        4    14  30    6.2850   484.4    5.058      40.896
2015    1        4    14  35    6.2863   484.3    5.060      40.894
2015    1        4    14  40    6.2877   484.3    5.063      40.892
2015    1        4    14  45    6.2889   484.2    5.065      40.890
2015    1        4    14  50    6.2902   484.1    5.067      40.888
2015    1        4    14  55    6.2915   484.0    5.069      40.886
2015    1        4    15   0    6.2928   483.9    5.072      40.885
2015    1        4    15   5    6.2940   483.8    5.074      40.883
2015    1        4    15  10    6.2953   483.7    5.076      40.882
2015    1        4    15  15    6.2965   483.7    5.079      40.880
2015    1        4    15  20    6.2978   483.6    5.081      40.879
2015    1        4    15  25    6.2990   483.5    5.084      40.877
2015    1        4    15  30    6.3002   483.4    5.086      40.876
2015    1        4    15  35    6.3015   483.3    5.088      40.875
2015    1        4    15  40    6.3027   483.3    5.091      40.873
2015    1        4    15  45    6.3039   483.2    5.093      40.872
2015    1        4    15  50    6.3051   483.1    5.096      40.871
2015    1        4    15  54    6.3063   483.0    5.098      40.870
2015    1        4    15  59    6.3075   482.9    5.100      40.869
2015    1        4    16   4    6.3086   482.8    5.103      40.868
2015    1        4    16   9    6.3098   482.8    5.105      40.867
2015    1        4    16  14    6.3110   482.7    5.108      40.866
2015    1        4    16  19    6.3121   482.6    5.110      40.865
2015    1        4    16  24    6.3133   482.5    5.113      40.864
2015    1        4    16  29    6.3145   482.5    5.115      40.863
2015    1        4    16  34    6.3156   482.4    5.118      40.862
2015    1        4    16  39    6.3168   482.3    5.120      40.861
2015    1        4    16  44    6.3179   482.2    5.122      40.860
2015    1        4    16  49    6.3190   482.1    5.125      40.859
2015    1        4    16  54    6.3202   482.1    5.127      40.858
2015    1        4    16  59    6.3213   482.0    5.130      40.856
2015    1        4    17   4    6.3224   481.9    5.132      40.855
2015    1        4    17   9    6.3235   481.8    5.135      40.854
2015    1        4    17  14    6.3247   481.8    5.137      40.853
2015    1        4    17  19    6.3258   481.7    5.139      40.851
2015    1        4    17  24    6.3269   481.6    5.142      40.850
2015    1        4    17  29    6.3280   481.5    5.144      40.848
2015    1        4    17  33    6.3291   481.5    5.146      40.847
2015    1        4    17  38    6.3302   481.4    5.149      40.845
2015    1        4    17  43    6.3313   481.3    5.151      40.844
2015    1        4    17  48    6.3324   481.3    5.153      40.842
2015    1        4    17  53    6.3335   481.2    5.155      40.840
2015    1        4    17  58    6.3346   481.1    5.158      40.839
2015    1        4    18   3    6.3357   481.0    5.160      40.837
2015    1        4    18   8    6.3368   481.0    5.162      40.835
2015    1        4    18  13    6.3379   480.9    5.164      40.833
2015    1        4    18  18    6.3390   480.8    5.166      40.831
2015    1        4    18  23    6.3401   480.8    5.168      40.829
2015    1        4    18  28    6.3412   480.7    5.171      40.827
2015    1        4    18  33    6.3423   480.6    5.173      40.825
2015    1        4    18  38    6.3434   480.6    5.175      40.823
2015    1        4    18  43    6.3445   480.5    5.177      40.820
2015    1        4    18  48    6.3456   480.4    5.178      40.818
2015    1        4    18  53    6.3467   480.3    5.180      40.816
2015    1        4    18  57    6.3478   480.3    5.182      40.813
2015    1        4    19   2    6.3489   480.2    5.184      40.810
2015    1        4    19   7    6.3500   480.1    5.186      40.808
2015    1        4    19  12    6.3511   480.1    5.188      40.805
2015    1        4    19  17    6.3522   480.0    5.190      40.802
2015    1        4    19  22    6.3533   479.9    5.191      40.800
2015    1        4    19  27    6.3544   479.9    5.193      40.797
2015    1        4    19  32    6.3555   479.8    5.195      40.794
2015    1        4    19  37    6.3566   479.8    5.197      40.791
2015    1        4    19  42    6.3576   479.7    5.198      40.788
2015    1        4    19  47    6.3587   479.6    5.200      40.785
2015    1        4    19  52    6.3598   479.6    5.201      40.782
2015    1        4    19  57    6.3609   479.5    5.203      40.779
2015    1        4    20   2    6.3620   479.4    5.205      40.776
2015    1        4    20   7    6.3631   479.4    5.206      40.773
2015    1        4    20  12    6.3642   479.3    5.208      40.770
2015    1        4    20  17    6.3652   479.2    5.209      40.768
2015    1        4    20  22    6.3663   479.2    5.211      40.765
2015    1        4    20  26    6.3674   479.1    5.212      40.762
2015    1        4    20  31    6.3685   479.1    5.214      40.760
2015    1        4    20  36    6.3696   479.0    5.215      40.757
2015    1        4    20  41    6.3707   478.9    5.217      40.754
2015    1        4    20  46    6.3717   478.9    5.219      40.752
2015    1        4    20  51    6.3728   478.8    5.220      40.750
2015    1        4    20  56    6.3739   478.7    5.222      40.747
2015    1        4    21   1    6.3750   478.7    5.223      40.745
2015    1        4    21   6    6.3760   478.6    5.225      40.743
2015    1        4    21  11    6.3771   478.6    5.226      40.741
2015    1        4    21  16    6.3782   478.5    5.228      40.739
2015    1        4    21  21    6.3792   478.4    5.229      40.738
2015    1        4    21  26    6.3803   478.4    5.231      40.736
2015    1        4    21  31    6.3813   478.3    5.232      40.734
2015    1        4    21  36    6.3824   478.3    5.234      40.733
2015    1        4    21  41    6.3834   478.2    5.235      40.732
2015    1        4    21  46    6.3845   478.1    5.237      40.731
2015    1        4    21  51    6.3855   478.1    5.238      40.730
2015    1        4    21  56    6.3866   478.0    5.240      40.729
2015    1        4    22   1    6.3876   478.0    5.242      40.728
2015    1        4    22   6    6.3886   477.9    5.243      40.727
2015    1        4    22  11    6.3896   477.9    5.245      40.727
2015    1        4    22  15    6.3906   477.8    5.247      40.726
2015    1        4    22  20    6.3916   477.7    5.248      40.726
2015    1        4    22  25    6.3926   477.7    5.250      40.725
2015    1        4    22  30    6.3936   477.6    5.252      40.725
2015    1        4    22  35    6.3945   477.6    5.253      40.725
2015    1        4    22  40    6.3955   477.5    5.255      40.725
2015    1        4    22  45    6.3964   477.5    5.257      40.725
2015    1        4    22  50    6.3974   477.4    5.258      40.724
2015    1        4    22  55    6.3983   477.4    5.260      40.724
2015    1        4    23   0    6.3993   477.3    5.262      40.724
2015    1        4    23   5    6.4002   477.2    5.264      40.724
2015    1        4    23  10    6.4011   477.2    5.265      40.724
2015    1        4    23  15    6.4020   477.1    5.267      40.724
2015    1        4    23  20    6.4029   477.1    5.269      40.724
2015    1        4    23  25    6.4038   477.0    5.270      40.724
2015    1        4    23  30    6.4047   477.0    5.272      40.723
2015    1        4    23  35    6.4055   476.9    5.274      40.723
2015    1        4    23  40    6.4064   476.9    5.275      40.722
2015    1        4    23  45    6.4073   476.8    5.277      40.722
2015    1        4    23  50    6.4081   476.8    5.279      40.721
2015    1        4    23  55    6.4090   476.7    5.281      40.721
2015    1        4    23  59    6.4098   476.7    5.282      40.720
2015    1        5     0   4    6.4107   476.6    5.284      40.719
2015    1        5     0   9    6.4115   476.6    5.285      40.718
2015    1        5     0  14    6.4123   476.5    5.287      40.717
2015    1        5     0  19    6.4132   476.4    5.289      40.715
2015    1        5     0  24    6.4140   476.4    5.290      40.714
2015    1        5     0  29    6.4148   476.3    5.292      40.712
2015    1        5     0  34    6.4156   476.3    5.293      40.710
2015    1        5     0  39    6.4164   476.2    5.295      40.708
2015    1        5     0  44    6.4172   476.2    5.296      40.706
2015    1        5     0  49    6.4180   476.1    5.298      40.704
2015    1        5     0  54    6.4188   476.1    5.299      40.702
2015    1        5     0  59    6.4196   476.0    5.301      40.699
2015    1        5     1   4    6.4204   476.0    5.302      40.697
2015    1        5     1   9    6.4212   475.9    5.304      40.694
2015    1        5     1  14    6.4220   475.9    5.305      40.691
2015    1        5     1  19    6.4227   475.8    5.307      40.688
2015    1        5     1  24    6.4235   475.8    5.308      40.685
2015    1        5     1  28    6.4243   475.7    5.309      40.681
2015    1        5     1  33    6.4251   475.7    5.311      40.678
2015    1        5     1  38    6.4259   475.6    5.312      40.674
2015    1        5     1  43    6.4267   475.6    5.313      40.671
2015    1        5     1  48    6.4275   475.5    5.315      40.667
2015    1        5     1  53    6.4282   475.5    5.316      40.663
2015    1        5     1  58    6.4290   475.4    5.317      40.659
2015    1        5     2   3    6.4298   475.3    5.318      40.655
2015    1        5     2   8    6.4306   475.3    5.320      40.651
2015    1        5     2  13    6.4314   475.2    5.321      40.647
2015    1        5     2  18    6.4322   475.2    5.322      40.643
2015    1        5     2  23    6.4330   475.1    5.323      40.639
2015    1        5     2  28    6.4338   475.1    5.325      40.635
2015    1        5     2  33    6.4346   475.0    5.326      40.631
2015    1        5     2  38    6.4354   475.0    5.327      40.626
2015    1        5     2  43    6.4362   474.9    5.328      40.622
2015    1        5     2  48    6.4370   474.9    5.329      40.618
2015    1        5     2  52    6.4378   474.8    5.331      40.614
2015    1        5     2  57    6.4386   474.8    5.332      40.609
2015    1        5     3   2    6.4394   474.7    5.333      40.605
2015    1        5     3   7    6.4403   474.7    5.334      40.601
2015    1        5     3  12    6.4411   474.6    5.335      40.597
2015    1        5     3  17    6.4419   474.6    5.336      40.593
2015    1        5     3  22    6.4428   474.5    5.338      40.589
2015    1        5     3  27    6.4436   474.5    5.339      40.585
2015    1        5     3  32    6.4445   474.4    5.340      40.581
2015    1        5     3  37    6.4453   474.4    5.341      40.577
2015    1        5     3  42    6.4462   474.3    5.342      40.573
2015    1        5     3  47    6.4470   474.3    5.343      40.569
2015    1        5     3  52    6.4479   474.2    5.344      40.566
2015    1        5     3  57    6.4487   474.2    5.346      40.562
2015    1        5     4   2    6.4496   474.1    5.347      40.559
2015    1        5     4   7    6.4505   474.1    5.348      40.555
2015    1        5     4  12    6.4513   474.0    5.349      40.552
2015    1        5     4  17    6.4522   474.0    5.350      40.548
2015    1        5     4  22    6.4531   473.9    5.351      40.545
2015    1        5     4  27    6.4540   473.9    5.353      40.542
2015    1        5     4  31    6.4549   473.8    5.354      40.539
2015    1        5     4  36    6.4558   473.8    5.355      40.536
2015    1        5     4  41    6.4567   473.8    5.356      40.534
2015    1        5     4  46    6.4576   473.7    5.357      40.531
2015    1        5     4  51    6.4585   473.7    5.359      40.529
2015    1        5     4  56    6.4593   473.6    5.360      40.526
2015    1        5     5   1    6.4603   473.6    5.361      40.524
2015    1        5     5   6    6.4612   473.5    5.362      40.522
2015    1        5     5  11    6.4621   473.5    5.363      40.520
2015    1        5     5  16    6.4630   473.4    5.365      40.518
2015    1        5     5  21    6.4639   473.4    5.366      40.516
2015    1        5     5  26    6.4648   473.3    5.367      40.514
2015    1        5     5  31    6.4657   473.3    5.369      40.513
2015    1        5     5  36    6.4666   473.2    5.370      40.511
2015    1        5     5  41    6.4675   473.2    5.371      40.510
2015    1        5     5  46    6.4684   473.1    5.373      40.508
2015    1        5     5  51    6.4693   473.1    5.374      40.507
2015    1        5     5  56    6.4702   473.1    5.375      40.506
2015    1        5     6   1    6.4711   473.0    5.377      40.505
2015    1        5     6   6    6.4720   473.0    5.378      40.504
2015    1        5     6  11    6.4729   472.9    5.379      40.503
2015    1        5     6  16    6.4738   472.9    5.381      40.502
2015    1        5     6  20    6.4747   472.8    5.382      40.501
2015    1        5     6  25    6.4756   472.8    5.384      40.500
2015    1        5     6  30    6.4765   472.7    5.385      40.499
2015    1        5     6  35    6.4774   472.7    5.387      40.498
2015    1        5     6  40    6.4782   472.7    5.388      40.498
2015    1        5     6  45    6.4791   472.6    5.390      40.497
2015    1        5     6  50    6.4799   472.6    5.391      40.496
2015    1        5     6  55    6.4808   472.5    5.392      40.495
2015    1        5     7   0    6.4817   472.5    5.394      40.494
2015    1        5     7   5    6.4825   472.4    5.395      40.493
2015    1        5     7  10    6.4833   472.4    5.397      40.492
2015    1        5     7  15    6.4842   472.4    5.398      40.491
2015    1        5     7  20    6.4850   472.3    5.400      40.490
2015    1        5     7  25    6.4858   472.3    5.401      40.488
2015    1        5     7  30    6.4866   472.2    5.403      40.487
2015    1        5     7  35    6.4874   472.2    5.404      40.486
2015    1        5     7  40    6.4882   472.1    5.406      40.484
2015    1        5     7  45    6.4890   472.1    5.407      40.482
2015    1        5     7  50    6.4898   472.1    5.409      40.480
2015    1        5     7  54    6.4906   472.0    5.410      40.479
2015    1        5     7  59    6.4914   472.0    5.412      40.477
2015    1        5     8   4    6.4922   471.9    5.413      40.474
2015    1        5     8   9    6.4930   471.9    5.414      40.472
2015    1        5     8  14    6.4938   471.8    5.416      40.470
2015    1        5     8  19    6.4945   471.8    5.417      40.467
2015    1        5     8  24    6.4953   471.8    5.419      40.464
2015    1        5     8  29    6.4961   471.7    5.420      40.462
2015    1        5     8  34    6.4968   471.7    5.421      40.459
2015    1        5     8  39    6.4976   471.6    5.423      40.455
2015    1        5     8  44    6.4984   471.6    5.424      40.452
2015    1        5     8  49    6.4991   471.5    5.426      40.449
2015    1        5     8  54    6.4999   471.5    5.427      40.445
2015    1        5     8  59    6.5006   471.5    5.428      40.442
2015    1        5     9   4    6.5014   471.4    5.430      40.438
2015    1        5     9   9    6.5022   471.4    5.431      40.434
2015    1        5     9  14    6.5029   471.3    5.432      40.430
2015    1        5     9  19    6.5037   471.3    5.434      40.426
2015    1        5     9  23    6.5044   471.2    5.435      40.422
2015    1        5     9  28    6.5052   471.2    5.436      40.418
2015    1        5     9  33    6.5060   471.2    5.438      40.413
2015    1        5     9  38    6.5067   471.1    5.439      40.409
2015    1        5     9  43    6.5075   471.1    5.440      40.405
2015    1        5     9  48    6.5083   471.0    5.442      40.400
2015    1        5     9  53    6.5090   471.0    5.443      40.395
2015    1        5     9  58    6.5098   470.9    5.444      40.391
2015    1        5    10   3    6.5106   470.9    5.446      40.386
2015    1        5    10   8    6.5114   470.9    5.447      40.381
2015    1        5    10  13    6.5121   470.8    5.448      40.376
2015    1        5    10  18    6.5129   470.8    5.449      40.371
2015    1        5    10  23    6.5137   470.7    5.451      40.366
2015    1        5    10  28    6.5145   470.7    5.452      40.361
2015    1        5    10  33    6.5153   470.6    5.453      40.356
2015    1        5    10  38    6.5161   470.6    5.455      40.351
2015    1        5    10  43    6.5170   470.6    5.456      40.346
2015    1        5    10  47    6.5178   470.5    5.457      40.341
2015    1        5    10  52    6.5186   470.5    5.458      40.336
2015    1        5    10  57    6.5195   470.4    5.460      40.331
2015    1        5    11   2    6.5203   470.4    5.461      40.326
2015    1        5    11   7    6.5212   470.4    5.462      40.321
2015    1        5    11  12    6.5220   470.3    5.463      40.316
2015    1        5    11  17    6.5229   470.3    5.465      40.311
2015    1        5    11  22    6.5238   470.2    5.466      40.306
2015    1        5    11  27    6.5247   470.2    5.467      40.301
2015    1        5    11  32    6.5256   470.1    5.469      40.297
2015    1        5    11  37    6.5265   470.1    5.470      40.292
2015    1        5    11  42    6.5274   470.1    5.471      40.287
2015    1        5    11  47    6.5284   470.0    5.472      40.282
2015    1        5    11  52    6.5293   470.0    5.474      40.278
2015    1        5    11  57    6.5303   470.0    5.475      40.273
2015    1        5    12   2    6.5312   469.9    5.476      40.269
2015    1        5    12   7    6.5322   469.9    5.478      40.265
2015    1        5    12  12    6.5332   469.8    5.479      40.260
2015    1        5    12  17    6.5342   469.8    5.480      40.256
2015    1        5    12  22    6.5352   469.8    5.482      40.252
2015    1        5    12  27    6.5362   469.7    5.483      40.248
2015    1        5    12  32    6.5372   469.7    5.484      40.244
2015    1        5    12  36    6.5382   469.6    5.486      40.240
2015    1        5    12  41    6.5393   469.6    5.487      40.237
2015    1        5    12  46    6.5403   469.6    5.488      40.233
2015    1        5    12  51    6.5413   469.5    5.490      40.229
2015    1        5    12  56    6.5424   469.5    5.491      40.226
2015    1        5    13   1    6.5434   469.5    5.492      40.222
2015    1        5    13   6    6.5444   469.4    5.494      40.219
2015    1        5    13  11    6.5455   469.4    5.495      40.215
2015    1        5    13  16    6.5465   469.4    5.496      40.212
2015    1        5    13  21    6.5475   469.3    5.498      40.209
2015    1        5    13  26    6.5485   469.3    5.499      40.206
2015    1        5    13  31    6.5495   469.3    5.500      40.202
2015    1        5    13  36    6.5506   469.2    5.502      40.199
2015    1        5    13  41    6.5516   469.2    5.503      40.196
2015    1        5    13  46    6.5526   469.2    5.505      40.193
2015    1        5    13  51    6.5535   469.1    5.506      40.189
2015    1        5    13  56    6.5545   469.1    5.507      40.186
2015    1        5    14   1    6.5555   469.1    5.509      40.183
2015    1        5    14   6    6.5565   469.0    5.510      40.180
2015    1        5    14  11    6.5574   469.0    5.512      40.176
2015    1        5    14  16    6.5584   469.0    5.513      40.173
2015    1        5    14  20    6.5593   468.9    5.514      40.169
2015    1        5    14  25    6.5602   468.9    5.516      40.166
2015    1        5    14  30    6.5611   468.9    5.517      40.163
2015    1        5    14  35    6.5621   468.8    5.519      40.159
2015    1        5    14  40    6.5630   468.8    5.520      40.155
2015    1        5    14  45    6.5639   468.8    5.522      40.151
2015    1        5    14  50    6.5648   468.7    5.523      40.148
2015    1        5    14  55    6.5656   468.7    5.525      40.144
2015    1        5    15   0    6.5665   468.7    5.526      40.140
2015    1        5    15   5    6.5674   468.6    5.527      40.136
2015    1        5    15  10    6.5683   468.6    5.529      40.132
2015    1        5    15  15    6.5691   468.6    5.530      40.127
2015    1        5    15  20    6.5700   468.5    5.532      40.123
2015    1        5    15  25    6.5708   468.5    5.533      40.119
2015    1        5    15  30    6.5716   468.5    5.535      40.114
2015    1        5    15  35    6.5725   468.5    5.536      40.109
2015    1        5    15  40    6.5733   468.4    5.538      40.105
2015    1        5    15  45    6.5741   468.4    5.539      40.100
2015    1        5    15  50    6.5749   468.4    5.541      40.095
2015    1        5    15  54    6.5757   468.3    5.542      40.089
2015    1        5    15  59    6.5765   468.3    5.544      40.084
2015    1        5    16   4    6.5773   468.3    5.545      40.079
2015    1        5    16   9    6.5781   468.2    5.546      40.073
2015    1        5    16  14    6.5789   468.2    5.548      40.067
2015    1        5    16  19    6.5797   468.2    5.549      40.062
2015    1        5    16  24    6.5805   468.1    5.551      40.056
2015    1        5    16  29    6.5813   468.1    5.552      40.050
2015    1        5    16  34    6.5821   468.1    5.554      40.043
2015    1        5    16  39    6.5828   468.0    5.555      40.037
2015    1        5    16  44    6.5836   468.0    5.557      40.030
2015    1        5    16  49    6.5844   468.0    5.558      40.024
2015    1        5    16  54    6.5852   467.9    5.559      40.017
2015    1        5    16  59    6.5859   467.9    5.561      40.010
2015    1        5    17   4    6.5867   467.9    5.562      40.003
2015    1        5    17   9    6.5875   467.9    5.564      39.996
2015    1        5    17  14    6.5883   467.8    5.565      39.989
2015    1        5    17  18    6.5891   467.8    5.566      39.981
2015    1        5    17  23    6.5898   467.8    5.568      39.974
2015    1        5    17  28    6.5906   467.7    5.569      39.966
2015    1        5    17  33    6.5914   467.7    5.570      39.958
2015    1        5    17  38    6.5922   467.7    5.572      39.950
2015    1        5    17  43    6.5930   467.6    5.573      39.942
2015    1        5    17  48    6.5938   467.6    5.574      39.934
2015    1        5    17  53    6.5946   467.6    5.576      39.926
2015    1        5    17  58    6.5954   467.5    5.577      39.917
2015    1        5    18   3    6.5962   467.5    5.578      39.909
2015    1        5    18   8    6.5970   467.5    5.579      39.901
2015    1        5    18  13    6.5979   467.4    5.581      39.892
2015    1        5    18  18    6.5987   467.4    5.582      39.884
2015    1        5    18  23    6.5996   467.4    5.583      39.875
2015    1        5    18  28    6.6004   467.3    5.584      39.866
2015    1        5    18  33    6.6013   467.3    5.586      39.858
2015    1        5    18  38    6.6022   467.3    5.587      39.849
2015    1        5    18  43    6.6030   467.2    5.588      39.840
2015    1        5    18  48    6.6039   467.2    5.589      39.831
2015    1        5    18  52    6.6048   467.2    5.590      39.822
2015    1        5    18  57    6.6058   467.1    5.592      39.813
2015    1        5    19   2    6.6067   467.1    5.593      39.805
2015    1        5    19   7    6.6076   467.1    5.594      39.796
2015    1        5    19  12    6.6086   467.0    5.595      39.787
2015    1        5    19  17    6.6096   467.0    5.596      39.778
2015    1        5    19  22    6.6105   467.0    5.597      39.769
2015    1        5    19  27    6.6115   466.9    5.599      39.761
2015    1        5    19  32    6.6125   466.9    5.600      39.752
2015    1        5    19  37    6.6135   466.9    5.601      39.743
2015    1        5    19  42    6.6146   466.9    5.602      39.734
2015    1        5    19  47    6.6156   466.8    5.603      39.726
2015    1        5    19  52    6.6166   466.8    5.604      39.717
2015    1        5    19  57    6.6177   466.8    5.605      39.708
2015    1        5    20   2    6.6187   466.7    5.607      39.700
2015    1        5    20   7    6.6198   466.7    5.608      39.691
2015    1        5    20  12    6.6208   466.7    5.609      39.683
2015    1        5    20  17    6.6219   466.6    5.610      39.674
2015    1        5    20  22    6.6230   466.6    5.611      39.666
2015    1        5    20  27    6.6240   466.6    5.612      39.657
2015    1        5    20  32    6.6251   466.6    5.614      39.649
2015    1        5    20  37    6.6262   466.5    5.615      39.641
2015    1        5    20  41    6.6273   466.5    5.616      39.633
2015    1        5    20  46    6.6283   466.5    5.617      39.624
2015    1        5    20  51    6.6294   466.4    5.618      39.616
2015    1        5    20  56    6.6305   466.4    5.619      39.608
2015    1        5    21   1    6.6316   466.4    5.621      39.600
2015    1        5    21   6    6.6326   466.4    5.622      39.592
2015    1        5    21  11    6.6337   466.3    5.623      39.584
2015    1        5    21  16    6.6348   466.3    5.624      39.575
2015    1        5    21  21    6.6359   466.3    5.626      39.567
2015    1        5    21  26    6.6369   466.2    5.627      39.559
2015    1        5    21  31    6.6380   466.2    5.628      39.551
2015    1        5    21  36    6.6391   466.2    5.629      39.543
2015    1        5    21  41    6.6401   466.2    5.631      39.535
2015    1        5    21  46    6.6411   466.1    5.632      39.527
2015    1        5    21  51    6.6422   466.1    5.633      39.519
2015    1        5    21  56    6.6432   466.1    5.635      39.511
2015    1        5    22   1    6.6442   466.1    5.636      39.503
2015    1        5    22   6    6.6452   466.0    5.637      39.494
2015    1        5    22  11    6.6463   466.0    5.639      39.486
2015    1        5    22  16    6.6473   466.0    5.640      39.478
2015    1        5    22  20    6.6483   465.9    5.642      39.470
2015    1        5    22  25    6.6493   465.9    5.643      39.461
2015    1        5    22  30    6.6503   465.9    5.644      39.453
2015    1        5    22  35    6.6513   465.9    5.646      39.444
2015    1        5    22  40    6.6523   465.8    5.647      39.436
2015    1        5    22  45    6.6533   465.8    5.649      39.427
2015    1        5    22  50    6.6543   465.8    5.650      39.419
2015    1        5    22  55    6.6552   465.7    5.652      39.410
2015    1        5    23   0    6.6562   465.7    5.653      39.401
2015    1        5    23   5    6.6572   465.7    5.655      39.392
2015    1        5    23  10    6.6582   465.7    5.656      39.383
2015    1        5    23  15    6.6591   465.6    5.658      39.374
2015    1        5    23  20    6.6601   465.6    5.660      39.365
2015    1        5    23  25    6.6611   465.6    5.661      39.356
2015    1        5    23  30    6.6621   465.5    5.663      39.346
2015    1        5    23  35    6.6630   465.5    5.664      39.337
2015    1        5    23  40    6.6640   465.5    5.666      39.328
2015    1        5    23  45    6.6650   465.5    5.668      39.318
2015    1        5    23  49    6.6660   465.4    5.669      39.308
2015    1        5    23  54    6.6669   465.4    5.671      39.298
2015    1        5    23  59    6.6679   465.4    5.672      39.289
2015    1        6     0   4    6.6689   465.3    5.674      39.279
2015    1        6     0   9    6.6699   465.3    5.676      39.269
2015    1        6     0  14    6.6709   465.3    5.677      39.258
2015    1        6     0  19    6.6719   465.3    5.679      39.248
2015    1        6     0  24    6.6729   465.2    5.681      39.238
2015    1        6     0  29    6.6739   465.2    5.682      39.227
2015    1        6     0  34    6.6749   465.2    5.684      39.216
2015    1        6     0  39    6.6759   465.1    5.686      39.206
2015    1        6     0  44    6.6769   465.1    5.687      39.195
2015    1        6     0  49    6.6779   465.1    5.689      39.184
2015    1        6     0  54    6.6790   465.0    5.691      39.173
2015    1        6     0  59    6.6800   465.0    5.693      39.162
2015    1        6     1   4    6.6810   465.0    5.694      39.151
2015    1        6     1   9    6.6821   464.9    5.696      39.139
2015    1        6     1  13    6.6831   464.9    5.698      39.128
2015    1        6     1  18    6.6842   464.9    5.699      39.116
2015    1        6     1  23    6.6852   464.9    5.701      39.105
2015    1        6     1  28    6.6863   464.8    5.703      39.093
2015    1        6     1  33    6.6874   464.8    5.704      39.081
2015    1        6     1  38    6.6885   464.8    5.706      39.069
2015    1        6     1  43    6.6896   464.7    5.708      39.057
2015    1        6     1  48    6.6907   464.7    5.710      39.045
2015    1        6     1  53    6.6918   464.7    5.711      39.033
2015    1        6     1  58    6.6929   464.6    5.713      39.021
2015    1        6     2   3    6.6941   464.6    5.715      39.009
2015    1        6     2   8    6.6952   464.6    5.716      38.996
2015    1        6     2  13    6.6964   464.5    5.718      38.984
2015    1        6     2  18    6.6975   464.5    5.720      38.972
2015    1        6     2  23    6.6987   464.5    5.722      38.959
2015    1        6     2  28    6.6999   464.4    5.723      38.947
2015    1        6     2  33    6.7011   464.4    5.725      38.934
2015    1        6     2  38    6.7023   464.4    5.727      38.922
2015    1        6     2  43    6.7035   464.3    5.729      38.910
2015    1        6     2  48    6.7047   464.3    5.730      38.897
2015    1        6     2  53    6.7060   464.3    5.732      38.885
2015    1        6     2  57    6.7072   464.2    5.734      38.873
2015    1        6     3   2    6.7085   464.2    5.736      38.860
2015    1        6     3   7    6.7098   464.2    5.738      38.848
2015    1        6     3  12    6.7110   464.1    5.740      38.836
2015    1        6     3  17    6.7123   464.1    5.741      38.824
2015    1        6     3  22    6.7136   464.1    5.743      38.812
2015    1        6     3  27    6.7149   464.0    5.745      38.799
2015    1        6     3  32    6.7163   464.0    5.747      38.787
2015    1        6     3  37    6.7176   464.0    5.749      38.775
2015    1        6     3  42    6.7190   463.9    5.751      38.764
2015    1        6     3  47    6.7203   463.9    5.753      38.752
2015    1        6     3  52    6.7217   463.9    5.755      38.740
2015    1        6     3  57    6.7231   463.9    5.757      38.728
2015    1        6     4   2    6.7245   463.8    5.759      38.717
2015    1        6     4   7    6.7259   463.8    5.761      38.705
2015    1        6     4  12    6.7273   463.8    5.763      38.694
2015    1        6     4  17    6.7287   463.7    5.766      38.682
2015    1        6     4  22    6.7301   463.7    5.768      38.671
2015    1        6     4  27    6.7315   463.7    5.770      38.660
2015    1        6     4  32    6.7330   463.6    5.772      38.649
2015    1        6     4  37    6.7344   463.6    5.774      38.637
2015    1        6     4  41    6.7359   463.6    5.777      38.626
2015    1        6     4  46    6.7374   463.6    5.779      38.615
2015    1        6     4  51    6.7388   463.5    5.781      38.604
2015    1        6     4  56    6.7403   463.5    5.784      38.593
2015    1        6     5   1    6.7418   463.5    5.786      38.583
2015    1        6     5   6    6.7433   463.4    5.788      38.572
2015    1        6     5  11    6.7447   463.4    5.791      38.561
2015    1        6     5  16    6.7462   463.4    5.793      38.550
2015    1        6     5  21    6.7477   463.4    5.796      38.540
2015    1        6     5  26    6.7492   463.3    5.798      38.529
2015    1        6     5  31    6.7508   463.3    5.801      38.518
2015    1        6     5  36    6.7523   463.3    5.803      38.507
2015    1        6     5  41    6.7538   463.3    5.806      38.497
2015    1        6     5  46    6.7553   463.2    5.809      38.486
2015    1        6     5  51    6.7568   463.2    5.811      38.475
2015    1        6     5  56    6.7583   463.2    5.814      38.465
2015    1        6     6   1    6.7598   463.2    5.817      38.454
2015    1        6     6   6    6.7613   463.1    5.819      38.443
2015    1        6     6  11    6.7628   463.1    5.822      38.432
2015    1        6     6  15    6.7644   463.1    5.825      38.421
2015    1        6     6  20    6.7659   463.1    5.827      38.410
2015    1        6     6  25    6.7674   463.0    5.830      38.399
2015    1        6     6  30    6.7689   463.0    5.833      38.388
2015    1        6     6  35    6.7704   463.0    5.836      38.377
2015    1        6     6  40    6.7720   463.0    5.838      38.366
2015    1        6     6  45    6.7735   462.9    5.841      38.354
2015    1        6     6  50    6.7750   462.9    5.844      38.343
2015    1        6     6  55    6.7766   462.9    5.847      38.331
2015    1        6     7   0    6.7781   462.9    5.850      38.320
2015    1        6     7   5    6.7796   462.8    5.852      38.308
2015    1        6     7  10    6.7812   462.8    5.855      38.296
2015    1        6     7  15    6.7827   462.8    5.858      38.284
2015    1        6     7  20    6.7843   462.8    5.861      38.272
2015    1        6     7  25    6.7858   462.8    5.864      38.260
2015    1        6     7  30    6.7874   462.7    5.867      38.247
2015    1        6     7  35    6.7890   462.7    5.870      38.235
2015    1        6     7  39    6.7905   462.7    5.872      38.222
2015    1        6     7  44    6.7921   462.7    5.875      38.209
2015    1        6     7  49    6.7937   462.6    5.878      38.197
2015    1        6     7  54    6.7953   462.6    5.881      38.184
2015    1        6     7  59    6.7969   462.6    5.884      38.171
2015    1        6     8   4    6.7985   462.6    5.887      38.157
2015    1        6     8   9    6.8001   462.5    5.890      38.144
2015    1        6     8  14    6.8018   462.5    5.893      38.130
2015    1        6     8  19    6.8034   462.5    5.896      38.117
2015    1        6     8  24    6.8050   462.5    5.899      38.103
2015    1        6     8  29    6.8067   462.5    5.902      38.089
2015    1        6     8  34    6.8083   462.4    5.905      38.075
2015    1        6     8  39    6.8099   462.4    5.908      38.061
2015    1        6     8  44    6.8116   462.4    5.911      38.047
2015    1        6     8  49    6.8132   462.4    5.914      38.033
2015    1        6     8  54    6.8149   462.4    5.917      38.019
2015    1        6     8  59    6.8166   462.3    5.920      38.004
2015    1        6     9   4    6.8182   462.3    5.923      37.989
2015    1        6     9   9    6.8199   462.3    5.926      37.975
2015    1        6     9  13    6.8216   462.3    5.929      37.960
2015    1        6     9  18    6.8232   462.2    5.932      37.946
2015    1        6     9  23    6.8249   462.2    5.935      37.931
2015    1        6     9  28    6.8266   462.2    5.938      37.916
2015    1        6     9  33    6.8283   462.2    5.941      37.901
2015    1        6     9  38    6.8300   462.2    5.944      37.886
2015    1        6     9  43    6.8317   462.1    5.947      37.871
2015    1        6     9  48    6.8334   462.1    5.950      37.856
2015    1        6     9  53    6.8350   462.1    5.953      37.841
2015    1        6     9  58    6.8367   462.1    5.956      37.826
2015    1        6    10   3    6.8384   462.1    5.959      37.811
2015    1        6    10   8    6.8401   462.0    5.962      37.796
2015    1        6    10  13    6.8418   462.0    5.964      37.781
2015    1        6    10  18    6.8435   462.0    5.967      37.765
2015    1        6    10  23    6.8452   462.0    5.970      37.750
2015    1        6    10  28    6.8469   462.0    5.973      37.735
2015    1        6    10  33    6.8486   461.9    5.976      37.720
2015    1        6    10  38    6.8503   461.9    5.979      37.705
2015    1        6    10  43    6.8521   461.9    5.982      37.690
2015    1        6    10  48    6.8538   461.9    5.985      37.675
2015    1        6    10  53    6.8555   461.9    5.988      37.660
2015    1        6    10  58    6.8572   461.9    5.991      37.646
2015    1        6    11   2    6.8589   461.8    5.994      37.631
2015    1        6    11   7    6.8607   461.8    5.997      37.616
2015    1        6    11  12    6.8624   461.8    6.000      37.602
2015    1        6    11  17    6.8641   461.8    6.003      37.587
2015    1        6    11  22    6.8659   461.8    6.006      37.573
2015    1        6    11  27    6.8676   461.7    6.008      37.559
2015    1        6    11  32    6.8694   461.7    6.011      37.544
2015    1        6    11  37    6.8712   461.7    6.014      37.530
2015    1        6    11  42    6.8729   461.7    6.017      37.516
2015    1        6    11  47    6.8747   461.7    6.020      37.502
2015    1        6    11  52    6.8765   461.7    6.023      37.489
2015    1        6    11  57    6.8783   461.6    6.026      37.475
2015    1        6    12   2    6.8801   461.6    6.029      37.461
2015    1        6    12   7    6.8819   461.6    6.032      37.448
2015    1        6    12  12    6.8837   461.6    6.035      37.434
2015    1        6    12  17    6.8855   461.6    6.038      37.421
2015    1        6    12  22    6.8873   461.6    6.041      37.408
2015    1        6    12  27    6.8891   461.5    6.044      37.395
2015    1        6    12  32    6.8910   461.5    6.047      37.382
2015    1        6    12  37    6.8928   461.5    6.050      37.368
2015    1        6    12  42    6.8947   461.5    6.054      37.356
2015    1        6    12  46    6.8965   461.5    6.057      37.343
2015    1        6    12  51    6.8984   461.5    6.060      37.330
2015    1        6    12  56    6.9002   461.5    6.063      37.317
2015    1        6    13   1    6.9021   461.4    6.066      37.305
2015    1        6    13   6    6.9040   461.4    6.070      37.292
2015    1        6    13  11    6.9059   461.4    6.073      37.280
2015    1        6    13  16    6.9078   461.4    6.076      37.267
2015    1        6    13  21    6.9097   461.4    6.080      37.255
2015    1        6    13  26    6.9116   461.4    6.083      37.243
2015    1        6    13  31    6.9135   461.4    6.086      37.230
2015    1        6    13  36    6.9154   461.4    6.090      37.218
2015    1        6    13  41    6.9173   461.4    6.093      37.206
2015    1        6    13  46    6.9192   461.3    6.097      37.193
2015    1        6    13  51    6.9211   461.3    6.100      37.181
2015    1        6    13  56    6.9230   461.3    6.104      37.169
2015    1        6    14   1    6.9249   461.3    6.108      37.157
2015    1        6    14   6    6.9269   461.3    6.111      37.144
2015    1        6    14  10    6.9288   461.3    6.115      37.132
2015    1        6    14  15    6.9307   461.3    6.119      37.120
2015    1        6    14  20    6.9327   461.3    6.123      37.108
2015    1        6    14  25    6.9346   461.3    6.126      37.095
2015    1        6    14  30    6.9366   461.3    6.130      37.083
2015    1        6    14  35    6.9385   461.3    6.134      37.071
2015    1        6    14  40    6.9404   461.3    6.138      37.058
2015    1        6    14  45    6.9424   461.2    6.142      37.046
2015    1        6    14  50    6.9444   461.2    6.146      37.033
2015    1        6    14  55    6.9463   461.2    6.150      37.021
2015    1        6    15   0    6.9483   461.2    6.154      37.009
2015    1        6    15   5    6.9503   461.2    6.158      36.996
2015    1        6    15  10    6.9523   461.2    6.162      36.984
2015    1        6    15  15    6.9543   461.2    6.167      36.971
2015    1        6    15  20    6.9563   461.2    6.171      36.959
2015    1        6    15  25    6.9583   461.2    6.175      36.947
2015    1        6    15  30    6.9603   461.2    6.180      36.935
2015    1        6    15  34    6.9623   461.2    6.184      36.923
2015    1        6    15  39    6.9642   461.2    6.188      36.911
2015    1        6    15  44    6.9662   461.2    6.193      36.899
2015    1        6    15  49    6.9682   461.2    6.197      36.888
2015    1        6    15  54    6.9702   461.2    6.201      36.876
2015    1        6    15  59    6.9722   461.2    6.205      36.864
2015    1        6    16   4    6.9741   461.2    6.209      36.852
2015    1        6    16   9    6.9760   461.2    6.213      36.840
2015    1        6    16  14    6.9780   461.2    6.217      36.828
2015    1        6    16  19    6.9799   461.2    6.221      36.815
2015    1        6    16  24    6.9818   461.2    6.225      36.803
2015    1        6    16  29    6.9837   461.2    6.229      36.790
2015    1        6    16  34    6.9856   461.2    6.233      36.777
2015    1        6    16  39    6.9875   461.2    6.237      36.764
2015    1        6    16  44    6.9893   461.2    6.240      36.751
2015    1        6    16  49    6.9912   461.2    6.244      36.738
2015    1        6    16  54    6.9931   461.2    6.247      36.725
2015    1        6    16  59    6.9949   461.2    6.250      36.711
2015    1        6    17   4    6.9967   461.2    6.254      36.698
2015    1        6    17   9    6.9986   461.3    6.257      36.684
2015    1        6    17  14    7.0004   461.3    6.260      36.670
2015    1        6    17  18    7.0022   461.3    6.263      36.657
2015    1        6    17  23    7.0040   461.3    6.266      36.643
2015    1        6    17  28    7.0059   461.3    6.269      36.629
2015    1        6    17  33    7.0077   461.3    6.272      36.614
2015    1        6    17  38    7.0095   461.3    6.275      36.600
2015    1        6    17  43    7.0113   461.3    6.278      36.586
2015    1        6    17  48    7.0131   461.3    6.281      36.572
2015    1        6    17  53    7.0149   461.3    6.284      36.557
2015    1        6    17  58    7.0167   461.3    6.286      36.543
2015    1        6    18   3    7.0184   461.3    6.289      36.529
2015    1        6    18   8    7.0202   461.3    6.292      36.514
2015    1        6    18  13    7.0220   461.3    6.294      36.500
2015    1        6    18  18    7.0238   461.3    6.297      36.485
2015    1        6    18  23    7.0256   461.3    6.299      36.471
2015    1        6    18  28    7.0274   461.3    6.302      36.456
2015    1        6    18  33    7.0292   461.3    6.304      36.441
2015    1        6    18  38    7.0310   461.3    6.307      36.427
2015    1        6    18  43    7.0328   461.3    6.309      36.412
2015    1        6    18  48    7.0346   461.4    6.312      36.397
2015    1        6    18  53    7.0364   461.4    6.314      36.383
2015    1        6    18  58    7.0382   461.4    6.316      36.368
2015    1        6    19   2    7.0400   461.4    6.319      36.353
2015    1        6    19   7    7.0418   461.4    6.321      36.339
2015    1        6    19  12    7.0436   461.4    6.323      36.324
2015    1        6    19  17    7.0454   461.4    6.325      36.310
2015    1        6    19  22    7.0472   461.4    6.327      36.295
2015    1        6    19  27    7.0490   461.4    6.330      36.281
2015    1        6    19  32    7.0508   461.4    6.332      36.266
2015    1        6    19  37    7.0526   461.4    6.334      36.252
2015    1        6    19  42    7.0544   461.4    6.336      36.237
2015    1        6    19  47    7.0562   461.4    6.338      36.223
2015    1        6    19  52    7.0580   461.4    6.340      36.209
2015    1        6    19  57    7.0598   461.4    6.343      36.194
2015    1        6    20   2    7.0616   461.4    6.345      36.180
2015    1        6    20   7    7.0634   461.4    6.347      36.166
2015    1        6    20  12    7.0652   461.5    6.349      36.152
2015    1        6    20  17    7.0670   461.5    6.351      36.138
2015    1        6    20  22    7.0688   461.5    6.353      36.124
2015    1        6    20  27    7.0706   461.5    6.356      36.111
2015    1        6    20  32    7.0724   461.5    6.358      36.097
2015    1        6    20  37    7.0742   461.5    6.360      36.084
2015    1        6    20  41    7.0760   461.5    6.363      36.070
2015    1        6    20  46    7.0778   461.5    6.365      36.057
2015    1        6    20  51    7.0796   461.5    6.367      36.044
2015    1        6    20  56    7.0814   461.5    6.370      36.031
2015    1        6    21   1    7.0832   461.5    6.372      36.018
2015    1        6    21   6    7.0850   461.5    6.375      36.005
2015    1        6    21  11    7.0868   461.5    6.377      35.992
2015    1        6    21  16    7.0886   461.5    6.380      35.980
2015    1        6    21  21    7.0904   461.5    6.383      35.967
2015    1        6    21  26    7.0922   461.6    6.386      35.955
2015    1        6    21  31    7.0941   461.6    6.388      35.943
2015    1        6    21  36    7.0959   461.6    6.391      35.931
2015    1        6    21  41    7.0977   461.6    6.394      35.919
2015    1        6    21  46    7.0995   461.6    6.397      35.908
2015    1        6    21  51    7.1013   461.6    6.400      35.897
2015    1        6    21  56    7.1032   461.6    6.404      35.885
2015    1        6    22   1    7.1050   461.6    6.407      35.874
2015    1        6    22   5    7.1068   461.6    6.410      35.863
2015    1        6    22  10    7.1086   461.6    6.414      35.853
2015    1        6    22  15    7.1103   461.7    6.417      35.843
2015    1        6    22  20    7.1121   461.7    6.421      35.834
2015    1        6    22  25    7.1138   461.7    6.424      35.825
2015    1        6    22  30    7.1155   461.7    6.428      35.816
2015    1        6    22  35    7.1172   461.7    6.431      35.807
2015    1        6    22  40    7.1189   461.7    6.434      35.800
2015    1        6    22  45    7.1205   461.8    6.438      35.791
2015    1        6    22  50    7.1221   461.8    6.441      35.783
2015    1        6    22  55    7.1237   461.8    6.444      35.775
2015    1        6    23   0    7.1253   461.8    6.447      35.767
2015    1        6    23   5    7.1269   461.8    6.449      35.758
2015    1        6    23  10    7.1284   461.8    6.452      35.749
2015    1        6    23  15    7.1299   461.9    6.455      35.739
2015    1        6    23  20    7.1314   461.9    6.457      35.730
2015    1        6    23  25    7.1329   461.9    6.459      35.720
2015    1        6    23  30    7.1344   461.9    6.462      35.710
2015    1        6    23  34    7.1358   461.9    6.464      35.700
2015    1        6    23  39    7.1373   461.9    6.466      35.690
2015    1        6    23  44    7.1387   462.0    6.468      35.679
2015    1        6    23  49    7.1401   462.0    6.470      35.669
2015    1        6    23  54    7.1416   462.0    6.472      35.658
2015    1        6    23  59    7.1430   462.0    6.473      35.647
2015    1        7     0   4    7.1444   462.0    6.475      35.635
