year    month   day   hour  minute  B_enl V_enl   n_enl       T_enl
[year] [month] [day] [hour][minute] [nT]  [km/s]  [cm-3]      [kK]
2015    5        2     0   3    5.1908   481.1    5.804      47.379
2015    5        2     0   8    5.1887   481.2    5.800      47.385
2015    5        2     0  14    5.1866   481.3    5.796      47.392
2015    5        2     0  20    5.1845   481.4    5.792      47.398
2015    5        2     0  26    5.1824   481.5    5.788      47.404
2015    5        2     0  32    5.1802   481.6    5.784      47.410
2015    5        2     0  38    5.1781   481.7    5.780      47.417
2015    5        2     0  44    5.1759   481.8    5.776      47.423
2015    5        2     0  50    5.1737   481.9    5.771      47.429
2015    5        2     0  55    5.1715   482.0    5.767      47.435
2015    5        2     1   1    5.1693   482.1    5.763      47.440
2015    5        2     1   7    5.1671   482.2    5.759      47.446
2015    5        2     1  13    5.1649   482.3    5.754      47.451
2015    5        2     1  19    5.1627   482.4    5.750      47.456
2015    5        2     1  25    5.1604   482.5    5.746      47.461
2015    5        2     1  31    5.1581   482.6    5.741      47.466
2015    5        2     1  37    5.1559   482.7    5.737      47.470
2015    5        2     1  42    5.1536   482.8    5.732      47.474
2015    5        2     1  48    5.1513   482.8    5.728      47.478
2015    5        2     1  54    5.1490   482.9    5.723      47.481
2015    5        2     2   0    5.1467   483.0    5.719      47.485
2015    5        2     2   6    5.1444   483.1    5.714      47.488
2015    5        2     2  12    5.1421   483.2    5.710      47.491
2015    5        2     2  18    5.1397   483.3    5.705      47.493
2015    5        2     2  24    5.1374   483.4    5.700      47.496
2015    5        2     2  29    5.1350   483.5    5.696      47.498
2015    5        2     2  35    5.1326   483.6    5.691      47.500
2015    5        2     2  41    5.1303   483.7    5.686      47.501
2015    5        2     2  47    5.1279   483.8    5.682      47.503
2015    5        2     2  53    5.1255   483.9    5.677      47.504
2015    5        2     2  59    5.1231   484.0    5.672      47.505
2015    5        2     3   5    5.1207   484.0    5.668      47.506
2015    5        2     3  11    5.1183   484.1    5.663      47.506
2015    5        2     3  16    5.1159   484.2    5.658      47.507
2015    5        2     3  22    5.1135   484.3    5.653      47.507
2015    5        2     3  28    5.1110   484.4    5.649      47.507
2015    5        2     3  34    5.1086   484.5    5.644      47.508
2015    5        2     3  40    5.1061   484.6    5.639      47.507
2015    5        2     3  46    5.1037   484.7    5.635      47.507
2015    5        2     3  52    5.1012   484.8    5.630      47.507
2015    5        2     3  57    5.0988   484.9    5.625      47.507
2015    5        2     4   3    5.0963   484.9    5.621      47.506
2015    5        2     4   9    5.0938   485.0    5.616      47.506
2015    5        2     4  15    5.0914   485.1    5.612      47.505
2015    5        2     4  21    5.0889   485.2    5.607      47.505
2015    5        2     4  27    5.0864   485.3    5.603      47.504
2015    5        2     4  33    5.0840   485.4    5.598      47.503
2015    5        2     4  39    5.0815   485.5    5.594      47.503
2015    5        2     4  44    5.0790   485.5    5.589      47.502
2015    5        2     4  50    5.0765   485.6    5.585      47.502
2015    5        2     4  56    5.0740   485.7    5.580      47.501
2015    5        2     5   2    5.0716   485.8    5.576      47.501
2015    5        2     5   8    5.0691   485.9    5.572      47.500
2015    5        2     5  14    5.0666   486.0    5.568      47.499
2015    5        2     5  20    5.0641   486.1    5.563      47.499
2015    5        2     5  26    5.0616   486.1    5.559      47.499
2015    5        2     5  31    5.0591   486.2    5.555      47.498
2015    5        2     5  37    5.0567   486.3    5.551      47.498
2015    5        2     5  43    5.0542   486.4    5.547      47.498
2015    5        2     5  49    5.0517   486.5    5.543      47.498
2015    5        2     5  55    5.0492   486.6    5.539      47.497
2015    5        2     6   1    5.0467   486.6    5.535      47.497
2015    5        2     6   7    5.0442   486.7    5.531      47.497
2015    5        2     6  13    5.0417   486.8    5.527      47.497
2015    5        2     6  18    5.0392   486.9    5.523      47.497
2015    5        2     6  24    5.0367   487.0    5.518      47.497
2015    5        2     6  30    5.0342   487.0    5.514      47.497
2015    5        2     6  36    5.0317   487.1    5.510      47.498
2015    5        2     6  42    5.0292   487.2    5.506      47.498
2015    5        2     6  48    5.0267   487.3    5.502      47.498
2015    5        2     6  54    5.0241   487.4    5.498      47.498
2015    5        2     7   0    5.0216   487.4    5.494      47.497
2015    5        2     7   5    5.0190   487.5    5.490      47.497
2015    5        2     7  11    5.0165   487.6    5.486      47.496
2015    5        2     7  17    5.0139   487.7    5.481      47.495
2015    5        2     7  23    5.0113   487.8    5.477      47.494
2015    5        2     7  29    5.0087   487.8    5.473      47.492
2015    5        2     7  35    5.0061   487.9    5.469      47.491
2015    5        2     7  41    5.0035   488.0    5.464      47.489
2015    5        2     7  46    5.0009   488.1    5.460      47.487
2015    5        2     7  52    4.9983   488.1    5.455      47.485
2015    5        2     7  58    4.9957   488.2    5.451      47.482
2015    5        2     8   4    4.9930   488.3    5.447      47.479
2015    5        2     8  10    4.9904   488.4    5.442      47.476
2015    5        2     8  16    4.9877   488.4    5.438      47.473
2015    5        2     8  22    4.9851   488.5    5.433      47.470
2015    5        2     8  28    4.9824   488.6    5.429      47.466
2015    5        2     8  33    4.9797   488.6    5.424      47.462
2015    5        2     8  39    4.9770   488.7    5.420      47.458
2015    5        2     8  45    4.9743   488.8    5.415      47.453
2015    5        2     8  51    4.9716   488.9    5.411      47.449
2015    5        2     8  57    4.9689   488.9    5.406      47.444
2015    5        2     9   3    4.9662   489.0    5.402      47.439
2015    5        2     9   9    4.9634   489.1    5.397      47.433
2015    5        2     9  15    4.9607   489.1    5.393      47.428
2015    5        2     9  20    4.9580   489.2    5.388      47.422
2015    5        2     9  26    4.9552   489.3    5.384      47.416
2015    5        2     9  32    4.9524   489.3    5.379      47.410
2015    5        2     9  38    4.9497   489.4    5.375      47.404
2015    5        2     9  44    4.9469   489.5    5.370      47.397
2015    5        2     9  50    4.9441   489.5    5.366      47.391
2015    5        2     9  56    4.9413   489.6    5.361      47.384
2015    5        2    10   2    4.9385   489.7    5.357      47.377
2015    5        2    10   7    4.9357   489.7    5.352      47.371
2015    5        2    10  13    4.9329   489.8    5.348      47.364
2015    5        2    10  19    4.9300   489.9    5.344      47.357
2015    5        2    10  25    4.9272   489.9    5.339      47.350
2015    5        2    10  31    4.9244   490.0    5.335      47.343
2015    5        2    10  37    4.9215   490.0    5.331      47.336
2015    5        2    10  43    4.9187   490.1    5.326      47.329
2015    5        2    10  49    4.9158   490.2    5.322      47.322
2015    5        2    10  54    4.9130   490.2    5.318      47.316
2015    5        2    11   0    4.9101   490.3    5.314      47.309
2015    5        2    11   6    4.9073   490.4    5.309      47.302
2015    5        2    11  12    4.9044   490.4    5.305      47.295
2015    5        2    11  18    4.9016   490.5    5.301      47.289
2015    5        2    11  24    4.8987   490.5    5.297      47.282
2015    5        2    11  30    4.8959   490.6    5.293      47.276
2015    5        2    11  35    4.8930   490.6    5.289      47.270
2015    5        2    11  41    4.8902   490.7    5.285      47.263
2015    5        2    11  47    4.8874   490.8    5.281      47.257
2015    5        2    11  53    4.8845   490.8    5.277      47.251
2015    5        2    11  59    4.8817   490.9    5.273      47.245
2015    5        2    12   5    4.8789   490.9    5.269      47.239
2015    5        2    12  11    4.8761   491.0    5.265      47.234
2015    5        2    12  17    4.8733   491.0    5.261      47.228
2015    5        2    12  22    4.8705   491.1    5.257      47.222
2015    5        2    12  28    4.8677   491.2    5.253      47.216
2015    5        2    12  34    4.8649   491.2    5.249      47.211
2015    5        2    12  40    4.8621   491.3    5.245      47.205
2015    5        2    12  46    4.8593   491.3    5.241      47.199
2015    5        2    12  52    4.8565   491.4    5.237      47.193
2015    5        2    12  58    4.8538   491.4    5.233      47.187
2015    5        2    13   4    4.8510   491.5    5.229      47.181
2015    5        2    13   9    4.8482   491.5    5.225      47.174
2015    5        2    13  15    4.8455   491.6    5.221      47.168
2015    5        2    13  21    4.8427   491.6    5.217      47.161
2015    5        2    13  27    4.8400   491.7    5.213      47.154
2015    5        2    13  33    4.8373   491.7    5.209      47.147
2015    5        2    13  39    4.8345   491.8    5.205      47.139
2015    5        2    13  45    4.8318   491.8    5.201      47.131
2015    5        2    13  51    4.8291   491.9    5.197      47.123
2015    5        2    13  56    4.8264   491.9    5.193      47.115
2015    5        2    14   2    4.8237   492.0    5.188      47.107
2015    5        2    14   8    4.8210   492.0    5.184      47.098
2015    5        2    14  14    4.8183   492.1    5.180      47.089
2015    5        2    14  20    4.8156   492.1    5.176      47.080
2015    5        2    14  26    4.8129   492.1    5.172      47.071
2015    5        2    14  32    4.8102   492.2    5.168      47.061
2015    5        2    14  38    4.8075   492.2    5.164      47.051
2015    5        2    14  43    4.8048   492.3    5.160      47.041
2015    5        2    14  49    4.8021   492.3    5.156      47.031
2015    5        2    14  55    4.7994   492.4    5.152      47.020
2015    5        2    15   1    4.7966   492.4    5.148      47.009
2015    5        2    15   7    4.7939   492.4    5.143      46.998
2015    5        2    15  13    4.7912   492.5    5.139      46.986
2015    5        2    15  19    4.7885   492.5    5.135      46.975
2015    5        2    15  24    4.7857   492.6    5.131      46.963
2015    5        2    15  30    4.7830   492.6    5.127      46.952
2015    5        2    15  36    4.7802   492.6    5.124      46.940
2015    5        2    15  42    4.7775   492.7    5.120      46.928
2015    5        2    15  48    4.7748   492.7    5.116      46.916
2015    5        2    15  54    4.7720   492.8    5.112      46.903
2015    5        2    16   0    4.7692   492.8    5.108      46.891
2015    5        2    16   6    4.7664   492.8    5.104      46.879
2015    5        2    16  11    4.7637   492.9    5.100      46.866
2015    5        2    16  17    4.7609   492.9    5.097      46.854
2015    5        2    16  23    4.7581   492.9    5.093      46.841
2015    5        2    16  29    4.7553   493.0    5.089      46.829
2015    5        2    16  35    4.7524   493.0    5.086      46.816
2015    5        2    16  41    4.7496   493.0    5.082      46.804
2015    5        2    16  47    4.7468   493.1    5.078      46.791
2015    5        2    16  53    4.7440   493.1    5.075      46.778
2015    5        2    16  58    4.7411   493.1    5.071      46.766
2015    5        2    17   4    4.7383   493.2    5.067      46.753
2015    5        2    17  10    4.7355   493.2    5.064      46.740
2015    5        2    17  16    4.7326   493.2    5.060      46.728
2015    5        2    17  22    4.7297   493.3    5.057      46.715
2015    5        2    17  28    4.7269   493.3    5.053      46.703
2015    5        2    17  34    4.7240   493.3    5.050      46.690
2015    5        2    17  40    4.7212   493.3    5.046      46.678
2015    5        2    17  45    4.7183   493.4    5.043      46.665
2015    5        2    17  51    4.7154   493.4    5.039      46.653
2015    5        2    17  57    4.7126   493.4    5.036      46.640
2015    5        2    18   3    4.7097   493.4    5.033      46.628
2015    5        2    18   9    4.7069   493.5    5.029      46.615
2015    5        2    18  15    4.7040   493.5    5.026      46.603
2015    5        2    18  21    4.7012   493.5    5.022      46.590
2015    5        2    18  27    4.6983   493.5    5.019      46.578
2015    5        2    18  32    4.6955   493.5    5.015      46.566
2015    5        2    18  38    4.6927   493.6    5.012      46.553
2015    5        2    18  44    4.6898   493.6    5.008      46.541
2015    5        2    18  50    4.6871   493.6    5.005      46.528
2015    5        2    18  56    4.6842   493.6    5.002      46.516
2015    5        2    19   2    4.6815   493.6    4.998      46.503
2015    5        2    19   8    4.6787   493.6    4.995      46.490
2015    5        2    19  13    4.6759   493.7    4.991      46.478
2015    5        2    19  19    4.6732   493.7    4.988      46.465
2015    5        2    19  25    4.6705   493.7    4.985      46.452
2015    5        2    19  31    4.6677   493.7    4.981      46.439
2015    5        2    19  37    4.6651   493.7    4.978      46.425
2015    5        2    19  43    4.6624   493.7    4.974      46.412
2015    5        2    19  49    4.6597   493.7    4.971      46.398
2015    5        2    19  55    4.6571   493.8    4.967      46.384
2015    5        2    20   0    4.6544   493.8    4.964      46.370
2015    5        2    20   6    4.6518   493.8    4.961      46.356
2015    5        2    20  12    4.6492   493.8    4.957      46.342
2015    5        2    20  18    4.6467   493.8    4.954      46.328
2015    5        2    20  24    4.6441   493.8    4.950      46.313
2015    5        2    20  30    4.6415   493.8    4.947      46.298
2015    5        2    20  36    4.6390   493.8    4.943      46.283
2015    5        2    20  42    4.6365   493.9    4.940      46.267
2015    5        2    20  47    4.6340   493.9    4.937      46.252
2015    5        2    20  53    4.6315   493.9    4.933      46.236
2015    5        2    20  59    4.6291   493.9    4.930      46.220
2015    5        2    21   5    4.6266   493.9    4.927      46.204
2015    5        2    21  11    4.6242   493.9    4.923      46.188
2015    5        2    21  17    4.6218   493.9    4.920      46.171
2015    5        2    21  23    4.6193   493.9    4.917      46.155
2015    5        2    21  29    4.6169   493.9    4.913      46.138
2015    5        2    21  34    4.6145   493.9    4.910      46.122
2015    5        2    21  40    4.6121   494.0    4.907      46.105
2015    5        2    21  46    4.6097   494.0    4.904      46.089
2015    5        2    21  52    4.6073   494.0    4.901      46.072
2015    5        2    21  58    4.6049   494.0    4.898      46.055
2015    5        2    22   4    4.6025   494.0    4.895      46.039
2015    5        2    22  10    4.6002   494.0    4.891      46.022
2015    5        2    22  16    4.5978   494.0    4.888      46.006
2015    5        2    22  21    4.5954   494.0    4.886      45.989
2015    5        2    22  27    4.5930   494.0    4.883      45.973
2015    5        2    22  33    4.5906   494.0    4.880      45.957
2015    5        2    22  39    4.5881   494.0    4.877      45.941
2015    5        2    22  45    4.5857   494.0    4.874      45.925
2015    5        2    22  51    4.5833   494.0    4.871      45.910
2015    5        2    22  57    4.5809   494.0    4.869      45.895
2015    5        2    23   2    4.5785   494.0    4.866      45.879
2015    5        2    23   8    4.5761   494.1    4.863      45.864
2015    5        2    23  14    4.5736   494.1    4.861      45.850
2015    5        2    23  20    4.5712   494.1    4.858      45.835
2015    5        2    23  26    4.5688   494.1    4.856      45.821
2015    5        2    23  32    4.5663   494.1    4.853      45.807
2015    5        2    23  38    4.5639   494.1    4.851      45.793
2015    5        2    23  44    4.5614   494.1    4.848      45.779
2015    5        2    23  49    4.5589   494.1    4.846      45.766
2015    5        2    23  55    4.5565   494.1    4.844      45.752
2015    5        3     0   1    4.5540   494.1    4.841      45.739
2015    5        3     0   7    4.5515   494.1    4.839      45.727
2015    5        3     0  13    4.5490   494.1    4.837      45.714
2015    5        3     0  19    4.5465   494.1    4.835      45.701
2015    5        3     0  25    4.5441   494.1    4.832      45.688
2015    5        3     0  31    4.5416   494.1    4.830      45.676
2015    5        3     0  36    4.5391   494.1    4.828      45.663
2015    5        3     0  42    4.5366   494.1    4.826      45.651
2015    5        3     0  48    4.5341   494.1    4.824      45.638
2015    5        3     0  54    4.5316   494.1    4.821      45.626
2015    5        3     1   0    4.5291   494.1    4.819      45.613
2015    5        3     1   6    4.5266   494.1    4.817      45.601
2015    5        3     1  12    4.5241   494.1    4.815      45.588
2015    5        3     1  18    4.5217   494.0    4.813      45.575
2015    5        3     1  23    4.5192   494.0    4.811      45.561
2015    5        3     1  29    4.5167   494.0    4.808      45.548
2015    5        3     1  35    4.5142   494.0    4.806      45.533
2015    5        3     1  41    4.5118   494.0    4.804      45.519
2015    5        3     1  47    4.5093   494.0    4.802      45.504
2015    5        3     1  53    4.5069   494.0    4.800      45.489
2015    5        3     1  59    4.5044   494.0    4.797      45.473
2015    5        3     2   5    4.5020   494.0    4.795      45.456
2015    5        3     2  10    4.4996   493.9    4.793      45.440
2015    5        3     2  16    4.4972   493.9    4.791      45.422
2015    5        3     2  22    4.4948   493.9    4.788      45.404
2015    5        3     2  28    4.4924   493.9    4.786      45.386
2015    5        3     2  34    4.4901   493.9    4.784      45.368
2015    5        3     2  40    4.4878   493.9    4.781      45.349
2015    5        3     2  46    4.4854   493.8    4.779      45.330
2015    5        3     2  51    4.4831   493.8    4.777      45.310
2015    5        3     2  57    4.4808   493.8    4.774      45.290
2015    5        3     3   3    4.4785   493.8    4.772      45.270
2015    5        3     3   9    4.4763   493.8    4.770      45.249
2015    5        3     3  15    4.4740   493.7    4.767      45.229
2015    5        3     3  21    4.4718   493.7    4.765      45.208
2015    5        3     3  27    4.4696   493.7    4.763      45.186
2015    5        3     3  33    4.4674   493.7    4.760      45.165
2015    5        3     3  38    4.4652   493.6    4.758      45.143
2015    5        3     3  44    4.4630   493.6    4.756      45.121
2015    5        3     3  50    4.4609   493.6    4.753      45.099
2015    5        3     3  56    4.4587   493.6    4.751      45.077
2015    5        3     4   2    4.4566   493.5    4.749      45.055
2015    5        3     4   8    4.4545   493.5    4.746      45.032
2015    5        3     4  14    4.4524   493.5    4.744      45.010
2015    5        3     4  20    4.4503   493.5    4.742      44.988
2015    5        3     4  25    4.4483   493.4    4.740      44.966
2015    5        3     4  31    4.4462   493.4    4.738      44.944
2015    5        3     4  37    4.4441   493.4    4.736      44.922
2015    5        3     4  43    4.4421   493.4    4.734      44.901
2015    5        3     4  49    4.4401   493.3    4.732      44.880
2015    5        3     4  55    4.4380   493.3    4.730      44.858
2015    5        3     5   1    4.4360   493.3    4.728      44.837
2015    5        3     5   7    4.4340   493.3    4.726      44.817
2015    5        3     5  12    4.4320   493.2    4.724      44.797
2015    5        3     5  18    4.4300   493.2    4.722      44.777
2015    5        3     5  24    4.4280   493.2    4.720      44.757
2015    5        3     5  30    4.4259   493.2    4.718      44.738
2015    5        3     5  36    4.4239   493.1    4.717      44.719
2015    5        3     5  42    4.4219   493.1    4.715      44.700
2015    5        3     5  48    4.4199   493.1    4.713      44.682
2015    5        3     5  54    4.4179   493.1    4.712      44.664
2015    5        3     5  59    4.4159   493.0    4.710      44.647
2015    5        3     6   5    4.4139   493.0    4.709      44.630
2015    5        3     6  11    4.4118   493.0    4.707      44.613
2015    5        3     6  17    4.4098   493.0    4.706      44.597
2015    5        3     6  23    4.4078   492.9    4.704      44.581
2015    5        3     6  29    4.4058   492.9    4.703      44.566
2015    5        3     6  35    4.4037   492.9    4.701      44.550
2015    5        3     6  40    4.4017   492.9    4.700      44.535
2015    5        3     6  46    4.3997   492.8    4.699      44.521
2015    5        3     6  52    4.3976   492.8    4.697      44.507
2015    5        3     6  58    4.3956   492.8    4.696      44.492
2015    5        3     7   4    4.3935   492.8    4.695      44.479
2015    5        3     7  10    4.3915   492.7    4.694      44.465
2015    5        3     7  16    4.3894   492.7    4.692      44.452
2015    5        3     7  22    4.3874   492.7    4.691      44.438
2015    5        3     7  27    4.3853   492.7    4.690      44.425
2015    5        3     7  33    4.3833   492.6    4.689      44.412
2015    5        3     7  39    4.3812   492.6    4.687      44.399
2015    5        3     7  45    4.3792   492.6    4.686      44.386
2015    5        3     7  51    4.3771   492.6    4.685      44.374
2015    5        3     7  57    4.3751   492.5    4.684      44.361
2015    5        3     8   3    4.3730   492.5    4.683      44.348
2015    5        3     8   9    4.3710   492.5    4.682      44.335
2015    5        3     8  14    4.3690   492.4    4.681      44.322
2015    5        3     8  20    4.3670   492.4    4.679      44.309
2015    5        3     8  26    4.3650   492.4    4.678      44.295
2015    5        3     8  32    4.3629   492.4    4.677      44.281
2015    5        3     8  38    4.3609   492.3    4.676      44.267
2015    5        3     8  44    4.3590   492.3    4.675      44.253
2015    5        3     8  50    4.3570   492.3    4.674      44.238
2015    5        3     8  56    4.3550   492.2    4.673      44.222
2015    5        3     9   1    4.3531   492.2    4.671      44.206
2015    5        3     9   7    4.3511   492.2    4.670      44.190
2015    5        3     9  13    4.3492   492.2    4.669      44.173
2015    5        3     9  19    4.3473   492.1    4.668      44.156
2015    5        3     9  25    4.3454   492.1    4.667      44.139
2015    5        3     9  31    4.3435   492.1    4.666      44.120
2015    5        3     9  37    4.3417   492.0    4.665      44.102
2015    5        3     9  43    4.3398   492.0    4.664      44.083
2015    5        3     9  48    4.3380   492.0    4.663      44.064
2015    5        3     9  54    4.3361   491.9    4.662      44.045
2015    5        3    10   0    4.3343   491.9    4.661      44.025
2015    5        3    10   6    4.3324   491.8    4.660      44.006
2015    5        3    10  12    4.3306   491.8    4.659      43.986
2015    5        3    10  18    4.3288   491.8    4.658      43.966
2015    5        3    10  24    4.3270   491.7    4.657      43.945
2015    5        3    10  29    4.3252   491.7    4.656      43.925
2015    5        3    10  35    4.3233   491.7    4.655      43.905
2015    5        3    10  41    4.3215   491.6    4.654      43.884
2015    5        3    10  47    4.3197   491.6    4.653      43.864
2015    5        3    10  53    4.3179   491.5    4.652      43.843
2015    5        3    10  59    4.3161   491.5    4.651      43.823
2015    5        3    11   5    4.3142   491.5    4.651      43.803
2015    5        3    11  11    4.3124   491.4    4.650      43.782
2015    5        3    11  16    4.3105   491.4    4.649      43.762
2015    5        3    11  22    4.3087   491.3    4.648      43.742
2015    5        3    11  28    4.3068   491.3    4.648      43.722
2015    5        3    11  34    4.3049   491.2    4.647      43.702
2015    5        3    11  40    4.3030   491.2    4.646      43.682
2015    5        3    11  46    4.3011   491.2    4.646      43.662
2015    5        3    11  52    4.2992   491.1    4.645      43.642
2015    5        3    11  58    4.2973   491.1    4.644      43.622
2015    5        3    12   3    4.2954   491.0    4.644      43.602
2015    5        3    12   9    4.2935   491.0    4.643      43.582
2015    5        3    12  15    4.2916   490.9    4.642      43.562
2015    5        3    12  21    4.2897   490.9    4.641      43.542
2015    5        3    12  27    4.2878   490.8    4.640      43.522
2015    5        3    12  33    4.2859   490.8    4.640      43.501
2015    5        3    12  39    4.2840   490.7    4.639      43.481
2015    5        3    12  45    4.2821   490.7    4.638      43.461
2015    5        3    12  50    4.2801   490.6    4.637      43.440
2015    5        3    12  56    4.2782   490.6    4.636      43.420
2015    5        3    13   2    4.2763   490.5    4.635      43.399
2015    5        3    13   8    4.2744   490.5    4.634      43.379
2015    5        3    13  14    4.2724   490.4    4.633      43.358
2015    5        3    13  20    4.2705   490.4    4.632      43.337
2015    5        3    13  26    4.2686   490.3    4.631      43.317
2015    5        3    13  32    4.2667   490.3    4.630      43.296
2015    5        3    13  38    4.2648   490.2    4.630      43.275
2015    5        3    13  43    4.2628   490.2    4.629      43.255
2015    5        3    13  49    4.2609   490.1    4.628      43.233
2015    5        3    13  55    4.2590   490.1    4.626      43.212
2015    5        3    14   1    4.2571   490.0    4.625      43.191
2015    5        3    14   7    4.2552   490.0    4.624      43.170
2015    5        3    14  13    4.2533   489.9    4.623      43.149
2015    5        3    14  19    4.2514   489.9    4.622      43.128
2015    5        3    14  25    4.2495   489.8    4.621      43.107
2015    5        3    14  31    4.2477   489.8    4.620      43.085
2015    5        3    14  37    4.2458   489.7    4.619      43.064
2015    5        3    14  42    4.2440   489.7    4.618      43.042
2015    5        3    14  48    4.2422   489.6    4.617      43.021
2015    5        3    14  54    4.2403   489.6    4.616      42.999
2015    5        3    15   0    4.2385   489.5    4.615      42.977
2015    5        3    15   6    4.2368   489.5    4.613      42.955
2015    5        3    15  12    4.2350   489.4    4.612      42.933
2015    5        3    15  18    4.2332   489.4    4.611      42.911
2015    5        3    15  24    4.2315   489.3    4.610      42.889
2015    5        3    15  29    4.2298   489.3    4.609      42.867
2015    5        3    15  35    4.2281   489.2    4.608      42.845
2015    5        3    15  41    4.2264   489.2    4.606      42.822
2015    5        3    15  47    4.2247   489.1    4.605      42.800
2015    5        3    15  53    4.2231   489.1    4.604      42.777
2015    5        3    15  59    4.2214   489.0    4.603      42.755
2015    5        3    16   5    4.2198   489.0    4.602      42.732
2015    5        3    16  11    4.2182   488.9    4.601      42.709
2015    5        3    16  16    4.2166   488.9    4.599      42.686
2015    5        3    16  22    4.2150   488.8    4.598      42.663
2015    5        3    16  28    4.2135   488.7    4.597      42.641
2015    5        3    16  34    4.2119   488.7    4.596      42.617
2015    5        3    16  40    4.2104   488.6    4.595      42.595
2015    5        3    16  46    4.2088   488.6    4.594      42.572
2015    5        3    16  52    4.2073   488.5    4.593      42.549
2015    5        3    16  58    4.2057   488.5    4.592      42.526
2015    5        3    17   3    4.2041   488.4    4.591      42.503
2015    5        3    17   9    4.2026   488.4    4.590      42.480
2015    5        3    17  15    4.2010   488.3    4.589      42.457
2015    5        3    17  21    4.1994   488.3    4.589      42.435
2015    5        3    17  27    4.1978   488.2    4.588      42.413
2015    5        3    17  33    4.1962   488.2    4.587      42.390
2015    5        3    17  39    4.1946   488.1    4.586      42.368
2015    5        3    17  44    4.1929   488.0    4.586      42.346
2015    5        3    17  50    4.1913   488.0    4.585      42.324
2015    5        3    17  56    4.1897   487.9    4.585      42.303
2015    5        3    18   2    4.1880   487.9    4.584      42.282
2015    5        3    18   8    4.1863   487.8    4.584      42.260
2015    5        3    18  14    4.1846   487.8    4.583      42.239
2015    5        3    18  20    4.1828   487.7    4.583      42.218
2015    5        3    18  25    4.1811   487.7    4.582      42.197
2015    5        3    18  31    4.1793   487.6    4.582      42.176
2015    5        3    18  37    4.1775   487.6    4.582      42.155
2015    5        3    18  43    4.1757   487.5    4.581      42.135
2015    5        3    18  49    4.1739   487.4    4.581      42.114
2015    5        3    18  55    4.1720   487.4    4.581      42.093
2015    5        3    19   1    4.1702   487.3    4.580      42.072
2015    5        3    19   6    4.1683   487.3    4.580      42.050
2015    5        3    19  12    4.1664   487.2    4.580      42.029
2015    5        3    19  18    4.1645   487.2    4.579      42.007
2015    5        3    19  24    4.1626   487.1    4.579      41.985
2015    5        3    19  30    4.1607   487.0    4.578      41.962
2015    5        3    19  36    4.1587   487.0    4.578      41.939
2015    5        3    19  42    4.1568   486.9    4.577      41.916
2015    5        3    19  47    4.1549   486.8    4.577      41.892
2015    5        3    19  53    4.1529   486.8    4.576      41.868
2015    5        3    19  59    4.1510   486.7    4.575      41.843
2015    5        3    20   5    4.1490   486.6    4.575      41.818
2015    5        3    20  11    4.1471   486.5    4.574      41.794
2015    5        3    20  17    4.1451   486.5    4.574      41.768
2015    5        3    20  23    4.1432   486.4    4.573      41.743
2015    5        3    20  28    4.1413   486.3    4.573      41.717
2015    5        3    20  34    4.1394   486.3    4.572      41.692
2015    5        3    20  40    4.1375   486.2    4.572      41.666
2015    5        3    20  46    4.1356   486.1    4.571      41.640
2015    5        3    20  52    4.1337   486.0    4.571      41.614
2015    5        3    20  58    4.1319   486.0    4.570      41.589
2015    5        3    21   4    4.1300   485.9    4.570      41.563
2015    5        3    21  10    4.1282   485.8    4.570      41.538
2015    5        3    21  15    4.1265   485.7    4.570      41.513
2015    5        3    21  21    4.1247   485.7    4.569      41.487
2015    5        3    21  27    4.1230   485.6    4.569      41.462
2015    5        3    21  33    4.1213   485.5    4.569      41.438
2015    5        3    21  39    4.1196   485.4    4.569      41.413
2015    5        3    21  45    4.1180   485.3    4.570      41.389
2015    5        3    21  51    4.1164   485.3    4.570      41.364
2015    5        3    21  57    4.1148   485.2    4.570      41.341
2015    5        3    22   2    4.1133   485.1    4.570      41.318
2015    5        3    22   8    4.1117   485.0    4.570      41.295
2015    5        3    22  14    4.1102   485.0    4.571      41.272
2015    5        3    22  20    4.1087   484.9    4.571      41.250
2015    5        3    22  26    4.1072   484.8    4.571      41.228
2015    5        3    22  32    4.1057   484.7    4.571      41.205
2015    5        3    22  38    4.1043   484.7    4.571      41.183
2015    5        3    22  44    4.1028   484.6    4.571      41.160
2015    5        3    22  50    4.1013   484.5    4.570      41.136
2015    5        3    22  55    4.0998   484.4    4.570      41.113
2015    5        3    23   1    4.0983   484.3    4.570      41.089
2015    5        3    23   7    4.0968   484.3    4.569      41.065
2015    5        3    23  13    4.0953   484.2    4.569      41.041
2015    5        3    23  19    4.0937   484.1    4.568      41.016
2015    5        3    23  25    4.0922   484.0    4.568      40.991
2015    5        3    23  31    4.0907   484.0    4.567      40.965
2015    5        3    23  37    4.0892   483.9    4.567      40.939
2015    5        3    23  42    4.0876   483.8    4.566      40.913
2015    5        3    23  48    4.0861   483.7    4.565      40.887
2015    5        3    23  54    4.0845   483.6    4.564      40.861
2015    5        4     0   0    4.0829   483.6    4.563      40.834
2015    5        4     0   6    4.0813   483.5    4.563      40.807
2015    5        4     0  12    4.0797   483.4    4.562      40.780
2015    5        4     0  18    4.0781   483.3    4.561      40.753
2015    5        4     0  23    4.0764   483.2    4.560      40.725
2015    5        4     0  29    4.0748   483.2    4.559      40.698
2015    5        4     0  35    4.0731   483.1    4.558      40.670
2015    5        4     0  41    4.0714   483.0    4.557      40.642
2015    5        4     0  47    4.0697   482.9    4.556      40.614
2015    5        4     0  53    4.0680   482.8    4.555      40.587
2015    5        4     0  59    4.0663   482.8    4.554      40.559
2015    5        4     1   4    4.0646   482.7    4.553      40.531
2015    5        4     1  10    4.0628   482.6    4.552      40.503
2015    5        4     1  16    4.0611   482.5    4.551      40.475
2015    5        4     1  22    4.0593   482.4    4.550      40.446
2015    5        4     1  28    4.0576   482.3    4.549      40.418
2015    5        4     1  34    4.0558   482.3    4.548      40.390
2015    5        4     1  40    4.0540   482.2    4.547      40.361
2015    5        4     1  45    4.0522   482.1    4.546      40.333
2015    5        4     1  51    4.0504   482.0    4.544      40.304
2015    5        4     1  57    4.0486   481.9    4.543      40.275
2015    5        4     2   3    4.0468   481.8    4.542      40.246
2015    5        4     2   9    4.0449   481.8    4.541      40.217
2015    5        4     2  15    4.0431   481.7    4.540      40.187
2015    5        4     2  20    4.0413   481.6    4.539      40.157
2015    5        4     2  26    4.0394   481.5    4.538      40.127
2015    5        4     2  32    4.0376   481.4    4.537      40.097
2015    5        4     2  38    4.0358   481.3    4.535      40.067
2015    5        4     2  44    4.0339   481.2    4.534      40.036
2015    5        4     2  50    4.0321   481.1    4.533      40.006
2015    5        4     2  56    4.0303   481.0    4.532      39.975
2015    5        4     3   1    4.0284   480.9    4.531      39.944
2015    5        4     3   7    4.0266   480.8    4.530      39.913
2015    5        4     3  13    4.0248   480.7    4.529      39.881
2015    5        4     3  19    4.0229   480.7    4.527      39.850
2015    5        4     3  25    4.0211   480.6    4.526      39.818
2015    5        4     3  31    4.0193   480.5    4.525      39.787
2015    5        4     3  36    4.0175   480.4    4.524      39.755
2015    5        4     3  42    4.0157   480.3    4.523      39.723
2015    5        4     3  48    4.0139   480.2    4.523      39.692
2015    5        4     3  54    4.0122   480.1    4.522      39.660
2015    5        4     4   0    4.0104   480.0    4.521      39.629
2015    5        4     4   6    4.0087   479.9    4.520      39.598
2015    5        4     4  11    4.0070   479.7    4.520      39.568
2015    5        4     4  17    4.0053   479.6    4.520      39.537
2015    5        4     4  23    4.0037   479.5    4.519      39.508
2015    5        4     4  29    4.0020   479.4    4.519      39.478
2015    5        4     4  35    4.0004   479.3    4.519      39.449
2015    5        4     4  41    3.9989   479.2    4.519      39.420
2015    5        4     4  46    3.9973   479.1    4.519      39.392
2015    5        4     4  52    3.9958   479.0    4.519      39.365
2015    5        4     4  58    3.9943   478.9    4.520      39.338
2015    5        4     5   4    3.9928   478.8    4.520      39.312
2015    5        4     5  10    3.9914   478.7    4.521      39.286
2015    5        4     5  16    3.9900   478.6    4.522      39.261
2015    5        4     5  21    3.9886   478.5    4.523      39.237
2015    5        4     5  27    3.9872   478.4    4.524      39.214
2015    5        4     5  33    3.9859   478.3    4.525      39.191
2015    5        4     5  39    3.9845   478.2    4.526      39.168
2015    5        4     5  45    3.9831   478.1    4.527      39.146
2015    5        4     5  51    3.9817   478.0    4.527      39.123
2015    5        4     5  56    3.9804   477.9    4.528      39.101
2015    5        4     6   2    3.9790   477.8    4.529      39.078
2015    5        4     6   8    3.9775   477.7    4.530      39.056
2015    5        4     6  14    3.9761   477.6    4.531      39.033
2015    5        4     6  20    3.9747   477.5    4.532      39.010
2015    5        4     6  26    3.9733   477.4    4.533      38.986
2015    5        4     6  31    3.9718   477.3    4.534      38.963
2015    5        4     6  37    3.9703   477.2    4.535      38.939
2015    5        4     6  43    3.9688   477.1    4.536      38.915
2015    5        4     6  49    3.9673   477.0    4.537      38.891
2015    5        4     6  55    3.9657   476.9    4.537      38.867
2015    5        4     7   1    3.9642   476.8    4.538      38.842
2015    5        4     7   6    3.9626   476.7    4.539      38.817
2015    5        4     7  12    3.9610   476.6    4.540      38.792
2015    5        4     7  18    3.9594   476.4    4.540      38.767
2015    5        4     7  24    3.9578   476.3    4.541      38.741
2015    5        4     7  30    3.9562   476.2    4.541      38.715
2015    5        4     7  36    3.9545   476.1    4.542      38.689
2015    5        4     7  41    3.9529   476.0    4.543      38.663
2015    5        4     7  47    3.9512   475.9    4.543      38.637
2015    5        4     7  53    3.9496   475.8    4.543      38.610
2015    5        4     7  59    3.9480   475.7    4.544      38.583
2015    5        4     8   5    3.9463   475.6    4.544      38.556
2015    5        4     8  10    3.9447   475.4    4.545      38.529
2015    5        4     8  16    3.9430   475.3    4.545      38.502
2015    5        4     8  22    3.9414   475.2    4.545      38.475
2015    5        4     8  28    3.9397   475.1    4.546      38.447
2015    5        4     8  34    3.9381   475.0    4.546      38.420
2015    5        4     8  39    3.9365   474.9    4.546      38.393
2015    5        4     8  45    3.9349   474.7    4.547      38.365
2015    5        4     8  51    3.9333   474.6    4.547      38.338
2015    5        4     8  57    3.9318   474.5    4.547      38.310
2015    5        4     9   3    3.9302   474.4    4.547      38.283
2015    5        4     9   9    3.9287   474.3    4.547      38.255
2015    5        4     9  14    3.9271   474.2    4.548      38.228
2015    5        4     9  20    3.9256   474.1    4.548      38.201
2015    5        4     9  26    3.9240   473.9    4.548      38.174
2015    5        4     9  32    3.9225   473.8    4.548      38.147
2015    5        4     9  38    3.9210   473.7    4.548      38.120
2015    5        4     9  43    3.9195   473.6    4.548      38.094
2015    5        4     9  49    3.9179   473.5    4.548      38.067
2015    5        4     9  55    3.9164   473.4    4.547      38.040
2015    5        4    10   1    3.9148   473.2    4.547      38.014
2015    5        4    10   7    3.9133   473.1    4.547      37.987
2015    5        4    10  12    3.9118   473.0    4.547      37.960
2015    5        4    10  18    3.9102   472.9    4.546      37.932
2015    5        4    10  24    3.9087   472.8    4.546      37.905
2015    5        4    10  30    3.9071   472.6    4.546      37.877
2015    5        4    10  36    3.9056   472.5    4.545      37.849
2015    5        4    10  42    3.9040   472.4    4.545      37.821
2015    5        4    10  47    3.9025   472.3    4.544      37.792
2015    5        4    10  53    3.9009   472.1    4.544      37.764
2015    5        4    10  59    3.8994   472.0    4.543      37.734
2015    5        4    11   5    3.8979   471.9    4.543      37.705
2015    5        4    11  11    3.8963   471.8    4.542      37.675
2015    5        4    11  16    3.8948   471.6    4.541      37.645
2015    5        4    11  22    3.8933   471.5    4.541      37.615
2015    5        4    11  28    3.8918   471.4    4.540      37.585
2015    5        4    11  34    3.8902   471.3    4.540      37.554
2015    5        4    11  40    3.8887   471.1    4.539      37.524
2015    5        4    11  45    3.8872   471.0    4.539      37.493
2015    5        4    11  51    3.8858   470.9    4.538      37.462
2015    5        4    11  57    3.8843   470.7    4.538      37.431
2015    5        4    12   3    3.8828   470.6    4.537      37.401
2015    5        4    12   9    3.8814   470.5    4.537      37.370
2015    5        4    12  14    3.8799   470.3    4.537      37.339
2015    5        4    12  20    3.8785   470.2    4.536      37.308
2015    5        4    12  26    3.8771   470.1    4.536      37.277
2015    5        4    12  32    3.8757   469.9    4.536      37.247
2015    5        4    12  38    3.8742   469.8    4.536      37.216
2015    5        4    12  44    3.8729   469.7    4.536      37.186
2015    5        4    12  49    3.8715   469.5    4.536      37.155
2015    5        4    12  55    3.8701   469.4    4.536      37.125
2015    5        4    13   1    3.8687   469.3    4.536      37.095
2015    5        4    13   7    3.8674   469.1    4.536      37.065
2015    5        4    13  13    3.8660   469.0    4.536      37.035
2015    5        4    13  18    3.8647   468.9    4.537      37.005
2015    5        4    13  24    3.8633   468.7    4.537      36.975
2015    5        4    13  30    3.8620   468.6    4.537      36.945
2015    5        4    13  36    3.8606   468.5    4.538      36.915
2015    5        4    13  42    3.8593   468.3    4.538      36.886
2015    5        4    13  47    3.8579   468.2    4.539      36.856
2015    5        4    13  53    3.8565   468.0    4.539      36.826
2015    5        4    13  59    3.8552   467.9    4.540      36.796
2015    5        4    14   5    3.8538   467.8    4.540      36.766
2015    5        4    14  11    3.8525   467.6    4.541      36.736
2015    5        4    14  16    3.8511   467.5    4.542      36.706
2015    5        4    14  22    3.8497   467.3    4.542      36.675
2015    5        4    14  28    3.8484   467.2    4.543      36.645
2015    5        4    14  34    3.8470   467.0    4.544      36.615
2015    5        4    14  40    3.8456   466.9    4.545      36.584
2015    5        4    14  46    3.8443   466.7    4.546      36.554
2015    5        4    14  51    3.8430   466.6    4.547      36.523
2015    5        4    14  57    3.8416   466.4    4.548      36.493
2015    5        4    15   3    3.8403   466.3    4.549      36.462
2015    5        4    15   9    3.8390   466.1    4.550      36.432
2015    5        4    15  15    3.8377   466.0    4.551      36.401
2015    5        4    15  20    3.8365   465.8    4.552      36.371
2015    5        4    15  26    3.8352   465.7    4.554      36.341
2015    5        4    15  32    3.8340   465.5    4.555      36.311
2015    5        4    15  38    3.8328   465.4    4.557      36.282
2015    5        4    15  44    3.8316   465.2    4.558      36.252
2015    5        4    15  49    3.8305   465.1    4.560      36.223
2015    5        4    15  55    3.8294   464.9    4.562      36.194
2015    5        4    16   1    3.8283   464.7    4.564      36.166
2015    5        4    16   7    3.8273   464.6    4.566      36.138
2015    5        4    16  13    3.8263   464.4    4.568      36.110
2015    5        4    16  19    3.8253   464.3    4.570      36.083
2015    5        4    16  24    3.8243   464.1    4.572      36.056
2015    5        4    16  30    3.8234   464.0    4.574      36.030
2015    5        4    16  36    3.8224   463.8    4.577      36.005
2015    5        4    16  42    3.8215   463.7    4.579      35.980
2015    5        4    16  48    3.8206   463.5    4.581      35.955
2015    5        4    16  54    3.8197   463.4    4.584      35.931
2015    5        4    16  59    3.8188   463.2    4.586      35.907
2015    5        4    17   5    3.8179   463.1    4.589      35.884
2015    5        4    17  11    3.8170   462.9    4.592      35.861
2015    5        4    17  17    3.8161   462.8    4.594      35.839
2015    5        4    17  23    3.8153   462.6    4.597      35.816
2015    5        4    17  28    3.8144   462.4    4.599      35.794
2015    5        4    17  34    3.8135   462.3    4.602      35.772
2015    5        4    17  40    3.8125   462.1    4.604      35.750
2015    5        4    17  46    3.8116   462.0    4.607      35.728
2015    5        4    17  52    3.8107   461.8    4.610      35.706
2015    5        4    17  58    3.8098   461.7    4.612      35.684
2015    5        4    18   3    3.8089   461.5    4.615      35.662
2015    5        4    18   9    3.8079   461.4    4.617      35.639
2015    5        4    18  15    3.8070   461.2    4.620      35.617
2015    5        4    18  21    3.8060   461.1    4.622      35.594
2015    5        4    18  27    3.8050   460.9    4.625      35.572
2015    5        4    18  33    3.8041   460.7    4.627      35.549
2015    5        4    18  39    3.8031   460.6    4.629      35.526
2015    5        4    18  44    3.8021   460.4    4.631      35.503
2015    5        4    18  50    3.8011   460.3    4.634      35.479
2015    5        4    18  56    3.8001   460.1    4.636      35.456
2015    5        4    19   2    3.7992   459.9    4.638      35.432
2015    5        4    19   8    3.7982   459.8    4.640      35.408
2015    5        4    19  14    3.7972   459.6    4.642      35.384
2015    5        4    19  20    3.7962   459.4    4.644      35.360
2015    5        4    19  25    3.7953   459.3    4.646      35.336
2015    5        4    19  31    3.7943   459.1    4.648      35.312
2015    5        4    19  37    3.7933   459.0    4.650      35.287
2015    5        4    19  43    3.7923   458.8    4.652      35.262
2015    5        4    19  49    3.7914   458.6    4.653      35.237
2015    5        4    19  55    3.7904   458.5    4.655      35.212
2015    5        4    20   1    3.7895   458.3    4.657      35.187
2015    5        4    20   6    3.7885   458.1    4.658      35.161
2015    5        4    20  12    3.7876   458.0    4.660      35.136
2015    5        4    20  18    3.7867   457.8    4.662      35.110
2015    5        4    20  24    3.7858   457.6    4.663      35.084
2015    5        4    20  30    3.7849   457.5    4.665      35.059
2015    5        4    20  36    3.7839   457.3    4.666      35.032
2015    5        4    20  42    3.7830   457.1    4.668      35.006
2015    5        4    20  48    3.7822   457.0    4.669      34.980
2015    5        4    20  53    3.7813   456.8    4.670      34.953
2015    5        4    20  59    3.7804   456.6    4.672      34.926
2015    5        4    21   5    3.7795   456.4    4.673      34.899
2015    5        4    21  11    3.7787   456.3    4.674      34.871
2015    5        4    21  17    3.7778   456.1    4.676      34.843
2015    5        4    21  23    3.7770   455.9    4.677      34.815
2015    5        4    21  29    3.7762   455.8    4.678      34.787
2015    5        4    21  35    3.7753   455.6    4.680      34.759
2015    5        4    21  40    3.7745   455.4    4.681      34.730
2015    5        4    21  46    3.7738   455.2    4.682      34.701
2015    5        4    21  52    3.7730   455.0    4.684      34.671
2015    5        4    21  58    3.7722   454.9    4.685      34.642
2015    5        4    22   4    3.7715   454.7    4.687      34.612
2015    5        4    22  10    3.7707   454.5    4.688      34.582
2015    5        4    22  16    3.7700   454.3    4.690      34.552
2015    5        4    22  22    3.7693   454.2    4.691      34.522
2015    5        4    22  27    3.7687   454.0    4.693      34.492
2015    5        4    22  33    3.7680   453.8    4.695      34.461
2015    5        4    22  39    3.7674   453.6    4.696      34.431
2015    5        4    22  45    3.7668   453.4    4.698      34.400
2015    5        4    22  51    3.7662   453.3    4.700      34.370
2015    5        4    22  57    3.7656   453.1    4.702      34.339
2015    5        4    23   3    3.7651   452.9    4.704      34.309
2015    5        4    23   9    3.7646   452.7    4.707      34.279
2015    5        4    23  15    3.7641   452.5    4.709      34.248
2015    5        4    23  20    3.7637   452.4    4.712      34.218
2015    5        4    23  26    3.7632   452.2    4.714      34.189
2015    5        4    23  32    3.7628   452.0    4.717      34.159
2015    5        4    23  38    3.7624   451.8    4.720      34.130
2015    5        4    23  44    3.7621   451.6    4.722      34.100
2015    5        4    23  50    3.7617   451.5    4.725      34.071
2015    5        4    23  56    3.7614   451.3    4.728      34.043
2015    5        5     0   2    3.7611   451.1    4.732      34.014
2015    5        5     0   8    3.7608   450.9    4.735      33.986
2015    5        5     0  13    3.7605   450.7    4.738      33.958
2015    5        5     0  19    3.7603   450.6    4.742      33.931
2015    5        5     0  25    3.7600   450.4    4.745      33.904
2015    5        5     0  31    3.7598   450.2    4.749      33.877
2015    5        5     0  37    3.7596   450.0    4.753      33.850
2015    5        5     0  43    3.7594   449.9    4.757      33.824
2015    5        5     0  49    3.7592   449.7    4.761      33.798
2015    5        5     0  55    3.7590   449.5    4.765      33.773
2015    5        5     1   1    3.7588   449.3    4.769      33.748
2015    5        5     1   6    3.7586   449.1    4.773      33.723
2015    5        5     1  12    3.7584   449.0    4.777      33.698
2015    5        5     1  18    3.7583   448.8    4.782      33.674
2015    5        5     1  24    3.7581   448.6    4.786      33.650
2015    5        5     1  30    3.7579   448.4    4.790      33.626
2015    5        5     1  36    3.7578   448.3    4.795      33.602
2015    5        5     1  42    3.7576   448.1    4.799      33.579
2015    5        5     1  48    3.7575   447.9    4.804      33.556
2015    5        5     1  54    3.7573   447.7    4.808      33.534
2015    5        5     1  59    3.7572   447.5    4.813      33.512
2015    5        5     2   5    3.7571   447.4    4.818      33.490
2015    5        5     2  11    3.7570   447.2    4.822      33.468
2015    5        5     2  17    3.7569   447.0    4.827      33.447
2015    5        5     2  23    3.7568   446.8    4.832      33.426
2015    5        5     2  29    3.7567   446.6    4.837      33.405
2015    5        5     2  35    3.7567   446.5    4.842      33.384
2015    5        5     2  41    3.7566   446.3    4.847      33.364
2015    5        5     2  47    3.7566   446.1    4.851      33.344
2015    5        5     2  53    3.7566   445.9    4.856      33.325
2015    5        5     2  58    3.7566   445.7    4.861      33.305
2015    5        5     3   4    3.7566   445.6    4.866      33.286
2015    5        5     3  10    3.7566   445.4    4.871      33.267
2015    5        5     3  16    3.7567   445.2    4.876      33.249
2015    5        5     3  22    3.7567   445.0    4.881      33.230
2015    5        5     3  28    3.7568   444.9    4.886      33.212
2015    5        5     3  34    3.7568   444.7    4.891      33.194
2015    5        5     3  40    3.7569   444.5    4.896      33.175
2015    5        5     3  46    3.7570   444.3    4.901      33.157
2015    5        5     3  51    3.7571   444.2    4.906      33.139
2015    5        5     3  57    3.7571   444.0    4.911      33.122
2015    5        5     4   3    3.7572   443.8    4.916      33.104
2015    5        5     4   9    3.7573   443.6    4.921      33.086
2015    5        5     4  15    3.7574   443.5    4.926      33.068
2015    5        5     4  21    3.7575   443.3    4.930      33.050
2015    5        5     4  27    3.7576   443.1    4.935      33.032
2015    5        5     4  33    3.7577   442.9    4.940      33.014
2015    5        5     4  39    3.7579   442.7    4.944      32.996
2015    5        5     4  45    3.7580   442.6    4.949      32.977
2015    5        5     4  50    3.7582   442.4    4.953      32.959
2015    5        5     4  56    3.7583   442.2    4.958      32.940
2015    5        5     5   2    3.7585   442.0    4.962      32.922
2015    5        5     5   8    3.7587   441.9    4.967      32.903
2015    5        5     5  14    3.7589   441.7    4.971      32.884
2015    5        5     5  20    3.7591   441.5    4.975      32.865
2015    5        5     5  26    3.7593   441.3    4.980      32.846
2015    5        5     5  32    3.7596   441.2    4.984      32.827
2015    5        5     5  38    3.7598   441.0    4.988      32.808
2015    5        5     5  44    3.7601   440.8    4.992      32.789
2015    5        5     5  50    3.7604   440.6    4.997      32.769
2015    5        5     5  55    3.7607   440.5    5.001      32.750
2015    5        5     6   1    3.7611   440.3    5.005      32.730
2015    5        5     6   7    3.7614   440.1    5.009      32.710
2015    5        5     6  13    3.7618   439.9    5.013      32.690
2015    5        5     6  19    3.7622   439.8    5.017      32.670
2015    5        5     6  25    3.7626   439.6    5.021      32.650
2015    5        5     6  31    3.7630   439.4    5.025      32.630
2015    5        5     6  37    3.7634   439.3    5.029      32.610
2015    5        5     6  43    3.7639   439.1    5.033      32.589
2015    5        5     6  49    3.7643   438.9    5.037      32.569
2015    5        5     6  54    3.7648   438.7    5.041      32.548
2015    5        5     7   0    3.7653   438.6    5.045      32.527
2015    5        5     7   6    3.7658   438.4    5.049      32.507
2015    5        5     7  12    3.7664   438.2    5.053      32.486
2015    5        5     7  18    3.7669   438.0    5.057      32.465
2015    5        5     7  24    3.7675   437.9    5.061      32.444
2015    5        5     7  30    3.7680   437.7    5.065      32.423
2015    5        5     7  36    3.7686   437.5    5.069      32.402
2015    5        5     7  42    3.7692   437.4    5.073      32.381
2015    5        5     7  48    3.7698   437.2    5.077      32.360
2015    5        5     7  53    3.7705   437.0    5.081      32.339
2015    5        5     7  59    3.7711   436.9    5.085      32.318
2015    5        5     8   5    3.7718   436.7    5.089      32.297
2015    5        5     8  11    3.7724   436.5    5.094      32.276
2015    5        5     8  17    3.7731   436.3    5.098      32.255
2015    5        5     8  23    3.7738   436.2    5.102      32.235
2015    5        5     8  29    3.7745   436.0    5.106      32.214
2015    5        5     8  35    3.7753   435.8    5.111      32.194
2015    5        5     8  41    3.7760   435.7    5.115      32.174
2015    5        5     8  46    3.7768   435.5    5.120      32.154
2015    5        5     8  52    3.7776   435.3    5.124      32.134
2015    5        5     8  58    3.7784   435.1    5.129      32.114
2015    5        5     9   4    3.7792   435.0    5.133      32.095
2015    5        5     9  10    3.7801   434.8    5.138      32.076
2015    5        5     9  16    3.7810   434.6    5.143      32.057
2015    5        5     9  22    3.7819   434.5    5.148      32.038
2015    5        5     9  28    3.7828   434.3    5.153      32.020
2015    5        5     9  34    3.7837   434.1    5.158      32.002
2015    5        5     9  40    3.7847   434.0    5.163      31.985
2015    5        5     9  45    3.7857   433.8    5.169      31.968
2015    5        5     9  51    3.7867   433.6    5.174      31.951
2015    5        5     9  57    3.7877   433.5    5.179      31.934
2015    5        5    10   3    3.7888   433.3    5.185      31.918
2015    5        5    10   9    3.7899   433.2    5.191      31.902
2015    5        5    10  15    3.7910   433.0    5.196      31.887
2015    5        5    10  21    3.7922   432.8    5.202      31.872
2015    5        5    10  27    3.7933   432.7    5.208      31.857
2015    5        5    10  33    3.7945   432.5    5.214      31.843
2015    5        5    10  38    3.7957   432.4    5.220      31.829
2015    5        5    10  44    3.7969   432.2    5.226      31.816
2015    5        5    10  50    3.7981   432.0    5.233      31.802
2015    5        5    10  56    3.7994   431.9    5.239      31.789
2015    5        5    11   2    3.8006   431.7    5.245      31.776
2015    5        5    11   8    3.8018   431.6    5.252      31.764
2015    5        5    11  14    3.8031   431.4    5.258      31.751
2015    5        5    11  20    3.8043   431.3    5.264      31.739
2015    5        5    11  26    3.8056   431.1    5.271      31.727
2015    5        5    11  32    3.8069   431.0    5.277      31.715
2015    5        5    11  37    3.8081   430.8    5.284      31.703
2015    5        5    11  43    3.8094   430.6    5.290      31.692
2015    5        5    11  49    3.8107   430.5    5.297      31.680
2015    5        5    11  55    3.8120   430.3    5.303      31.669
2015    5        5    12   1    3.8133   430.2    5.310      31.658
2015    5        5    12   7    3.8146   430.0    5.316      31.647
2015    5        5    12  13    3.8159   429.9    5.323      31.636
2015    5        5    12  19    3.8173   429.7    5.329      31.625
2015    5        5    12  25    3.8186   429.6    5.335      31.615
2015    5        5    12  30    3.8199   429.4    5.342      31.604
2015    5        5    12  36    3.8213   429.3    5.348      31.594
2015    5        5    12  42    3.8227   429.1    5.355      31.584
2015    5        5    12  48    3.8240   428.9    5.361      31.573
2015    5        5    12  54    3.8254   428.8    5.367      31.563
2015    5        5    13   0    3.8268   428.6    5.374      31.553
2015    5        5    13   6    3.8282   428.5    5.380      31.544
2015    5        5    13  12    3.8296   428.3    5.386      31.534
2015    5        5    13  18    3.8310   428.2    5.392      31.524
2015    5        5    13  23    3.8325   428.0    5.399      31.515
2015    5        5    13  29    3.8339   427.9    5.405      31.505
2015    5        5    13  35    3.8354   427.7    5.411      31.496
2015    5        5    13  41    3.8369   427.6    5.417      31.486
2015    5        5    13  47    3.8383   427.4    5.423      31.477
2015    5        5    13  53    3.8398   427.3    5.429      31.468
2015    5        5    13  59    3.8414   427.1    5.435      31.459
2015    5        5    14   5    3.8429   427.0    5.441      31.450
2015    5        5    14  11    3.8444   426.8    5.447      31.441
2015    5        5    14  16    3.8460   426.7    5.452      31.432
2015    5        5    14  22    3.8476   426.5    5.458      31.423
2015    5        5    14  28    3.8491   426.4    5.464      31.414
2015    5        5    14  34    3.8508   426.3    5.470      31.405
2015    5        5    14  40    3.8524   426.1    5.476      31.396
2015    5        5    14  46    3.8540   426.0    5.481      31.388
2015    5        5    14  52    3.8557   425.8    5.487      31.379
2015    5        5    14  58    3.8573   425.7    5.493      31.371
2015    5        5    15   4    3.8590   425.5    5.498      31.362
2015    5        5    15   9    3.8607   425.4    5.504      31.354
2015    5        5    15  15    3.8624   425.2    5.510      31.346
2015    5        5    15  21    3.8641   425.1    5.515      31.338
2015    5        5    15  27    3.8659   424.9    5.521      31.329
2015    5        5    15  33    3.8677   424.8    5.526      31.321
2015    5        5    15  39    3.8695   424.7    5.532      31.313
2015    5        5    15  45    3.8713   424.5    5.537      31.305
2015    5        5    15  51    3.8731   424.4    5.543      31.298
2015    5        5    15  57    3.8749   424.2    5.549      31.290
2015    5        5    16   2    3.8768   424.1    5.554      31.282
2015    5        5    16   8    3.8787   423.9    5.560      31.275
2015    5        5    16  14    3.8806   423.8    5.565      31.268
2015    5        5    16  20    3.8825   423.7    5.571      31.260
2015    5        5    16  26    3.8844   423.5    5.576      31.253
2015    5        5    16  32    3.8864   423.4    5.582      31.246
2015    5        5    16  38    3.8884   423.2    5.588      31.239
2015    5        5    16  44    3.8904   423.1    5.593      31.233
2015    5        5    16  50    3.8924   423.0    5.599      31.226
2015    5        5    16  55    3.8944   422.8    5.605      31.220
2015    5        5    17   1    3.8965   422.7    5.611      31.214
2015    5        5    17   7    3.8986   422.6    5.617      31.208
2015    5        5    17  13    3.9007   422.4    5.622      31.202
2015    5        5    17  19    3.9028   422.3    5.628      31.197
2015    5        5    17  25    3.9049   422.2    5.634      31.191
2015    5        5    17  31    3.9071   422.0    5.640      31.186
2015    5        5    17  37    3.9093   421.9    5.646      31.181
2015    5        5    17  42    3.9115   421.8    5.653      31.177
2015    5        5    17  48    3.9137   421.6    5.659      31.172
2015    5        5    17  54    3.9160   421.5    5.665      31.168
2015    5        5    18   0    3.9182   421.4    5.671      31.163
2015    5        5    18   6    3.9205   421.2    5.677      31.160
2015    5        5    18  12    3.9228   421.1    5.684      31.156
2015    5        5    18  18    3.9251   421.0    5.690      31.152
2015    5        5    18  24    3.9274   420.8    5.697      31.149
2015    5        5    18  30    3.9297   420.7    5.703      31.146
2015    5        5    18  35    3.9320   420.6    5.710      31.143
2015    5        5    18  41    3.9344   420.5    5.716      31.140
2015    5        5    18  47    3.9368   420.3    5.723      31.137
2015    5        5    18  53    3.9391   420.2    5.730      31.135
2015    5        5    18  59    3.9415   420.1    5.736      31.132
2015    5        5    19   5    3.9439   420.0    5.743      31.130
2015    5        5    19  11    3.9463   419.8    5.750      31.128
2015    5        5    19  17    3.9487   419.7    5.756      31.126
2015    5        5    19  23    3.9511   419.6    5.763      31.124
2015    5        5    19  28    3.9535   419.5    5.770      31.122
2015    5        5    19  34    3.9559   419.3    5.777      31.120
2015    5        5    19  40    3.9583   419.2    5.784      31.119
2015    5        5    19  46    3.9608   419.1    5.790      31.117
2015    5        5    19  52    3.9632   419.0    5.797      31.116
2015    5        5    19  58    3.9657   418.9    5.804      31.114
2015    5        5    20   4    3.9681   418.7    5.811      31.113
2015    5        5    20  10    3.9705   418.6    5.818      31.112
2015    5        5    20  16    3.9730   418.5    5.825      31.110
2015    5        5    20  21    3.9755   418.4    5.832      31.109
2015    5        5    20  27    3.9779   418.3    5.838      31.108
2015    5        5    20  33    3.9804   418.1    5.845      31.107
2015    5        5    20  39    3.9829   418.0    5.852      31.106
2015    5        5    20  45    3.9854   417.9    5.859      31.105
2015    5        5    20  51    3.9879   417.8    5.865      31.104
2015    5        5    20  57    3.9904   417.7    5.872      31.103
2015    5        5    21   3    3.9929   417.6    5.879      31.102
2015    5        5    21   8    3.9955   417.4    5.886      31.101
2015    5        5    21  14    3.9980   417.3    5.892      31.100
2015    5        5    21  20    4.0006   417.2    5.899      31.100
2015    5        5    21  26    4.0032   417.1    5.906      31.099
2015    5        5    21  32    4.0058   417.0    5.913      31.099
2015    5        5    21  38    4.0084   416.8    5.919      31.099
2015    5        5    21  44    4.0110   416.7    5.926      31.098
2015    5        5    21  50    4.0136   416.6    5.933      31.099
2015    5        5    21  56    4.0163   416.5    5.940      31.099
2015    5        5    22   1    4.0190   416.4    5.946      31.099
2015    5        5    22   7    4.0217   416.2    5.953      31.100
2015    5        5    22  13    4.0244   416.1    5.960      31.101
2015    5        5    22  19    4.0271   416.0    5.967      31.103
2015    5        5    22  25    4.0299   415.9    5.974      31.105
2015    5        5    22  31    4.0327   415.8    5.981      31.107
2015    5        5    22  37    4.0355   415.7    5.988      31.109
2015    5        5    22  43    4.0384   415.5    5.995      31.112
2015    5        5    22  48    4.0413   415.4    6.002      31.115
2015    5        5    22  54    4.0442   415.3    6.009      31.118
2015    5        5    23   0    4.0472   415.2    6.016      31.122
2015    5        5    23   6    4.0501   415.1    6.023      31.127
2015    5        5    23  12    4.0531   415.0    6.030      31.131
2015    5        5    23  18    4.0562   414.9    6.038      31.136
2015    5        5    23  24    4.0593   414.7    6.045      31.142
2015    5        5    23  30    4.0624   414.6    6.052      31.147
2015    5        5    23  36    4.0655   414.5    6.059      31.154
2015    5        5    23  41    4.0687   414.4    6.067      31.160
2015    5        5    23  47    4.0720   414.3    6.074      31.167
2015    5        5    23  53    4.0752   414.2    6.082      31.174
2015    5        5    23  59    4.0785   414.1    6.089      31.182
2015    5        6     0   5    4.0818   414.0    6.097      31.190
2015    5        6     0  11    4.0851   413.9    6.104      31.198
2015    5        6     0  17    4.0885   413.8    6.112      31.206
2015    5        6     0  23    4.0919   413.7    6.119      31.215
2015    5        6     0  28    4.0954   413.6    6.127      31.224
2015    5        6     0  34    4.0989   413.5    6.134      31.233
2015    5        6     0  40    4.1024   413.4    6.142      31.243
2015    5        6     0  46    4.1059   413.3    6.149      31.252
2015    5        6     0  52    4.1095   413.2    6.157      31.262
2015    5        6     0  58    4.1131   413.1    6.164      31.272
2015    5        6     1   4    4.1167   413.0    6.172      31.283
2015    5        6     1  10    4.1204   412.9    6.180      31.293
2015    5        6     1  16    4.1241   412.8    6.187      31.304
2015    5        6     1  21    4.1278   412.7    6.195      31.315
2015    5        6     1  27    4.1316   412.6    6.202      31.326
2015    5        6     1  33    4.1354   412.5    6.210      31.337
2015    5        6     1  39    4.1392   412.4    6.218      31.349
2015    5        6     1  45    4.1431   412.3    6.226      31.360
2015    5        6     1  51    4.1470   412.2    6.233      31.372
2015    5        6     1  57    4.1509   412.2    6.241      31.384
2015    5        6     2   3    4.1549   412.1    6.249      31.397
2015    5        6     2   8    4.1589   412.0    6.257      31.409
2015    5        6     2  14    4.1630   411.9    6.265      31.422
2015    5        6     2  20    4.1670   411.8    6.272      31.435
2015    5        6     2  26    4.1711   411.7    6.280      31.448
2015    5        6     2  32    4.1753   411.6    6.288      31.461
2015    5        6     2  38    4.1794   411.6    6.296      31.474
2015    5        6     2  44    4.1836   411.5    6.304      31.488
2015    5        6     2  50    4.1878   411.4    6.313      31.502
2015    5        6     2  56    4.1920   411.3    6.321      31.516
2015    5        6     3   1    4.1963   411.3    6.329      31.530
2015    5        6     3   7    4.2006   411.2    6.337      31.545
2015    5        6     3  13    4.2049   411.1    6.345      31.559
2015    5        6     3  19    4.2092   411.0    6.354      31.574
2015    5        6     3  25    4.2135   411.0    6.362      31.589
2015    5        6     3  31    4.2179   410.9    6.370      31.604
2015    5        6     3  37    4.2223   410.8    6.379      31.619
2015    5        6     3  43    4.2267   410.7    6.387      31.634
2015    5        6     3  48    4.2311   410.7    6.395      31.650
2015    5        6     3  54    4.2355   410.6    6.404      31.666
2015    5        6     4   0    4.2400   410.5    6.412      31.682
2015    5        6     4   6    4.2444   410.4    6.421      31.698
2015    5        6     4  12    4.2489   410.4    6.430      31.714
2015    5        6     4  18    4.2534   410.3    6.438      31.730
2015    5        6     4  24    4.2579   410.2    6.447      31.747
2015    5        6     4  30    4.2624   410.2    6.456      31.764
2015    5        6     4  36    4.2669   410.1    6.465      31.781
2015    5        6     4  41    4.2714   410.1    6.474      31.799
2015    5        6     4  47    4.2759   410.0    6.483      31.818
2015    5        6     4  53    4.2804   409.9    6.492      31.837
2015    5        6     4  59    4.2849   409.9    6.501      31.857
2015    5        6     5   5    4.2894   409.8    6.510      31.877
2015    5        6     5  11    4.2939   409.8    6.519      31.898
2015    5        6     5  17    4.2983   409.7    6.527      31.919
2015    5        6     5  23    4.3028   409.7    6.536      31.941
2015    5        6     5  28    4.3072   409.6    6.545      31.963
2015    5        6     5  34    4.3116   409.6    6.554      31.985
2015    5        6     5  40    4.3160   409.5    6.563      32.007
2015    5        6     5  46    4.3204   409.4    6.571      32.030
2015    5        6     5  52    4.3248   409.4    6.580      32.053
2015    5        6     5  58    4.3292   409.3    6.589      32.076
2015    5        6     6   4    4.3335   409.3    6.598      32.100
2015    5        6     6  10    4.3379   409.2    6.606      32.123
2015    5        6     6  15    4.3422   409.2    6.615      32.147
2015    5        6     6  21    4.3465   409.2    6.623      32.171
2015    5        6     6  27    4.3508   409.1    6.632      32.196
2015    5        6     6  33    4.3551   409.1    6.640      32.220
2015    5        6     6  39    4.3594   409.0    6.649      32.245
2015    5        6     6  45    4.3636   409.0    6.658      32.270
2015    5        6     6  51    4.3679   408.9    6.666      32.294
2015    5        6     6  57    4.3721   408.9    6.675      32.320
2015    5        6     7   3    4.3764   408.8    6.683      32.345
2015    5        6     7   8    4.3806   408.8    6.692      32.371
2015    5        6     7  14    4.3848   408.7    6.700      32.396
2015    5        6     7  20    4.3890   408.7    6.709      32.422
2015    5        6     7  26    4.3932   408.6    6.717      32.448
2015    5        6     7  32    4.3974   408.6    6.726      32.474
2015    5        6     7  38    4.4016   408.5    6.734      32.500
2015    5        6     7  44    4.4058   408.5    6.743      32.526
2015    5        6     7  50    4.4100   408.4    6.751      32.553
2015    5        6     7  55    4.4141   408.4    6.760      32.579
2015    5        6     8   1    4.4183   408.4    6.769      32.605
2015    5        6     8   7    4.4224   408.3    6.777      32.632
2015    5        6     8  13    4.4265   408.3    6.786      32.658
2015    5        6     8  19    4.4306   408.2    6.795      32.685
2015    5        6     8  25    4.4348   408.2    6.804      32.712
2015    5        6     8  31    4.4389   408.1    6.812      32.739
2015    5        6     8  37    4.4430   408.1    6.821      32.766
2015    5        6     8  42    4.4472   408.0    6.831      32.793
2015    5        6     8  48    4.4514   408.0    6.840      32.820
2015    5        6     8  54    4.4555   407.9    6.849      32.848
2015    5        6     9   0    4.4598   407.9    6.859      32.876
2015    5        6     9   6    4.4640   407.8    6.869      32.905
2015    5        6     9  12    4.4682   407.8    6.879      32.935
2015    5        6     9  18    4.4724   407.7    6.889      32.966
2015    5        6     9  24    4.4766   407.7    6.899      32.998
2015    5        6     9  29    4.4807   407.6    6.910      33.030
2015    5        6     9  35    4.4849   407.6    6.920      33.064
2015    5        6     9  41    4.4889   407.6    6.930      33.098
2015    5        6     9  47    4.4930   407.6    6.940      33.133
2015    5        6     9  53    4.4969   407.5    6.951      33.168
2015    5        6     9  59    4.5008   407.5    6.961      33.203
2015    5        6    10   5    4.5045   407.5    6.971      33.238
2015    5        6    10  11    4.5082   407.5    6.980      33.273
2015    5        6    10  17    4.5117   407.5    6.990      33.309
2015    5        6    10  22    4.5152   407.4    6.999      33.344
2015    5        6    10  28    4.5185   407.4    7.008      33.379
2015    5        6    10  34    4.5218   407.4    7.017      33.414
2015    5        6    10  40    4.5249   407.4    7.026      33.448
2015    5        6    10  46    4.5279   407.4    7.034      33.481
2015    5        6    10  52    4.5309   407.4    7.042      33.514
2015    5        6    10  58    4.5337   407.4    7.049      33.545
2015    5        6    11   4    4.5364   407.4    7.057      33.576
2015    5        6    11   9    4.5390   407.4    7.064      33.606
2015    5        6    11  15    4.5415   407.4    7.071      33.635
2015    5        6    11  21    4.5439   407.3    7.077      33.663
2015    5        6    11  27    4.5462   407.3    7.084      33.690
2015    5        6    11  33    4.5484   407.3    7.090      33.716
2015    5        6    11  39    4.5505   407.3    7.096      33.742
2015    5        6    11  45    4.5525   407.3    7.101      33.767
2015    5        6    11  51    4.5544   407.3    7.107      33.791
2015    5        6    11  56    4.5563   407.3    7.112      33.814
2015    5        6    12   2    4.5580   407.3    7.117      33.837
2015    5        6    12   8    4.5597   407.3    7.122      33.859
2015    5        6    12  14    4.5613   407.2    7.126      33.880
2015    5        6    12  20    4.5628   407.2    7.131      33.901
2015    5        6    12  26    4.5642   407.2    7.135      33.922
2015    5        6    12  32    4.5656   407.2    7.139      33.942
2015    5        6    12  38    4.5668   407.2    7.143      33.962
2015    5        6    12  44    4.5681   407.2    7.146      33.981
2015    5        6    12  49    4.5692   407.2    7.150      33.999
2015    5        6    12  55    4.5703   407.2    7.153      34.017
2015    5        6    13   1    4.5713   407.1    7.156      34.035
2015    5        6    13   7    4.5722   407.1    7.159      34.053
2015    5        6    13  13    4.5731   407.1    7.162      34.070
2015    5        6    13  19    4.5740   407.1    7.164      34.087
2015    5        6    13  25    4.5747   407.1    7.167      34.104
2015    5        6    13  31    4.5754   407.1    7.169      34.120
2015    5        6    13  36    4.5761   407.0    7.171      34.136
2015    5        6    13  42    4.5766   407.0    7.173      34.152
2015    5        6    13  48    4.5772   407.0    7.175      34.167
2015    5        6    13  54    4.5776   407.0    7.176      34.182
2015    5        6    14   0    4.5780   407.0    7.178      34.197
2015    5        6    14   6    4.5784   407.0    7.179      34.211
2015    5        6    14  12    4.5786   406.9    7.181      34.225
2015    5        6    14  18    4.5788   406.9    7.182      34.239
2015    5        6    14  23    4.5789   406.9    7.183      34.252
2015    5        6    14  29    4.5790   406.9    7.184      34.266
2015    5        6    14  35    4.5790   406.9    7.184      34.278
2015    5        6    14  41    4.5790   406.9    7.185      34.291
2015    5        6    14  47    4.5788   406.8    7.186      34.304
2015    5        6    14  53    4.5786   406.8    7.186      34.316
2015    5        6    14  59    4.5784   406.8    7.186      34.329
2015    5        6    15   5    4.5780   406.8    7.186      34.342
2015    5        6    15  10    4.5776   406.8    7.186      34.355
2015    5        6    15  16    4.5771   406.8    7.185      34.368
2015    5        6    15  22    4.5766   406.8    7.184      34.381
2015    5        6    15  28    4.5760   406.8    7.184      34.394
2015    5        6    15  34    4.5753   406.7    7.183      34.407
2015    5        6    15  40    4.5746   406.7    7.181      34.420
2015    5        6    15  46    4.5738   406.7    7.180      34.432
2015    5        6    15  52    4.5729   406.7    7.178      34.444
2015    5        6    15  57    4.5719   406.7    7.176      34.456
2015    5        6    16   3    4.5709   406.7    7.174      34.467
2015    5        6    16   9    4.5699   406.7    7.172      34.477
2015    5        6    16  15    4.5687   406.7    7.169      34.488
2015    5        6    16  21    4.5676   406.7    7.167      34.498
2015    5        6    16  27    4.5663   406.6    7.164      34.508
2015    5        6    16  33    4.5651   406.6    7.161      34.517
2015    5        6    16  39    4.5638   406.6    7.158      34.526
2015    5        6    16  45    4.5624   406.6    7.154      34.534
2015    5        6    16  50    4.5611   406.6    7.151      34.542
2015    5        6    16  56    4.5597   406.6    7.147      34.550
2015    5        6    17   2    4.5583   406.6    7.143      34.558
2015    5        6    17   8    4.5569   406.6    7.139      34.565
2015    5        6    17  14    4.5555   406.6    7.135      34.572
2015    5        6    17  20    4.5540   406.6    7.131      34.579
2015    5        6    17  26    4.5526   406.6    7.127      34.586
2015    5        6    17  32    4.5512   406.6    7.122      34.592
2015    5        6    17  37    4.5497   406.6    7.118      34.598
2015    5        6    17  43    4.5483   406.6    7.113      34.604
2015    5        6    17  49    4.5469   406.6    7.108      34.609
2015    5        6    17  55    4.5455   406.6    7.104      34.615
2015    5        6    18   1    4.5441   406.6    7.099      34.620
2015    5        6    18   7    4.5427   406.6    7.094      34.625
2015    5        6    18  13    4.5413   406.5    7.088      34.630
2015    5        6    18  19    4.5399   406.5    7.083      34.635
2015    5        6    18  24    4.5385   406.5    7.078      34.639
2015    5        6    18  30    4.5372   406.5    7.073      34.644
2015    5        6    18  36    4.5359   406.5    7.067      34.648
2015    5        6    18  42    4.5346   406.5    7.062      34.653
2015    5        6    18  48    4.5333   406.5    7.056      34.657
2015    5        6    18  54    4.5321   406.5    7.051      34.661
2015    5        6    19   0    4.5308   406.5    7.045      34.665
2015    5        6    19   6    4.5296   406.6    7.040      34.669
2015    5        6    19  11    4.5285   406.6    7.034      34.673
2015    5        6    19  17    4.5273   406.6    7.029      34.678
2015    5        6    19  23    4.5262   406.6    7.023      34.682
2015    5        6    19  29    4.5251   406.6    7.018      34.686
2015    5        6    19  35    4.5240   406.6    7.012      34.690
2015    5        6    19  41    4.5230   406.6    7.007      34.694
2015    5        6    19  47    4.5220   406.6    7.001      34.699
2015    5        6    19  53    4.5210   406.6    6.996      34.703
2015    5        6    19  58    4.5201   406.6    6.991      34.708
2015    5        6    20   4    4.5192   406.6    6.986      34.712
2015    5        6    20  10    4.5184   406.6    6.981      34.717
2015    5        6    20  16    4.5176   406.6    6.976      34.722
2015    5        6    20  22    4.5169   406.6    6.971      34.728
2015    5        6    20  28    4.5162   406.6    6.966      34.733
2015    5        6    20  34    4.5156   406.6    6.961      34.739
2015    5        6    20  40    4.5151   406.6    6.957      34.745
2015    5        6    20  45    4.5146   406.6    6.952      34.752
2015    5        6    20  51    4.5141   406.6    6.948      34.758
2015    5        6    20  57    4.5138   406.6    6.944      34.765
2015    5        6    21   3    4.5135   406.7    6.940      34.773
2015    5        6    21   9    4.5133   406.7    6.937      34.781
2015    5        6    21  15    4.5132   406.7    6.933      34.789
2015    5        6    21  21    4.5132   406.7    6.930      34.797
2015    5        6    21  27    4.5133   406.7    6.927      34.807
2015    5        6    21  32    4.5134   406.7    6.924      34.816
2015    5        6    21  38    4.5137   406.8    6.921      34.827
2015    5        6    21  44    4.5140   406.8    6.919      34.837
2015    5        6    21  50    4.5145   406.8    6.917      34.848
2015    5        6    21  56    4.5150   406.8    6.915      34.860
2015    5        6    22   2    4.5157   406.8    6.913      34.873
2015    5        6    22   8    4.5165   406.9    6.912      34.886
2015    5        6    22  14    4.5174   406.9    6.911      34.900
2015    5        6    22  20    4.5184   406.9    6.910      34.914
2015    5        6    22  25    4.5195   407.0    6.910      34.929
2015    5        6    22  31    4.5208   407.0    6.910      34.945
2015    5        6    22  37    4.5222   407.0    6.910      34.963
2015    5        6    22  43    4.5237   407.1    6.911      34.982
2015    5        6    22  49    4.5254   407.1    6.911      35.003
2015    5        6    22  55    4.5272   407.2    6.912      35.026
2015    5        6    23   1    4.5291   407.2    6.912      35.050
2015    5        6    23   7    4.5311   407.3    6.913      35.076
2015    5        6    23  12    4.5332   407.3    6.914      35.102
2015    5        6    23  18    4.5354   407.4    6.915      35.128
2015    5        6    23  24    4.5376   407.5    6.916      35.155
2015    5        6    23  30    4.5399   407.5    6.917      35.182
2015    5        6    23  36    4.5423   407.6    6.918      35.209
2015    5        6    23  42    4.5447   407.6    6.919      35.237
2015    5        6    23  48    4.5472   407.7    6.920      35.265
2015    5        6    23  54    4.5497   407.8    6.922      35.293
2015    5        6    23  59    4.5523   407.8    6.923      35.321
2015    5        7     0   5    4.5550   407.9    6.925      35.349
2015    5        7     0  11    4.5577   408.0    6.926      35.377
2015    5        7     0  17    4.5604   408.0    6.928      35.406
2015    5        7     0  23    4.5633   408.1    6.930      35.434
2015    5        7     0  29    4.5662   408.2    6.932      35.463
2015    5        7     0  35    4.5691   408.2    6.935      35.492
2015    5        7     0  41    4.5722   408.3    6.937      35.522
2015    5        7     0  46    4.5753   408.4    6.940      35.551
2015    5        7     0  52    4.5786   408.4    6.944      35.580
2015    5        7     0  58    4.5819   408.5    6.947      35.610
2015    5        7     1   4    4.5853   408.6    6.951      35.640
2015    5        7     1  10    4.5889   408.7    6.956      35.670
2015    5        7     1  16    4.5926   408.7    6.961      35.700
2015    5        7     1  22    4.5965   408.8    6.967      35.730
2015    5        7     1  28    4.6005   408.9    6.974      35.760
2015    5        7     1  33    4.6047   409.0    6.981      35.791
2015    5        7     1  39    4.6089   409.1    6.989      35.823
2015    5        7     1  45    4.6133   409.2    6.997      35.858
2015    5        7     1  51    4.6177   409.2    7.005      35.895
2015    5        7     1  57    4.6220   409.4    7.014      35.936
2015    5        7     2   3    4.6263   409.5    7.023      35.980
2015    5        7     2   9    4.6306   409.6    7.031      36.029
2015    5        7     2  15    4.6347   409.7    7.040      36.081
2015    5        7     2  20    4.6388   409.9    7.048      36.137
2015    5        7     2  26    4.6427   410.0    7.056      36.196
2015    5        7     2  32    4.6465   410.1    7.063      36.259
2015    5        7     2  38    4.6502   410.3    7.070      36.326
2015    5        7     2  44    4.6537   410.4    7.077      36.395
2015    5        7     2  50    4.6571   410.5    7.082      36.468
2015    5        7     2  56    4.6603   410.7    7.088      36.544
2015    5        7     3   2    4.6634   410.8    7.092      36.622
2015    5        7     3   7    4.6663   410.9    7.096      36.703
2015    5        7     3  13    4.6692   411.1    7.100      36.786
2015    5        7     3  19    4.6718   411.2    7.103      36.871
2015    5        7     3  25    4.6743   411.3    7.106      36.957
2015    5        7     3  31    4.6767   411.5    7.109      37.045
2015    5        7     3  37    4.6790   411.6    7.111      37.136
2015    5        7     3  43    4.6810   411.7    7.113      37.228
2015    5        7     3  49    4.6830   411.9    7.115      37.322
2015    5        7     3  54    4.6847   412.0    7.117      37.417
2015    5        7     4   0    4.6863   412.1    7.119      37.515
2015    5        7     4   6    4.6878   412.3    7.121      37.617
2015    5        7     4  12    4.6891   412.4    7.123      37.723
2015    5        7     4  18    4.6902   412.6    7.124      37.834
2015    5        7     4  24    4.6912   412.7    7.125      37.950
2015    5        7     4  30    4.6920   412.9    7.125      38.072
2015    5        7     4  36    4.6927   413.0    7.124      38.199
2015    5        7     4  41    4.6932   413.2    7.123      38.333
2015    5        7     4  47    4.6935   413.4    7.121      38.471
2015    5        7     4  53    4.6936   413.5    7.119      38.614
2015    5        7     4  59    4.6935   413.7    7.115      38.761
2015    5        7     5   5    4.6931   413.8    7.111      38.912
2015    5        7     5  11    4.6927   414.0    7.106      39.067
2015    5        7     5  17    4.6920   414.1    7.101      39.225
2015    5        7     5  23    4.6912   414.3    7.094      39.387
2015    5        7     5  28    4.6902   414.4    7.087      39.551
2015    5        7     5  34    4.6891   414.6    7.079      39.719
2015    5        7     5  40    4.6879   414.7    7.070      39.892
2015    5        7     5  46    4.6867   414.9    7.060      40.068
2015    5        7     5  52    4.6853   415.0    7.050      40.250
2015    5        7     5  58    4.6839   415.1    7.039      40.437
2015    5        7     6   4    4.6824   415.3    7.027      40.630
2015    5        7     6  10    4.6809   415.4    7.014      40.829
2015    5        7     6  15    4.6793   415.6    7.001      41.035
2015    5        7     6  21    4.6777   415.7    6.988      41.248
2015    5        7     6  27    4.6760   415.9    6.973      41.469
2015    5        7     6  33    4.6743   416.0    6.958      41.699
2015    5        7     6  39    4.6725   416.2    6.943      41.935
2015    5        7     6  45    4.6706   416.3    6.927      42.178
2015    5        7     6  51    4.6687   416.5    6.910      42.426
2015    5        7     6  57    4.6666   416.6    6.893      42.677
2015    5        7     7   2    4.6645   416.8    6.876      42.930
2015    5        7     7   8    4.6623   416.9    6.857      43.184
2015    5        7     7  14    4.6600   417.1    6.839      43.438
2015    5        7     7  20    4.6577   417.2    6.820      43.691
2015    5        7     7  26    4.6553   417.4    6.800      43.943
2015    5        7     7  32    4.6529   417.5    6.780      44.194
2015    5        7     7  38    4.6505   417.7    6.760      44.444
2015    5        7     7  44    4.6482   417.8    6.739      44.694
2015    5        7     7  49    4.6458   418.0    6.718      44.942
2015    5        7     7  55    4.6434   418.1    6.696      45.189
2015    5        7     8   1    4.6411   418.2    6.675      45.435
2015    5        7     8   7    4.6387   418.4    6.652      45.681
2015    5        7     8  13    4.6364   418.5    6.630      45.927
2015    5        7     8  19    4.6341   418.6    6.607      46.174
2015    5        7     8  25    4.6318   418.8    6.583      46.423
2015    5        7     8  31    4.6294   418.9    6.560      46.677
2015    5        7     8  36    4.6271   419.1    6.535      46.934
2015    5        7     8  42    4.6247   419.2    6.511      47.195
2015    5        7     8  48    4.6224   419.3    6.485      47.458
2015    5        7     8  54    4.6200   419.5    6.460      47.725
2015    5        7     9   0    4.6175   419.6    6.433      47.994
2015    5        7     9   6    4.6151   419.8    6.407      48.266
2015    5        7     9  12    4.6126   419.9    6.380      48.538
2015    5        7     9  18    4.6101   420.0    6.352      48.810
2015    5        7     9  23    4.6075   420.2    6.323      49.082
2015    5        7     9  29    4.6048   420.3    6.294      49.356
2015    5        7     9  35    4.6021   420.5    6.265      49.631
2015    5        7     9  41    4.5993   420.6    6.234      49.908
2015    5        7     9  47    4.5965   420.8    6.203      50.188
2015    5        7     9  53    4.5936   420.9    6.171      50.469
2015    5        7     9  59    4.5907   421.1    6.139      50.752
2015    5        7    10   5    4.5879   421.2    6.106      51.036
2015    5        7    10  10    4.5850   421.4    6.073      51.320
2015    5        7    10  16    4.5823   421.5    6.040      51.603
2015    5        7    10  22    4.5797   421.6    6.007      51.886
2015    5        7    10  28    4.5772   421.7    5.974      52.166
2015    5        7    10  34    4.5748   421.9    5.941      52.444
2015    5        7    10  40    4.5725   422.0    5.908      52.720
2015    5        7    10  46    4.5703   422.1    5.875      52.995
2015    5        7    10  52    4.5682   422.2    5.843      53.268
2015    5        7    10  58    4.5662   422.4    5.811      53.540
2015    5        7    11   3    4.5644   422.5    5.778      53.811
2015    5        7    11   9    4.5626   422.6    5.746      54.082
2015    5        7    11  15    4.5609   422.8    5.715      54.352
2015    5        7    11  21    4.5593   422.9    5.683      54.623
2015    5        7    11  27    4.5578   423.0    5.651      54.895
2015    5        7    11  33    4.5564   423.1    5.620      55.168
2015    5        7    11  39    4.5550   423.3    5.589      55.442
2015    5        7    11  45    4.5538   423.4    5.558      55.718
2015    5        7    11  50    4.5526   423.6    5.527      55.998
2015    5        7    11  56    4.5516   423.7    5.495      56.282
2015    5        7    12   2    4.5506   423.8    5.465      56.570
2015    5        7    12   8    4.5498   424.0    5.434      56.862
2015    5        7    12  14    4.5491   424.1    5.403      57.157
2015    5        7    12  20    4.5485   424.2    5.373      57.455
2015    5        7    12  26    4.5480   424.4    5.343      57.754
2015    5        7    12  32    4.5477   424.5    5.314      58.055
2015    5        7    12  37    4.5475   424.7    5.286      58.354
2015    5        7    12  43    4.5475   424.8    5.258      58.652
2015    5        7    12  49    4.5476   424.9    5.232      58.947
2015    5        7    12  55    4.5478   425.1    5.206      59.241
2015    5        7    13   1    4.5483   425.2    5.181      59.532
2015    5        7    13   7    4.5489   425.4    5.158      59.820
2015    5        7    13  13    4.5498   425.5    5.135      60.106
2015    5        7    13  19    4.5510   425.7    5.113      60.391
2015    5        7    13  24    4.5524   425.8    5.093      60.674
2015    5        7    13  30    4.5541   426.0    5.074      60.955
2015    5        7    13  36    4.5561   426.1    5.055      61.236
2015    5        7    13  42    4.5586   426.3    5.038      61.517
2015    5        7    13  48    4.5614   426.5    5.022      61.800
2015    5        7    13  54    4.5646   426.6    5.007      62.084
2015    5        7    14   0    4.5682   426.8    4.993      62.370
2015    5        7    14   6    4.5725   427.0    4.980      62.660
2015    5        7    14  11    4.5771   427.2    4.968      62.954
2015    5        7    14  17    4.5825   427.4    4.957      63.254
2015    5        7    14  23    4.5884   427.6    4.948      63.559
2015    5        7    14  29    4.5950   427.8    4.940      63.871
2015    5        7    14  35    4.6023   428.0    4.933      64.191
2015    5        7    14  41    4.6105   428.2    4.928      64.519
2015    5        7    14  47    4.6195   428.4    4.923      64.856
2015    5        7    14  53    4.6295   428.7    4.920      65.201
2015    5        7    14  58    4.6403   428.9    4.919      65.556
2015    5        7    15   4    4.6524   429.2    4.919      65.920
2015    5        7    15  10    4.6656   429.5    4.920      66.293
2015    5        7    15  16    4.6802   429.8    4.924      66.677
2015    5        7    15  22    4.6958   430.1    4.929      67.072
2015    5        7    15  28    4.7129   430.4    4.935      67.479
2015    5        7    15  34    4.7312   430.7    4.943      67.898
2015    5        7    15  40    4.7510   431.1    4.953      68.330
2015    5        7    15  45    4.7717   431.4    4.964      68.776
2015    5        7    15  51    4.7937   431.8    4.977      69.237
2015    5        7    15  57    4.8165   432.1    4.992      69.712
2015    5        7    16   3    4.8402   432.5    5.007      70.202
2015    5        7    16   9    4.8643   432.9    5.025      70.705
2015    5        7    16  15    4.8888   433.3    5.044      71.222
2015    5        7    16  21    4.9135   433.8    5.065      71.752
2015    5        7    16  27    4.9386   434.2    5.087      72.292
2015    5        7    16  32    4.9635   434.7    5.111      72.841
2015    5        7    16  38    4.9883   435.2    5.136      73.398
2015    5        7    16  44    5.0128   435.7    5.163      73.967
2015    5        7    16  50    5.0367   436.2    5.191      74.550
2015    5        7    16  56    5.0599   436.7    5.220      75.142
2015    5        7    17   2    5.0822   437.2    5.249      75.744
2015    5        7    17   8    5.1033   437.6    5.279      76.350
2015    5        7    17  14    5.1234   438.1    5.309      76.962
2015    5        7    17  19    5.1424   438.6    5.339      77.575
2015    5        7    17  25    5.1601   439.1    5.369      78.181
2015    5        7    17  31    5.1767   439.5    5.398      78.778
2015    5        7    17  37    5.1919   440.0    5.428      79.364
2015    5        7    17  43    5.2059   440.4    5.457      79.936
2015    5        7    17  49    5.2186   440.9    5.485      80.492
2015    5        7    17  55    5.2301   441.3    5.513      81.028
2015    5        7    18   1    5.2403   441.7    5.540      81.542
2015    5        7    18   6    5.2495   442.0    5.566      82.036
2015    5        7    18  12    5.2575   442.4    5.591      82.510
2015    5        7    18  18    5.2645   442.7    5.616      82.968
2015    5        7    18  24    5.2703   443.0    5.640      83.409
2015    5        7    18  30    5.2753   443.2    5.664      83.834
2015    5        7    18  36    5.2792   443.5    5.686      84.245
2015    5        7    18  42    5.2822   443.7    5.709      84.642
2015    5        7    18  47    5.2842   443.9    5.730      85.026
2015    5        7    18  53    5.2853   444.1    5.751      85.399
2015    5        7    18  59    5.2855   444.2    5.771      85.760
2015    5        7    19   5    5.2850   444.4    5.791      86.112
2015    5        7    19  11    5.2835   444.5    5.810      86.454
2015    5        7    19  17    5.2814   444.6    5.829      86.787
2015    5        7    19  23    5.2784   444.8    5.848      87.110
2015    5        7    19  29    5.2747   444.9    5.866      87.425
2015    5        7    19  34    5.2701   444.9    5.883      87.733
2015    5        7    19  40    5.2649   445.0    5.901      88.032
2015    5        7    19  46    5.2589   445.1    5.918      88.325
2015    5        7    19  52    5.2522   445.1    5.935      88.610
2015    5        7    19  58    5.2447   445.2    5.951      88.887
2015    5        7    20   4    5.2366   445.2    5.967      89.156
2015    5        7    20  10    5.2278   445.2    5.983      89.418
2015    5        7    20  16    5.2184   445.3    5.998      89.671
2015    5        7    20  21    5.2083   445.3    6.014      89.915
2015    5        7    20  27    5.1978   445.3    6.029      90.150
2015    5        7    20  33    5.1866   445.3    6.044      90.376
2015    5        7    20  39    5.1750   445.3    6.058      90.593
2015    5        7    20  45    5.1628   445.3    6.073      90.802
2015    5        7    20  51    5.1503   445.3    6.087      91.003
2015    5        7    20  57    5.1372   445.3    6.101      91.195
2015    5        7    21   3    5.1237   445.2    6.115      91.377
2015    5        7    21   8    5.1096   445.2    6.128      91.552
2015    5        7    21  14    5.0953   445.2    6.142      91.717
2015    5        7    21  20    5.0804   445.2    6.155      91.874
2015    5        7    21  26    5.0652   445.1    6.168      92.021
2015    5        7    21  32    5.0496   445.1    6.181      92.160
2015    5        7    21  38    5.0337   445.0    6.194      92.290
2015    5        7    21  44    5.0174   445.0    6.206      92.412
2015    5        7    21  50    5.0009   444.9    6.219      92.525
2015    5        7    21  55    4.9841   444.9    6.231      92.630
2015    5        7    22   1    4.9672   444.8    6.243      92.727
2015    5        7    22   7    4.9500   444.7    6.256      92.816
2015    5        7    22  13    4.9326   444.7    6.267      92.898
2015    5        7    22  19    4.9151   444.6    6.279      92.973
2015    5        7    22  25    4.8975   444.5    6.291      93.041
2015    5        7    22  31    4.8797   444.4    6.302      93.103
2015    5        7    22  37    4.8619   444.4    6.314      93.159
2015    5        7    22  42    4.8441   444.3    6.325      93.209
2015    5        7    22  48    4.8263   444.2    6.336      93.254
2015    5        7    22  54    4.8086   444.1    6.348      93.293
2015    5        7    23   0    4.7911   444.0    6.359      93.327
2015    5        7    23   6    4.7736   443.9    6.370      93.356
2015    5        7    23  12    4.7562   443.8    6.380      93.380
2015    5        7    23  18    4.7389   443.7    6.391      93.400
2015    5        7    23  24    4.7218   443.6    6.402      93.415
2015    5        7    23  29    4.7048   443.5    6.413      93.426
2015    5        7    23  35    4.6880   443.4    6.423      93.432
2015    5        7    23  41    4.6714   443.2    6.434      93.434
2015    5        7    23  47    4.6549   443.1    6.445      93.433
2015    5        7    23  53    4.6387   443.0    6.455      93.427
2015    5        7    23  59    4.6226   442.9    6.466      93.417
2015    5        8     0   5    4.6067   442.8    6.476      93.403
2015    5        8     0  11    4.5911   442.6    6.487      93.386
2015    5        8     0  16    4.5756   442.5    6.497      93.365
2015    5        8     0  22    4.5604   442.4    6.508      93.341
2015    5        8     0  28    4.5453   442.2    6.519      93.314
2015    5        8     0  34    4.5305   442.1    6.529      93.283
2015    5        8     0  40    4.5159   442.0    6.540      93.250
2015    5        8     0  46    4.5015   441.8    6.551      93.213
2015    5        8     0  52    4.4873   441.7    6.562      93.173
2015    5        8     0  58    4.4734   441.6    6.573      93.130
2015    5        8     1   3    4.4596   441.4    6.585      93.085
2015    5        8     1   9    4.4461   441.3    6.596      93.038
2015    5        8     1  15    4.4327   441.1    6.607      92.987
2015    5        8     1  21    4.4196   441.0    6.619      92.935
2015    5        8     1  27    4.4067   440.8    6.631      92.881
2015    5        8     1  33    4.3940   440.7    6.643      92.825
2015    5        8     1  39    4.3815   440.6    6.656      92.767
2015    5        8     1  45    4.3692   440.4    6.668      92.708
2015    5        8     1  50    4.3570   440.3    6.681      92.647
2015    5        8     1  56    4.3451   440.1    6.694      92.585
2015    5        8     2   2    4.3334   440.0    6.707      92.521
2015    5        8     2   8    4.3219   439.8    6.721      92.457
2015    5        8     2  14    4.3105   439.7    6.734      92.391
2015    5        8     2  20    4.2994   439.5    6.748      92.324
2015    5        8     2  26    4.2884   439.4    6.763      92.257
2015    5        8     2  32    4.2777   439.3    6.777      92.189
2015    5        8     2  37    4.2671   439.1    6.791      92.119
2015    5        8     2  43    4.2568   439.0    6.806      92.049
2015    5        8     2  49    4.2466   438.9    6.821      91.977
2015    5        8     2  55    4.2367   438.7    6.836      91.903
2015    5        8     3   1    4.2269   438.6    6.852      91.828
2015    5        8     3   7    4.2174   438.4    6.867      91.750
2015    5        8     3  13    4.2079   438.3    6.883      91.672
2015    5        8     3  19    4.1988   438.2    6.899      91.591
2015    5        8     3  24    4.1897   438.0    6.915      91.509
2015    5        8     3  30    4.1809   437.9    6.931      91.426
2015    5        8     3  36    4.1721   437.7    6.947      91.342
2015    5        8     3  42    4.1637   437.6    6.964      91.256
2015    5        8     3  48    4.1554   437.5    6.980      91.168
2015    5        8     3  54    4.1473   437.3    6.997      91.079
2015    5        8     4   0    4.1394   437.2    7.014      90.988
2015    5        8     4   6    4.1317   437.0    7.031      90.894
2015    5        8     4  11    4.1242   436.9    7.048      90.798
2015    5        8     4  17    4.1170   436.7    7.065      90.699
2015    5        8     4  23    4.1099   436.6    7.083      90.597
2015    5        8     4  29    4.1031   436.4    7.100      90.493
2015    5        8     4  35    4.0965   436.3    7.118      90.386
2015    5        8     4  41    4.0902   436.2    7.136      90.277
2015    5        8     4  47    4.0840   436.0    7.154      90.165
2015    5        8     4  53    4.0781   435.9    7.173      90.051
2015    5        8     4  58    4.0724   435.7    7.191      89.934
2015    5        8     5   4    4.0670   435.6    7.210      89.816
2015    5        8     5  10    4.0618   435.4    7.229      89.696
2015    5        8     5  16    4.0568   435.3    7.248      89.573
2015    5        8     5  22    4.0521   435.1    7.267      89.449
2015    5        8     5  28    4.0476   434.9    7.287      89.324
2015    5        8     5  34    4.0433   434.8    7.307      89.197
2015    5        8     5  40    4.0393   434.6    7.327      89.068
2015    5        8     5  45    4.0355   434.5    7.348      88.938
2015    5        8     5  51    4.0320   434.3    7.368      88.805
2015    5        8     5  57    4.0287   434.2    7.389      88.672
2015    5        8     6   3    4.0257   434.0    7.411      88.536
2015    5        8     6   9    4.0229   433.9    7.432      88.399
2015    5        8     6  15    4.0204   433.7    7.454      88.260
2015    5        8     6  21    4.0180   433.6    7.476      88.119
2015    5        8     6  27    4.0160   433.5    7.498      87.976
2015    5        8     6  32    4.0141   433.3    7.521      87.831
2015    5        8     6  38    4.0125   433.2    7.543      87.684
2015    5        8     6  44    4.0111   433.0    7.566      87.536
2015    5        8     6  50    4.0098   432.9    7.589      87.385
2015    5        8     6  56    4.0089   432.7    7.612      87.232
2015    5        8     7   2    4.0081   432.6    7.636      87.077
2015    5        8     7   8    4.0075   432.4    7.659      86.919
2015    5        8     7  14    4.0072   432.3    7.683      86.759
2015    5        8     7  19    4.0070   432.1    7.707      86.595
2015    5        8     7  25    4.0070   432.0    7.731      86.428
2015    5        8     7  31    4.0072   431.8    7.755      86.257
2015    5        8     7  37    4.0076   431.7    7.779      86.082
2015    5        8     7  43    4.0082   431.5    7.803      85.903
2015    5        8     7  49    4.0090   431.4    7.827      85.721
2015    5        8     7  55    4.0100   431.2    7.851      85.535
2015    5        8     8   1    4.0111   431.1    7.876      85.345
2015    5        8     8   6    4.0124   430.9    7.900      85.152
2015    5        8     8  12    4.0139   430.7    7.924      84.955
2015    5        8     8  18    4.0156   430.6    7.948      84.755
2015    5        8     8  24    4.0174   430.4    7.973      84.552
2015    5        8     8  30    4.0194   430.3    7.997      84.345
2015    5        8     8  36    4.0216   430.1    8.021      84.135
2015    5        8     8  42    4.0240   430.0    8.045      83.921
2015    5        8     8  48    4.0265   429.8    8.069      83.705
2015    5        8     8  53    4.0293   429.7    8.093      83.485
2015    5        8     8  59    4.0322   429.5    8.117      83.262
2015    5        8     9   5    4.0353   429.3    8.141      83.036
2015    5        8     9  11    4.0386   429.2    8.165      82.808
2015    5        8     9  17    4.0421   429.0    8.189      82.577
2015    5        8     9  23    4.0458   428.9    8.212      82.344
2015    5        8     9  29    4.0497   428.7    8.236      82.109
2015    5        8     9  35    4.0537   428.5    8.259      81.872
2015    5        8     9  40    4.0581   428.4    8.283      81.633
2015    5        8     9  46    4.0626   428.2    8.306      81.393
2015    5        8     9  52    4.0673   428.1    8.329      81.152
2015    5        8     9  58    4.0723   427.9    8.352      80.909
2015    5        8    10   4    4.0775   427.7    8.375      80.665
2015    5        8    10  10    4.0829   427.6    8.397      80.420
2015    5        8    10  16    4.0887   427.4    8.420      80.174
2015    5        8    10  21    4.0946   427.3    8.443      79.928
2015    5        8    10  27    4.1009   427.1    8.465      79.680
2015    5        8    10  33    4.1074   426.9    8.488      79.432
2015    5        8    10  39    4.1143   426.8    8.510      79.183
2015    5        8    10  45    4.1214   426.6    8.532      78.933
2015    5        8    10  51    4.1289   426.4    8.555      78.683
2015    5        8    10  57    4.1366   426.3    8.577      78.431
2015    5        8    11   3    4.1448   426.1    8.599      78.179
2015    5        8    11   8    4.1532   425.9    8.621      77.926
2015    5        8    11  14    4.1621   425.8    8.643      77.672
2015    5        8    11  20    4.1712   425.6    8.665      77.417
2015    5        8    11  26    4.1808   425.4    8.687      77.162
2015    5        8    11  32    4.1907   425.2    8.709      76.906
2015    5        8    11  38    4.2011   425.1    8.730      76.649
2015    5        8    11  44    4.2118   424.9    8.751      76.393
2015    5        8    11  50    4.2230   424.7    8.772      76.137
2015    5        8    11  55    4.2345   424.5    8.793      75.880
2015    5        8    12   1    4.2467   424.4    8.814      75.624
2015    5        8    12   7    4.2592   424.2    8.834      75.368
2015    5        8    12  13    4.2723   424.0    8.854      75.111
2015    5        8    12  19    4.2857   423.9    8.874      74.855
2015    5        8    12  25    4.2998   423.7    8.893      74.600
2015    5        8    12  31    4.3143   423.5    8.912      74.345
2015    5        8    12  37    4.3294   423.4    8.931      74.091
2015    5        8    12  42    4.3449   423.2    8.949      73.838
2015    5        8    12  48    4.3611   423.1    8.966      73.586
2015    5        8    12  54    4.3777   422.9    8.983      73.334
2015    5        8    13   0    4.3950   422.8    9.000      73.083
2015    5        8    13   6    4.4127   422.6    9.016      72.832
2015    5        8    13  12    4.4311   422.5    9.031      72.582
2015    5        8    13  18    4.4499   422.3    9.046      72.332
2015    5        8    13  24    4.4692   422.2    9.060      72.082
2015    5        8    13  29    4.4889   422.1    9.074      71.833
2015    5        8    13  35    4.5091   421.9    9.087      71.585
2015    5        8    13  41    4.5295   421.8    9.100      71.336
2015    5        8    13  47    4.5503   421.7    9.112      71.089
2015    5        8    13  53    4.5713   421.6    9.123      70.842
2015    5        8    13  59    4.5927   421.4    9.134      70.595
2015    5        8    14   5    4.6143   421.3    9.145      70.349
2015    5        8    14  11    4.6362   421.2    9.154      70.103
2015    5        8    14  16    4.6583   421.1    9.163      69.858
2015    5        8    14  22    4.6808   421.0    9.172      69.613
2015    5        8    14  28    4.7034   420.9    9.180      69.369
2015    5        8    14  34    4.7262   420.8    9.187      69.126
2015    5        8    14  40    4.7492   420.7    9.193      68.882
2015    5        8    14  46    4.7724   420.6    9.200      68.639
2015    5        8    14  52    4.7957   420.5    9.205      68.396
2015    5        8    14  58    4.8193   420.4    9.210      68.153
2015    5        8    15   3    4.8428   420.3    9.214      67.909
2015    5        8    15   9    4.8666   420.2    9.218      67.664
2015    5        8    15  15    4.8904   420.2    9.221      67.419
2015    5        8    15  21    4.9143   420.1    9.223      67.172
2015    5        8    15  27    4.9382   420.0    9.225      66.924
2015    5        8    15  33    4.9622   420.0    9.227      66.674
2015    5        8    15  39    4.9862   419.9    9.228      66.424
2015    5        8    15  45    5.0102   419.9    9.228      66.171
2015    5        8    15  50    5.0341   419.8    9.228      65.918
2015    5        8    15  56    5.0581   419.8    9.227      65.662
2015    5        8    16   2    5.0820   419.7    9.226      65.406
2015    5        8    16   8    5.1058   419.7    9.224      65.148
2015    5        8    16  14    5.1294   419.6    9.222      64.889
2015    5        8    16  20    5.1529   419.6    9.219      64.629
2015    5        8    16  26    5.1761   419.6    9.216      64.367
2015    5        8    16  32    5.1992   419.6    9.213      64.104
2015    5        8    16  37    5.2219   419.5    9.209      63.840
2015    5        8    16  43    5.2443   419.5    9.204      63.574
2015    5        8    16  49    5.2664   419.5    9.199      63.307
2015    5        8    16  55    5.2881   419.5    9.194      63.037
2015    5        8    17   1    5.3095   419.5    9.188      62.765
2015    5        8    17   7    5.3305   419.5    9.182      62.491
2015    5        8    17  13    5.3510   419.5    9.176      62.217
2015    5        8    17  19    5.3712   419.5    9.169      61.942
2015    5        8    17  24    5.3910   419.5    9.162      61.667
2015    5        8    17  30    5.4103   419.5    9.154      61.392
2015    5        8    17  36    5.4292   419.5    9.146      61.119
2015    5        8    17  42    5.4476   419.5    9.138      60.848
2015    5        8    17  48    5.4656   419.6    9.129      60.579
2015    5        8    17  54    5.4831   419.6    9.120      60.311
2015    5        8    18   0    5.5002   419.6    9.111      60.045
2015    5        8    18   6    5.5167   419.6    9.101      59.780
2015    5        8    18  11    5.5328   419.7    9.091      59.515
2015    5        8    18  17    5.5483   419.7    9.081      59.251
2015    5        8    18  23    5.5633   419.7    9.070      58.987
2015    5        8    18  29    5.5778   419.8    9.059      58.723
2015    5        8    18  35    5.5918   419.8    9.048      58.459
2015    5        8    18  41    5.6053   419.9    9.036      58.195
2015    5        8    18  47    5.6182   419.9    9.025      57.929
2015    5        8    18  52    5.6306   420.0    9.012      57.663
2015    5        8    18  58    5.6425   420.0    9.000      57.396
2015    5        8    19   4    5.6539   420.1    8.987      57.127
2015    5        8    19  10    5.6647   420.2    8.974      56.857
2015    5        8    19  16    5.6751   420.2    8.961      56.586
2015    5        8    19  22    5.6848   420.3    8.947      56.313
2015    5        8    19  28    5.6942   420.4    8.933      56.039
2015    5        8    19  34    5.7030   420.5    8.919      55.762
2015    5        8    19  39    5.7112   420.6    8.904      55.483
2015    5        8    19  45    5.7190   420.7    8.889      55.202
2015    5        8    19  51    5.7263   420.8    8.874      54.919
2015    5        8    19  57    5.7331   420.9    8.858      54.638
2015    5        8    20   3    5.7394   421.0    8.842      54.357
2015    5        8    20   9    5.7452   421.1    8.826      54.079
2015    5        8    20  15    5.7506   421.2    8.809      53.804
2015    5        8    20  21    5.7554   421.4    8.792      53.534
2015    5        8    20  26    5.7597   421.5    8.774      53.270
2015    5        8    20  32    5.7634   421.7    8.756      53.011
2015    5        8    20  38    5.7666   421.8    8.738      52.759
2015    5        8    20  44    5.7691   422.0    8.719      52.512
2015    5        8    20  50    5.7710   422.1    8.699      52.271
2015    5        8    20  56    5.7722   422.3    8.679      52.035
2015    5        8    21   2    5.7728   422.5    8.658      51.804
2015    5        8    21   8    5.7725   422.6    8.636      51.578
2015    5        8    21  13    5.7716   422.8    8.614      51.354
2015    5        8    21  19    5.7698   423.0    8.591      51.134
2015    5        8    21  25    5.7672   423.1    8.567      50.919
2015    5        8    21  31    5.7638   423.3    8.542      50.710
2015    5        8    21  37    5.7596   423.5    8.516      50.506
2015    5        8    21  43    5.7546   423.6    8.489      50.307
2015    5        8    21  49    5.7489   423.8    8.462      50.112
2015    5        8    21  55    5.7424   423.9    8.435      49.922
2015    5        8    22   0    5.7350   424.1    8.408      49.739
2015    5        8    22   6    5.7269   424.2    8.380      49.562
2015    5        8    22  12    5.7184   424.4    8.353      49.388
2015    5        8    22  18    5.7093   424.5    8.327      49.218
2015    5        8    22  24    5.7000   424.7    8.300      49.051
2015    5        8    22  30    5.6904   424.8    8.275      48.888
2015    5        8    22  36    5.6806   424.9    8.249      48.728
2015    5        8    22  42    5.6709   425.1    8.224      48.572
2015    5        8    22  47    5.6612   425.2    8.199      48.418
2015    5        8    22  53    5.6517   425.4    8.175      48.268
2015    5        8    22  59    5.6424   425.6    8.151      48.121
2015    5        8    23   5    5.6331   425.7    8.127      47.977
2015    5        8    23  11    5.6240   425.9    8.103      47.835
2015    5        8    23  17    5.6151   426.1    8.080      47.697
2015    5        8    23  23    5.6062   426.2    8.057      47.561
2015    5        8    23  29    5.5975   426.4    8.034      47.428
2015    5        8    23  34    5.5889   426.6    8.012      47.298
2015    5        8    23  40    5.5805   426.8    7.989      47.171
2015    5        8    23  46    5.5720   427.0    7.966      47.048
2015    5        8    23  52    5.5635   427.2    7.944      46.928
2015    5        8    23  58    5.5550   427.5    7.921      46.810
2015    5        9     0   4    5.5464   427.7    7.898      46.696
2015    5        9     0  10    5.5377   428.0    7.875      46.585
2015    5        9     0  16    5.5287   428.2    7.851      46.476
2015    5        9     0  21    5.5194   428.5    7.828      46.370
2015    5        9     0  27    5.5098   428.7    7.803      46.264
2015    5        9     0  33    5.4996   429.0    7.778      46.159
2015    5        9     0  39    5.4890   429.3    7.753      46.054
2015    5        9     0  45    5.4778   429.6    7.726      45.951
2015    5        9     0  51    5.4661   429.9    7.698      45.849
2015    5        9     0  57    5.4536   430.1    7.670      45.747
2015    5        9     1   3    5.4406   430.4    7.641      45.646
2015    5        9     1   8    5.4268   430.7    7.611      45.547
2015    5        9     1  14    5.4123   430.9    7.582      45.448
2015    5        9     1  20    5.3971   431.2    7.552      45.352
2015    5        9     1  26    5.3814   431.4    7.523      45.258
2015    5        9     1  32    5.3651   431.6    7.495      45.166
2015    5        9     1  38    5.3485   431.8    7.467      45.076
2015    5        9     1  44    5.3317   431.9    7.441      44.989
2015    5        9     1  50    5.3148   432.1    7.415      44.903
2015    5        9     1  55    5.2980   432.3    7.390      44.818
2015    5        9     2   1    5.2815   432.5    7.365      44.735
2015    5        9     2   7    5.2652   432.7    7.342      44.654
2015    5        9     2  13    5.2493   432.9    7.319      44.574
2015    5        9     2  19    5.2338   433.1    7.297      44.497
2015    5        9     2  25    5.2188   433.2    7.275      44.421
2015    5        9     2  31    5.2041   433.4    7.255      44.346
2015    5        9     2  36    5.1898   433.6    7.235      44.273
2015    5        9     2  42    5.1759   433.8    7.216      44.202
2015    5        9     2  48    5.1624   433.9    7.197      44.131
2015    5        9     2  54    5.1492   434.1    7.179      44.062
2015    5        9     3   0    5.1364   434.2    7.162      43.995
2015    5        9     3   6    5.1239   434.4    7.144      43.927
2015    5        9     3  12    5.1119   434.5    7.128      43.861
2015    5        9     3  18    5.1002   434.7    7.111      43.794
2015    5        9     3  23    5.0889   434.8    7.095      43.728
2015    5        9     3  29    5.0779   435.0    7.080      43.663
2015    5        9     3  35    5.0673   435.1    7.065      43.598
2015    5        9     3  41    5.0570   435.3    7.050      43.533
2015    5        9     3  47    5.0470   435.4    7.036      43.469
2015    5        9     3  53    5.0374   435.5    7.022      43.406
2015    5        9     3  59    5.0281   435.6    7.008      43.343
2015    5        9     4   5    5.0190   435.8    6.994      43.281
2015    5        9     4  10    5.0103   435.9    6.981      43.220
2015    5        9     4  16    5.0018   436.0    6.968      43.159
2015    5        9     4  22    4.9936   436.1    6.955      43.099
2015    5        9     4  28    4.9857   436.3    6.942      43.039
2015    5        9     4  34    4.9780   436.4    6.930      42.981
2015    5        9     4  40    4.9706   436.5    6.918      42.923
2015    5        9     4  46    4.9635   436.6    6.906      42.865
2015    5        9     4  52    4.9565   436.7    6.894      42.809
2015    5        9     4  57    4.9499   436.9    6.882      42.753
2015    5        9     5   3    4.9434   437.0    6.871      42.698
2015    5        9     5   9    4.9372   437.1    6.859      42.644
2015    5        9     5  15    4.9311   437.2    6.848      42.590
2015    5        9     5  21    4.9253   437.3    6.837      42.536
2015    5        9     5  27    4.9197   437.4    6.827      42.484
2015    5        9     5  33    4.9143   437.5    6.816      42.432
2015    5        9     5  39    4.9091   437.6    6.806      42.381
2015    5        9     5  44    4.9041   437.7    6.796      42.331
2015    5        9     5  50    4.8993   437.8    6.786      42.282
2015    5        9     5  56    4.8946   438.0    6.777      42.234
2015    5        9     6   2    4.8902   438.1    6.768      42.187
2015    5        9     6   8    4.8859   438.2    6.759      42.141
2015    5        9     6  14    4.8818   438.3    6.750      42.097
2015    5        9     6  20    4.8778   438.4    6.742      42.055
2015    5        9     6  26    4.8739   438.5    6.734      42.014
2015    5        9     6  31    4.8702   438.6    6.726      41.974
2015    5        9     6  37    4.8666   438.7    6.719      41.936
2015    5        9     6  43    4.8632   438.8    6.712      41.899
2015    5        9     6  49    4.8598   438.9    6.705      41.864
2015    5        9     6  55    4.8566   439.1    6.699      41.830
2015    5        9     7   1    4.8536   439.2    6.693      41.798
2015    5        9     7   7    4.8506   439.3    6.687      41.768
2015    5        9     7  13    4.8478   439.4    6.682      41.740
2015    5        9     7  18    4.8452   439.5    6.677      41.713
2015    5        9     7  24    4.8427   439.6    6.672      41.689
2015    5        9     7  30    4.8404   439.7    6.668      41.666
2015    5        9     7  36    4.8382   439.8    6.664      41.644
2015    5        9     7  42    4.8363   439.9    6.661      41.624
2015    5        9     7  48    4.8345   440.0    6.658      41.606
2015    5        9     7  54    4.8328   440.1    6.655      41.590
2015    5        9     7  59    4.8314   440.3    6.652      41.576
2015    5        9     8   5    4.8302   440.4    6.650      41.563
2015    5        9     8  11    4.8291   440.5    6.647      41.552
2015    5        9     8  17    4.8282   440.6    6.645      41.542
2015    5        9     8  23    4.8276   440.7    6.643      41.533
2015    5        9     8  29    4.8271   440.8    6.641      41.524
2015    5        9     8  35    4.8268   440.9    6.639      41.515
2015    5        9     8  41    4.8267   441.0    6.637      41.506
2015    5        9     8  46    4.8267   441.1    6.635      41.496
2015    5        9     8  52    4.8269   441.1    6.634      41.487
2015    5        9     8  58    4.8272   441.2    6.632      41.477
2015    5        9     9   4    4.8276   441.3    6.631      41.468
2015    5        9     9  10    4.8282   441.4    6.630      41.460
2015    5        9     9  16    4.8288   441.5    6.629      41.452
2015    5        9     9  22    4.8295   441.5    6.629      41.444
2015    5        9     9  28    4.8303   441.6    6.628      41.438
2015    5        9     9  33    4.8311   441.7    6.629      41.433
2015    5        9     9  39    4.8320   441.7    6.629      41.429
2015    5        9     9  45    4.8330   441.8    6.630      41.427
2015    5        9     9  51    4.8340   441.9    6.631      41.426
2015    5        9     9  57    4.8351   441.9    6.633      41.427
2015    5        9    10   3    4.8361   442.0    6.635      41.430
2015    5        9    10   9    4.8373   442.0    6.638      41.435
2015    5        9    10  15    4.8384   442.1    6.641      41.443
2015    5        9    10  20    4.8397   442.1    6.644      41.453
2015    5        9    10  26    4.8410   442.1    6.649      41.466
2015    5        9    10  32    4.8424   442.2    6.653      41.482
2015    5        9    10  38    4.8439   442.2    6.658      41.498
2015    5        9    10  44    4.8455   442.3    6.664      41.518
2015    5        9    10  50    4.8472   442.3    6.670      41.541
2015    5        9    10  56    4.8490   442.3    6.677      41.567
2015    5        9    11   2    4.8510   442.4    6.684      41.596
2015    5        9    11   7    4.8532   442.4    6.691      41.626
2015    5        9    11  13    4.8555   442.4    6.699      41.658
2015    5        9    11  19    4.8580   442.5    6.706      41.693
2015    5        9    11  25    4.8606   442.5    6.714      41.728
2015    5        9    11  31    4.8635   442.5    6.722      41.765
2015    5        9    11  37    4.8665   442.6    6.729      41.801
2015    5        9    11  43    4.8698   442.6    6.737      41.838
2015    5        9    11  49    4.8733   442.6    6.745      41.876
2015    5        9    11  54    4.8770   442.7    6.753      41.914
2015    5        9    12   0    4.8808   442.7    6.760      41.953
2015    5        9    12   6    4.8848   442.8    6.768      41.992
2015    5        9    12  12    4.8889   442.8    6.775      42.031
2015    5        9    12  18    4.8932   442.9    6.782      42.071
2015    5        9    12  24    4.8975   442.9    6.789      42.110
2015    5        9    12  30    4.9019   442.9    6.796      42.149
2015    5        9    12  36    4.9064   443.0    6.802      42.188
2015    5        9    12  41    4.9109   443.0    6.809      42.225
2015    5        9    12  47    4.9155   443.1    6.815      42.262
2015    5        9    12  53    4.9201   443.1    6.821      42.299
2015    5        9    12  59    4.9248   443.2    6.827      42.334
2015    5        9    13   5    4.9294   443.2    6.833      42.370
2015    5        9    13  11    4.9341   443.3    6.839      42.405
2015    5        9    13  17    4.9387   443.3    6.845      42.440
2015    5        9    13  22    4.9432   443.4    6.850      42.474
2015    5        9    13  28    4.9477   443.5    6.856      42.509
2015    5        9    13  34    4.9522   443.5    6.862      42.545
2015    5        9    13  40    4.9566   443.6    6.867      42.580
2015    5        9    13  46    4.9610   443.7    6.873      42.616
2015    5        9    13  52    4.9653   443.7    6.878      42.652
2015    5        9    13  58    4.9695   443.8    6.883      42.688
2015    5        9    14   4    4.9737   443.9    6.889      42.724
2015    5        9    14   9    4.9778   443.9    6.894      42.759
2015    5        9    14  15    4.9818   444.0    6.899      42.794
2015    5        9    14  21    4.9858   444.1    6.903      42.830
2015    5        9    14  27    4.9897   444.2    6.908      42.864
2015    5        9    14  33    4.9936   444.3    6.912      42.899
2015    5        9    14  39    4.9973   444.4    6.917      42.933
2015    5        9    14  45    5.0010   444.4    6.921      42.967
2015    5        9    14  51    5.0047   444.5    6.925      43.001
2015    5        9    14  56    5.0083   444.6    6.929      43.035
2015    5        9    15   2    5.0118   444.7    6.933      43.068
2015    5        9    15   8    5.0153   444.8    6.937      43.100
2015    5        9    15  14    5.0187   444.9    6.940      43.133
2015    5        9    15  20    5.0221   445.0    6.944      43.166
2015    5        9    15  26    5.0254   445.1    6.947      43.198
2015    5        9    15  32    5.0287   445.2    6.951      43.230
2015    5        9    15  38    5.0319   445.3    6.954      43.261
2015    5        9    15  43    5.0351   445.3    6.957      43.292
2015    5        9    15  49    5.0382   445.4    6.960      43.324
2015    5        9    15  55    5.0414   445.5    6.963      43.354
2015    5        9    16   1    5.0445   445.6    6.966      43.385
2015    5        9    16   7    5.0475   445.7    6.969      43.416
2015    5        9    16  13    5.0506   445.8    6.972      43.446
2015    5        9    16  19    5.0536   445.9    6.975      43.477
2015    5        9    16  25    5.0566   446.0    6.977      43.508
2015    5        9    16  30    5.0595   446.1    6.980      43.538
2015    5        9    16  36    5.0625   446.2    6.982      43.569
2015    5        9    16  42    5.0654   446.3    6.985      43.599
2015    5        9    16  48    5.0683   446.5    6.987      43.629
2015    5        9    16  54    5.0712   446.6    6.989      43.659
2015    5        9    17   0    5.0741   446.7    6.991      43.689
2015    5        9    17   6    5.0769   446.8    6.994      43.719
2015    5        9    17  12    5.0798   446.9    6.996      43.748
2015    5        9    17  17    5.0826   447.0    6.998      43.778
2015    5        9    17  23    5.0854   447.1    7.000      43.808
2015    5        9    17  29    5.0883   447.2    7.002      43.838
2015    5        9    17  35    5.0911   447.3    7.004      43.867
2015    5        9    17  41    5.0939   447.4    7.006      43.898
2015    5        9    17  47    5.0968   447.5    7.009      43.928
2015    5        9    17  53    5.0996   447.6    7.011      43.958
2015    5        9    17  58    5.1025   447.7    7.013      43.988
2015    5        9    18   4    5.1054   447.8    7.016      44.019
2015    5        9    18  10    5.1084   447.9    7.019      44.051
2015    5        9    18  16    5.1113   448.0    7.021      44.084
2015    5        9    18  22    5.1143   448.1    7.024      44.118
2015    5        9    18  28    5.1173   448.3    7.027      44.153
2015    5        9    18  34    5.1202   448.4    7.029      44.190
2015    5        9    18  40    5.1232   448.5    7.032      44.227
2015    5        9    18  45    5.1262   448.6    7.035      44.266
2015    5        9    18  51    5.1292   448.8    7.037      44.304
2015    5        9    18  57    5.1322   448.9    7.040      44.343
2015    5        9    19   3    5.1352   449.0    7.042      44.382
2015    5        9    19   9    5.1382   449.1    7.045      44.422
2015    5        9    19  15    5.1411   449.3    7.047      44.462
2015    5        9    19  21    5.1441   449.4    7.049      44.502
2015    5        9    19  27    5.1470   449.5    7.051      44.542
2015    5        9    19  32    5.1499   449.6    7.053      44.582
2015    5        9    19  38    5.1528   449.8    7.054      44.622
2015    5        9    19  44    5.1557   449.9    7.056      44.662
2015    5        9    19  50    5.1585   450.0    7.058      44.701
2015    5        9    19  56    5.1614   450.2    7.059      44.740
2015    5        9    20   2    5.1642   450.3    7.060      44.778
2015    5        9    20   8    5.1670   450.4    7.062      44.816
2015    5        9    20  14    5.1699   450.6    7.063      44.854
2015    5        9    20  19    5.1727   450.7    7.064      44.892
2015    5        9    20  25    5.1755   450.8    7.066      44.929
2015    5        9    20  31    5.1783   450.9    7.067      44.967
2015    5        9    20  37    5.1811   451.1    7.068      45.004
2015    5        9    20  43    5.1840   451.2    7.069      45.041
2015    5        9    20  49    5.1868   451.3    7.071      45.078
2015    5        9    20  55    5.1897   451.5    7.072      45.116
2015    5        9    21   1    5.1925   451.6    7.074      45.153
2015    5        9    21   6    5.1954   451.7    7.075      45.190
2015    5        9    21  12    5.1983   451.8    7.077      45.228
2015    5        9    21  18    5.2012   452.0    7.079      45.266
2015    5        9    21  24    5.2042   452.1    7.081      45.304
2015    5        9    21  30    5.2072   452.2    7.083      45.343
2015    5        9    21  36    5.2101   452.3    7.085      45.381
2015    5        9    21  42    5.2132   452.5    7.087      45.419
2015    5        9    21  48    5.2162   452.6    7.089      45.459
2015    5        9    21  53    5.2193   452.7    7.092      45.500
2015    5        9    21  59    5.2224   452.9    7.094      45.541
2015    5        9    22   5    5.2255   453.0    7.097      45.582
2015    5        9    22  11    5.2286   453.1    7.099      45.624
2015    5        9    22  17    5.2317   453.2    7.102      45.666
2015    5        9    22  23    5.2347   453.4    7.104      45.709
2015    5        9    22  29    5.2378   453.5    7.107      45.751
2015    5        9    22  34    5.2409   453.6    7.109      45.792
2015    5        9    22  40    5.2439   453.8    7.112      45.834
2015    5        9    22  46    5.2469   453.9    7.114      45.875
2015    5        9    22  52    5.2499   454.0    7.116      45.917
2015    5        9    22  58    5.2529   454.2    7.118      45.960
2015    5        9    23   4    5.2558   454.3    7.120      46.002
2015    5        9    23  10    5.2587   454.5    7.122      46.045
2015    5        9    23  16    5.2616   454.6    7.124      46.088
2015    5        9    23  21    5.2644   454.7    7.125      46.130
2015    5        9    23  27    5.2673   454.9    7.126      46.172
2015    5        9    23  33    5.2701   455.0    7.128      46.214
2015    5        9    23  39    5.2728   455.2    7.129      46.255
2015    5        9    23  45    5.2756   455.3    7.130      46.296
2015    5        9    23  51    5.2783   455.5    7.130      46.336
2015    5        9    23  57    5.2810   455.6    7.131      46.376
2015    5       10     0   3    5.2836   455.8    7.132      46.416
2015    5       10     0   8    5.2863   455.9    7.132      46.455
2015    5       10     0  14    5.2889   456.1    7.133      46.494
2015    5       10     0  20    5.2916   456.2    7.133      46.533
2015    5       10     0  26    5.2942   456.4    7.133      46.571
2015    5       10     0  32    5.2968   456.5    7.133      46.609
2015    5       10     0  38    5.2994   456.7    7.133      46.647
2015    5       10     0  44    5.3020   456.8    7.134      46.685
2015    5       10     0  50    5.3046   457.0    7.134      46.723
2015    5       10     0  55    5.3072   457.2    7.134      46.761
2015    5       10     1   1    5.3098   457.3    7.134      46.798
2015    5       10     1   7    5.3124   457.5    7.134      46.836
2015    5       10     1  13    5.3151   457.6    7.134      46.873
2015    5       10     1  19    5.3177   457.8    7.134      46.911
2015    5       10     1  25    5.3204   457.9    7.135      46.949
2015    5       10     1  31    5.3230   458.1    7.135      46.987
2015    5       10     1  37    5.3257   458.3    7.135      47.025
2015    5       10     1  42    5.3284   458.4    7.136      47.064
2015    5       10     1  48    5.3310   458.6    7.136      47.104
2015    5       10     1  54    5.3337   458.8    7.137      47.145
2015    5       10     2   0    5.3363   458.9    7.137      47.186
2015    5       10     2   6    5.3390   459.1    7.138      47.229
2015    5       10     2  12    5.3416   459.3    7.138      47.272
2015    5       10     2  18    5.3442   459.4    7.138      47.315
2015    5       10     2  24    5.3468   459.6    7.138      47.358
2015    5       10     2  29    5.3493   459.8    7.138      47.401
2015    5       10     2  35    5.3519   460.0    7.138      47.443
2015    5       10     2  41    5.3544   460.1    7.138      47.486
2015    5       10     2  47    5.3569   460.3    7.138      47.527
2015    5       10     2  53    5.3594   460.5    7.137      47.569
2015    5       10     2  59    5.3619   460.7    7.137      47.610
2015    5       10     3   5    5.3644   460.8    7.136      47.651
2015    5       10     3  11    5.3669   461.0    7.136      47.692
2015    5       10     3  16    5.3693   461.2    7.135      47.733
2015    5       10     3  22    5.3718   461.4    7.135      47.773
2015    5       10     3  28    5.3743   461.5    7.134      47.813
2015    5       10     3  34    5.3768   461.7    7.134      47.854
2015    5       10     3  40    5.3792   461.9    7.133      47.894
2015    5       10     3  46    5.3817   462.1    7.133      47.934
2015    5       10     3  52    5.3842   462.2    7.133      47.975
2015    5       10     3  57    5.3867   462.4    7.133      48.015
2015    5       10     4   3    5.3892   462.6    7.133      48.056
2015    5       10     4   9    5.3917   462.8    7.132      48.098
2015    5       10     4  15    5.3941   463.0    7.132      48.141
2015    5       10     4  21    5.3965   463.1    7.132      48.185
2015    5       10     4  27    5.3989   463.3    7.132      48.230
2015    5       10     4  33    5.4013   463.5    7.132      48.277
2015    5       10     4  39    5.4036   463.7    7.132      48.323
2015    5       10     4  44    5.4060   463.9    7.131      48.370
2015    5       10     4  50    5.4083   464.1    7.131      48.417
2015    5       10     4  56    5.4106   464.3    7.131      48.463
2015    5       10     5   2    5.4128   464.5    7.130      48.509
2015    5       10     5   8    5.4151   464.6    7.130      48.556
2015    5       10     5  14    5.4173   464.8    7.129      48.602
2015    5       10     5  20    5.4195   465.0    7.128      48.648
2015    5       10     5  26    5.4218   465.2    7.128      48.693
2015    5       10     5  31    5.4240   465.4    7.127      48.739
2015    5       10     5  37    5.4262   465.6    7.127      48.784
2015    5       10     5  43    5.4284   465.7    7.126      48.830
2015    5       10     5  49    5.4306   465.9    7.125      48.876
2015    5       10     5  55    5.4329   466.1    7.125      48.922
2015    5       10     6   1    5.4351   466.3    7.124      48.968
2015    5       10     6   7    5.4373   466.5    7.123      49.014
2015    5       10     6  13    5.4396   466.7    7.122      49.060
2015    5       10     6  18    5.4418   466.8    7.121      49.106
2015    5       10     6  24    5.4441   467.0    7.120      49.151
2015    5       10     6  30    5.4463   467.2    7.119      49.196
2015    5       10     6  36    5.4486   467.4    7.117      49.240
2015    5       10     6  42    5.4508   467.6    7.116      49.284
2015    5       10     6  48    5.4531   467.8    7.115      49.328
2015    5       10     6  54    5.4554   468.0    7.113      49.371
2015    5       10     7   0    5.4577   468.1    7.112      49.414
2015    5       10     7   5    5.4599   468.3    7.110      49.457
2015    5       10     7  11    5.4622   468.5    7.109      49.499
2015    5       10     7  17    5.4645   468.7    7.107      49.542
2015    5       10     7  23    5.4668   468.9    7.106      49.584
2015    5       10     7  29    5.4692   469.1    7.104      49.626
2015    5       10     7  35    5.4715   469.3    7.103      49.669
2015    5       10     7  41    5.4739   469.5    7.101      49.711
2015    5       10     7  46    5.4763   469.7    7.100      49.754
2015    5       10     7  52    5.4787   469.9    7.099      49.796
2015    5       10     7  58    5.4812   470.1    7.098      49.840
2015    5       10     8   4    5.4837   470.3    7.097      49.884
2015    5       10     8  10    5.4863   470.4    7.096      49.929
2015    5       10     8  16    5.4888   470.6    7.095      49.975
2015    5       10     8  22    5.4914   470.8    7.094      50.022
2015    5       10     8  28    5.4940   471.0    7.094      50.070
2015    5       10     8  33    5.4966   471.3    7.093      50.119
2015    5       10     8  39    5.4993   471.4    7.092      50.168
2015    5       10     8  45    5.5019   471.7    7.092      50.217
2015    5       10     8  51    5.5046   471.9    7.091      50.267
2015    5       10     8  57    5.5072   472.1    7.091      50.317
2015    5       10     9   3    5.5098   472.3    7.091      50.370
2015    5       10     9   9    5.5124   472.5    7.090      50.423
2015    5       10     9  15    5.5149   472.7    7.089      50.479
2015    5       10     9  20    5.5175   472.9    7.088      50.535
2015    5       10     9  26    5.5199   473.2    7.087      50.592
2015    5       10     9  32    5.5224   473.4    7.086      50.650
2015    5       10     9  38    5.5248   473.6    7.085      50.706
2015    5       10     9  44    5.5271   473.8    7.084      50.763
2015    5       10     9  50    5.5294   474.1    7.082      50.818
2015    5       10     9  56    5.5316   474.3    7.080      50.873
2015    5       10    10   2    5.5339   474.5    7.078      50.927
2015    5       10    10   7    5.5360   474.7    7.076      50.980
2015    5       10    10  13    5.5381   475.0    7.074      51.033
2015    5       10    10  19    5.5402   475.2    7.071      51.084
2015    5       10    10  25    5.5423   475.4    7.069      51.135
2015    5       10    10  31    5.5443   475.7    7.066      51.186
2015    5       10    10  37    5.5464   475.9    7.063      51.235
2015    5       10    10  43    5.5483   476.1    7.061      51.284
2015    5       10    10  49    5.5503   476.3    7.058      51.333
2015    5       10    10  54    5.5522   476.6    7.055      51.381
2015    5       10    11   0    5.5542   476.8    7.052      51.428
2015    5       10    11   6    5.5560   477.0    7.050      51.475
2015    5       10    11  12    5.5579   477.2    7.047      51.521
2015    5       10    11  18    5.5597   477.5    7.044      51.568
2015    5       10    11  24    5.5615   477.7    7.041      51.615
2015    5       10    11  30    5.5632   477.9    7.038      51.663
2015    5       10    11  35    5.5649   478.2    7.035      51.711
2015    5       10    11  41    5.5666   478.4    7.032      51.760
2015    5       10    11  47    5.5682   478.7    7.029      51.808
2015    5       10    11  53    5.5698   478.9    7.025      51.857
2015    5       10    11  59    5.5714   479.1    7.022      51.904
2015    5       10    12   5    5.5729   479.4    7.018      51.950
2015    5       10    12  11    5.5744   479.6    7.014      51.995
2015    5       10    12  17    5.5758   479.9    7.010      52.040
2015    5       10    12  22    5.5772   480.1    7.005      52.084
2015    5       10    12  28    5.5785   480.3    7.001      52.127
2015    5       10    12  34    5.5799   480.6    6.996      52.169
2015    5       10    12  40    5.5812   480.8    6.991      52.210
2015    5       10    12  46    5.5824   481.1    6.986      52.251
2015    5       10    12  52    5.5837   481.3    6.981      52.291
2015    5       10    12  58    5.5850   481.5    6.976      52.330
2015    5       10    13   4    5.5862   481.8    6.971      52.368
2015    5       10    13   9    5.5874   482.0    6.966      52.407
2015    5       10    13  15    5.5886   482.3    6.960      52.444
2015    5       10    13  21    5.5898   482.5    6.955      52.481
2015    5       10    13  27    5.5910   482.8    6.950      52.518
2015    5       10    13  33    5.5921   483.0    6.944      52.554
2015    5       10    13  39    5.5933   483.2    6.938      52.590
2015    5       10    13  45    5.5944   483.5    6.933      52.626
2015    5       10    13  51    5.5955   483.7    6.927      52.661
2015    5       10    13  56    5.5966   484.0    6.922      52.696
2015    5       10    14   2    5.5977   484.2    6.916      52.731
2015    5       10    14   8    5.5988   484.5    6.910      52.765
2015    5       10    14  14    5.5999   484.7    6.905      52.800
2015    5       10    14  20    5.6009   485.0    6.899      52.834
2015    5       10    14  26    5.6020   485.2    6.893      52.869
2015    5       10    14  32    5.6030   485.5    6.887      52.904
2015    5       10    14  38    5.6040   485.7    6.882      52.938
2015    5       10    14  43    5.6050   485.9    6.876      52.972
2015    5       10    14  49    5.6060   486.2    6.870      53.006
2015    5       10    14  55    5.6070   486.4    6.865      53.040
2015    5       10    15   1    5.6080   486.7    6.859      53.074
2015    5       10    15   7    5.6089   486.9    6.853      53.108
2015    5       10    15  13    5.6099   487.2    6.848      53.142
2015    5       10    15  19    5.6109   487.4    6.843      53.177
2015    5       10    15  24    5.6119   487.7    6.837      53.211
2015    5       10    15  30    5.6129   487.9    6.832      53.246
2015    5       10    15  36    5.6139   488.1    6.827      53.281
2015    5       10    15  42    5.6149   488.4    6.823      53.316
2015    5       10    15  48    5.6159   488.6    6.818      53.353
2015    5       10    15  54    5.6170   488.9    6.813      53.390
2015    5       10    16   0    5.6181   489.1    6.809      53.429
2015    5       10    16   6    5.6191   489.4    6.804      53.469
2015    5       10    16  11    5.6202   489.6    6.800      53.511
2015    5       10    16  17    5.6213   489.9    6.795      53.555
2015    5       10    16  23    5.6223   490.1    6.791      53.599
2015    5       10    16  29    5.6234   490.4    6.786      53.644
2015    5       10    16  35    5.6245   490.6    6.782      53.689
2015    5       10    16  41    5.6255   490.9    6.777      53.735
2015    5       10    16  47    5.6266   491.1    6.773      53.781
2015    5       10    16  53    5.6276   491.4    6.768      53.827
2015    5       10    16  58    5.6286   491.6    6.763      53.873
2015    5       10    17   4    5.6296   491.9    6.758      53.919
2015    5       10    17  10    5.6306   492.2    6.753      53.965
2015    5       10    17  16    5.6316   492.4    6.749      54.011
2015    5       10    17  22    5.6325   492.7    6.744      54.057
2015    5       10    17  28    5.6335   492.9    6.739      54.102
2015    5       10    17  34    5.6344   493.2    6.735      54.150
2015    5       10    17  40    5.6353   493.4    6.730      54.198
2015    5       10    17  45    5.6362   493.7    6.726      54.247
2015    5       10    17  51    5.6370   493.9    6.721      54.297
2015    5       10    17  57    5.6377   494.2    6.716      54.348
2015    5       10    18   3    5.6384   494.5    6.711      54.400
2015    5       10    18   9    5.6390   494.7    6.706      54.451
2015    5       10    18  15    5.6395   495.0    6.700      54.501
2015    5       10    18  21    5.6400   495.3    6.695      54.549
2015    5       10    18  27    5.6404   495.5    6.689      54.596
2015    5       10    18  32    5.6407   495.8    6.683      54.642
2015    5       10    18  38    5.6410   496.1    6.676      54.687
2015    5       10    18  44    5.6412   496.3    6.670      54.731
2015    5       10    18  50    5.6413   496.6    6.663      54.773
2015    5       10    18  56    5.6414   496.9    6.656      54.815
2015    5       10    19   2    5.6414   497.1    6.649      54.854
2015    5       10    19   8    5.6414   497.4    6.642      54.893
2015    5       10    19  14    5.6413   497.7    6.634      54.930
2015    5       10    19  19    5.6412   497.9    6.627      54.966
2015    5       10    19  25    5.6410   498.2    6.619      55.001
2015    5       10    19  31    5.6408   498.5    6.611      55.035
2015    5       10    19  37    5.6406   498.7    6.603      55.069
2015    5       10    19  43    5.6403   499.0    6.595      55.100
2015    5       10    19  49    5.6400   499.3    6.587      55.132
2015    5       10    19  55    5.6396   499.5    6.579      55.162
2015    5       10    20   0    5.6393   499.8    6.571      55.191
2015    5       10    20   6    5.6389   500.1    6.563      55.220
2015    5       10    20  12    5.6385   500.3    6.555      55.248
2015    5       10    20  18    5.6380   500.6    6.546      55.276
2015    5       10    20  24    5.6376   500.8    6.538      55.303
2015    5       10    20  30    5.6372   501.1    6.530      55.329
2015    5       10    20  36    5.6367   501.4    6.521      55.355
2015    5       10    20  42    5.6362   501.6    6.513      55.380
2015    5       10    20  47    5.6357   501.9    6.505      55.406
2015    5       10    20  53    5.6352   502.1    6.497      55.431
2015    5       10    20  59    5.6346   502.4    6.489      55.457
2015    5       10    21   5    5.6341   502.6    6.480      55.482
2015    5       10    21  11    5.6335   502.9    6.472      55.507
2015    5       10    21  17    5.6329   503.1    6.464      55.532
2015    5       10    21  23    5.6322   503.4    6.456      55.557
2015    5       10    21  29    5.6315   503.7    6.448      55.581
2015    5       10    21  34    5.6309   503.9    6.439      55.605
2015    5       10    21  40    5.6302   504.2    6.431      55.628
2015    5       10    21  46    5.6294   504.4    6.423      55.651
2015    5       10    21  52    5.6287   504.7    6.414      55.673
2015    5       10    21  58    5.6279   504.9    6.406      55.695
2015    5       10    22   4    5.6272   505.2    6.398      55.716
2015    5       10    22  10    5.6264   505.4    6.389      55.737
2015    5       10    22  16    5.6255   505.7    6.381      55.757
2015    5       10    22  21    5.6247   506.0    6.372      55.778
2015    5       10    22  27    5.6239   506.2    6.364      55.797
2015    5       10    22  33    5.6230   506.5    6.356      55.817
2015    5       10    22  39    5.6222   506.7    6.348      55.836
2015    5       10    22  45    5.6213   507.0    6.340      55.855
2015    5       10    22  51    5.6204   507.2    6.331      55.874
2015    5       10    22  57    5.6196   507.5    6.323      55.892
2015    5       10    23   3    5.6187   507.7    6.315      55.911
2015    5       10    23   8    5.6178   507.9    6.308      55.929
2015    5       10    23  14    5.6169   508.2    6.300      55.948
2015    5       10    23  20    5.6159   508.4    6.292      55.967
2015    5       10    23  26    5.6150   508.7    6.284      55.986
2015    5       10    23  32    5.6141   508.9    6.277      56.005
2015    5       10    23  38    5.6132   509.2    6.269      56.025
2015    5       10    23  44    5.6122   509.5    6.261      56.045
2015    5       10    23  49    5.6112   509.7    6.254      56.066
2015    5       10    23  55    5.6102   510.0    6.246      56.086
2015    5       11     0   1    5.6092   510.2    6.238      56.105
2015    5       11     0   7    5.6082   510.5    6.230      56.125
2015    5       11     0  13    5.6071   510.7    6.222      56.145
2015    5       11     0  19    5.6060   511.0    6.214      56.164
2015    5       11     0  25    5.6048   511.2    6.207      56.183
2015    5       11     0  31    5.6037   511.5    6.199      56.202
2015    5       11     0  36    5.6025   511.7    6.191      56.221
2015    5       11     0  42    5.6013   512.0    6.183      56.239
2015    5       11     0  48    5.6002   512.2    6.175      56.258
2015    5       11     0  54    5.5989   512.4    6.167      56.276
2015    5       11     1   0    5.5977   512.7    6.159      56.294
2015    5       11     1   6    5.5964   512.9    6.151      56.312
2015    5       11     1  12    5.5952   513.2    6.143      56.330
2015    5       11     1  18    5.5939   513.4    6.135      56.348
2015    5       11     1  23    5.5926   513.6    6.127      56.366
2015    5       11     1  29    5.5914   513.9    6.119      56.385
2015    5       11     1  35    5.5900   514.1    6.111      56.403
2015    5       11     1  41    5.5887   514.4    6.104      56.422
2015    5       11     1  47    5.5874   514.6    6.096      56.440
2015    5       11     1  53    5.5861   514.8    6.088      56.459
2015    5       11     1  59    5.5847   515.1    6.081      56.479
2015    5       11     2   5    5.5834   515.3    6.074      56.499
2015    5       11     2  10    5.5820   515.5    6.066      56.519
2015    5       11     2  16    5.5806   515.8    6.059      56.539
2015    5       11     2  22    5.5793   516.0    6.052      56.560
2015    5       11     2  28    5.5779   516.2    6.045      56.582
2015    5       11     2  34    5.5766   516.4    6.039      56.604
2015    5       11     2  40    5.5752   516.7    6.032      56.626
2015    5       11     2  46    5.5739   516.9    6.026      56.649
2015    5       11     2  52    5.5726   517.1    6.019      56.673
2015    5       11     2  57    5.5713   517.3    6.013      56.697
2015    5       11     3   3    5.5700   517.6    6.007      56.722
2015    5       11     3   9    5.5688   517.8    6.001      56.748
2015    5       11     3  15    5.5675   518.0    5.995      56.773
2015    5       11     3  21    5.5663   518.2    5.989      56.799
2015    5       11     3  27    5.5650   518.5    5.983      56.826
2015    5       11     3  33    5.5638   518.7    5.977      56.852
2015    5       11     3  38    5.5626   518.9    5.971      56.879
2015    5       11     3  44    5.5614   519.1    5.965      56.906
2015    5       11     3  50    5.5601   519.4    5.959      56.932
2015    5       11     3  56    5.5589   519.6    5.953      56.959
2015    5       11     4   2    5.5577   519.8    5.947      56.984
2015    5       11     4   8    5.5564   520.0    5.941      57.010
2015    5       11     4  14    5.5551   520.3    5.935      57.034
2015    5       11     4  20    5.5538   520.5    5.929      57.058
2015    5       11     4  25    5.5525   520.7    5.922      57.081
2015    5       11     4  31    5.5512   521.0    5.916      57.103
2015    5       11     4  37    5.5498   521.2    5.909      57.125
2015    5       11     4  43    5.5484   521.4    5.903      57.146
2015    5       11     4  49    5.5471   521.7    5.896      57.166
2015    5       11     4  55    5.5457   521.9    5.890      57.187
2015    5       11     5   1    5.5442   522.1    5.883      57.206
2015    5       11     5   7    5.5428   522.3    5.876      57.225
2015    5       11     5  12    5.5414   522.6    5.869      57.243
2015    5       11     5  18    5.5399   522.8    5.863      57.262
2015    5       11     5  24    5.5385   523.0    5.856      57.279
2015    5       11     5  30    5.5370   523.2    5.849      57.297
2015    5       11     5  36    5.5355   523.5    5.842      57.313
2015    5       11     5  42    5.5341   523.7    5.835      57.330
2015    5       11     5  48    5.5326   523.9    5.828      57.346
2015    5       11     5  54    5.5311   524.2    5.821      57.362
2015    5       11     5  59    5.5296   524.4    5.815      57.378
2015    5       11     6   5    5.5281   524.6    5.808      57.394
2015    5       11     6  11    5.5266   524.8    5.801      57.410
2015    5       11     6  17    5.5251   525.1    5.794      57.425
2015    5       11     6  23    5.5236   525.3    5.787      57.441
2015    5       11     6  29    5.5221   525.5    5.780      57.456
2015    5       11     6  35    5.5206   525.7    5.773      57.471
2015    5       11     6  40    5.5191   526.0    5.766      57.486
2015    5       11     6  46    5.5176   526.2    5.760      57.501
2015    5       11     6  52    5.5161   526.4    5.753      57.516
2015    5       11     6  58    5.5146   526.6    5.746      57.531
2015    5       11     7   4    5.5131   526.8    5.739      57.545
2015    5       11     7  10    5.5115   527.1    5.732      57.560
2015    5       11     7  16    5.5100   527.3    5.726      57.574
2015    5       11     7  22    5.5085   527.5    5.719      57.589
2015    5       11     7  27    5.5069   527.7    5.712      57.603
2015    5       11     7  33    5.5054   528.0    5.705      57.617
2015    5       11     7  39    5.5039   528.2    5.698      57.631
2015    5       11     7  45    5.5024   528.4    5.692      57.645
2015    5       11     7  51    5.5008   528.6    5.685      57.659
2015    5       11     7  57    5.4993   528.8    5.678      57.672
2015    5       11     8   3    5.4978   529.0    5.671      57.686
2015    5       11     8   9    5.4963   529.3    5.665      57.699
2015    5       11     8  14    5.4948   529.5    5.658      57.712
2015    5       11     8  20    5.4933   529.7    5.652      57.725
2015    5       11     8  26    5.4918   529.9    5.645      57.738
2015    5       11     8  32    5.4903   530.1    5.639      57.751
2015    5       11     8  38    5.4889   530.3    5.632      57.765
2015    5       11     8  44    5.4874   530.5    5.626      57.778
2015    5       11     8  50    5.4860   530.7    5.620      57.792
2015    5       11     8  56    5.4845   531.0    5.614      57.807
2015    5       11     9   1    5.4832   531.2    5.608      57.822
2015    5       11     9   7    5.4818   531.4    5.602      57.837
2015    5       11     9  13    5.4804   531.6    5.597      57.854
2015    5       11     9  19    5.4790   531.8    5.591      57.871
2015    5       11     9  25    5.4777   532.0    5.586      57.889
2015    5       11     9  31    5.4764   532.2    5.581      57.907
2015    5       11     9  37    5.4751   532.4    5.576      57.927
2015    5       11     9  43    5.4739   532.6    5.571      57.947
2015    5       11     9  48    5.4727   532.8    5.567      57.969
2015    5       11     9  54    5.4715   533.0    5.562      57.992
2015    5       11    10   0    5.4703   533.2    5.558      58.015
2015    5       11    10   6    5.4691   533.4    5.554      58.040
2015    5       11    10  12    5.4680   533.6    5.550      58.066
2015    5       11    10  18    5.4670   533.8    5.546      58.093
2015    5       11    10  24    5.4659   534.0    5.542      58.122
2015    5       11    10  29    5.4649   534.2    5.538      58.151
2015    5       11    10  35    5.4639   534.4    5.535      58.181
2015    5       11    10  41    5.4629   534.6    5.531      58.212
2015    5       11    10  47    5.4620   534.8    5.528      58.243
2015    5       11    10  53    5.4610   535.1    5.524      58.275
2015    5       11    10  59    5.4601   535.3    5.520      58.307
2015    5       11    11   5    5.4592   535.5    5.517      58.340
2015    5       11    11  11    5.4584   535.7    5.513      58.372
2015    5       11    11  16    5.4575   535.9    5.509      58.403
2015    5       11    11  22    5.4566   536.1    5.505      58.434
2015    5       11    11  28    5.4558   536.3    5.501      58.465
2015    5       11    11  34    5.4550   536.5    5.497      58.495
2015    5       11    11  40    5.4541   536.7    5.493      58.524
2015    5       11    11  46    5.4533   536.9    5.489      58.553
2015    5       11    11  52    5.4525   537.1    5.485      58.581
2015    5       11    11  58    5.4516   537.3    5.481      58.609
2015    5       11    12   3    5.4508   537.5    5.476      58.636
2015    5       11    12   9    5.4500   537.7    5.472      58.663
2015    5       11    12  15    5.4492   538.0    5.468      58.689
2015    5       11    12  21    5.4484   538.2    5.463      58.715
2015    5       11    12  27    5.4476   538.4    5.459      58.741
2015    5       11    12  33    5.4469   538.6    5.454      58.767
2015    5       11    12  39    5.4462   538.8    5.450      58.792
2015    5       11    12  45    5.4455   539.0    5.446      58.818
2015    5       11    12  50    5.4448   539.2    5.441      58.843
2015    5       11    12  56    5.4441   539.4    5.437      58.868
2015    5       11    13   2    5.4435   539.6    5.432      58.894
2015    5       11    13   8    5.4429   539.9    5.428      58.919
2015    5       11    13  14    5.4423   540.1    5.424      58.944
2015    5       11    13  20    5.4417   540.3    5.419      58.970
2015    5       11    13  26    5.4412   540.5    5.415      58.995
2015    5       11    13  32    5.4406   540.7    5.411      59.021
2015    5       11    13  37    5.4400   540.9    5.406      59.047
2015    5       11    13  43    5.4395   541.1    5.402      59.072
2015    5       11    13  49    5.4389   541.4    5.398      59.099
2015    5       11    13  55    5.4384   541.6    5.394      59.125
2015    5       11    14   1    5.4378   541.8    5.390      59.152
2015    5       11    14   7    5.4373   542.0    5.386      59.179
2015    5       11    14  13    5.4367   542.2    5.382      59.207
2015    5       11    14  18    5.4361   542.4    5.377      59.235
2015    5       11    14  24    5.4356   542.7    5.373      59.264
2015    5       11    14  30    5.4349   542.9    5.369      59.292
2015    5       11    14  36    5.4344   543.1    5.365      59.321
2015    5       11    14  42    5.4337   543.3    5.362      59.350
2015    5       11    14  48    5.4331   543.5    5.358      59.379
2015    5       11    14  54    5.4325   543.8    5.354      59.409
2015    5       11    15   0    5.4318   544.0    5.350      59.439
2015    5       11    15   5    5.4311   544.2    5.346      59.469
2015    5       11    15  11    5.4304   544.4    5.342      59.500
2015    5       11    15  17    5.4297   544.6    5.338      59.530
2015    5       11    15  23    5.4290   544.9    5.334      59.561
2015    5       11    15  29    5.4283   545.1    5.330      59.591
2015    5       11    15  35    5.4275   545.3    5.326      59.621
2015    5       11    15  41    5.4268   545.5    5.321      59.650
2015    5       11    15  47    5.4260   545.8    5.317      59.680
2015    5       11    15  52    5.4253   546.0    5.313      59.710
2015    5       11    15  58    5.4245   546.2    5.309      59.739
2015    5       11    16   4    5.4237   546.4    5.305      59.768
2015    5       11    16  10    5.4229   546.7    5.301      59.798
2015    5       11    16  16    5.4221   546.9    5.297      59.827
2015    5       11    16  22    5.4214   547.1    5.292      59.857
2015    5       11    16  28    5.4206   547.3    5.288      59.886
2015    5       11    16  34    5.4198   547.6    5.284      59.916
2015    5       11    16  39    5.4190   547.8    5.280      59.946
2015    5       11    16  45    5.4183   548.0    5.276      59.977
2015    5       11    16  51    5.4175   548.2    5.272      60.008
2015    5       11    16  57    5.4168   548.5    5.268      60.039
2015    5       11    17   3    5.4160   548.7    5.264      60.071
2015    5       11    17   9    5.4153   548.9    5.260      60.104
2015    5       11    17  15    5.4146   549.2    5.255      60.137
2015    5       11    17  20    5.4139   549.4    5.251      60.170
2015    5       11    17  26    5.4132   549.6    5.247      60.204
2015    5       11    17  32    5.4125   549.9    5.243      60.238
2015    5       11    17  38    5.4119   550.1    5.239      60.272
2015    5       11    17  44    5.4112   550.3    5.235      60.306
2015    5       11    17  50    5.4106   550.5    5.231      60.341
2015    5       11    17  56    5.4100   550.8    5.227      60.375
2015    5       11    18   2    5.4093   551.0    5.222      60.409
2015    5       11    18   7    5.4088   551.2    5.218      60.443
2015    5       11    18  13    5.4082   551.5    5.214      60.478
2015    5       11    18  19    5.4076   551.7    5.210      60.512
2015    5       11    18  25    5.4071   551.9    5.206      60.546
2015    5       11    18  31    5.4066   552.2    5.202      60.581
2015    5       11    18  37    5.4061   552.4    5.198      60.615
2015    5       11    18  43    5.4056   552.6    5.194      60.650
2015    5       11    18  49    5.4051   552.9    5.190      60.685
2015    5       11    18  54    5.4047   553.1    5.186      60.720
2015    5       11    19   0    5.4043   553.3    5.182      60.755
2015    5       11    19   6    5.4040   553.6    5.178      60.790
2015    5       11    19  12    5.4036   553.8    5.174      60.826
2015    5       11    19  18    5.4033   554.1    5.170      60.861
2015    5       11    19  24    5.4031   554.3    5.166      60.898
2015    5       11    19  30    5.4029   554.5    5.162      60.934
2015    5       11    19  36    5.4027   554.8    5.159      60.971
2015    5       11    19  41    5.4025   555.0    5.155      61.008
2015    5       11    19  47    5.4024   555.3    5.152      61.046
2015    5       11    19  53    5.4023   555.5    5.148      61.084
2015    5       11    19  59    5.4022   555.7    5.145      61.122
2015    5       11    20   5    5.4021   556.0    5.142      61.162
2015    5       11    20  11    5.4021   556.2    5.139      61.202
2015    5       11    20  17    5.4021   556.5    5.136      61.244
2015    5       11    20  23    5.4021   556.7    5.133      61.286
2015    5       11    20  28    5.4021   557.0    5.130      61.330
2015    5       11    20  34    5.4021   557.2    5.127      61.374
2015    5       11    20  40    5.4021   557.5    5.124      61.419
2015    5       11    20  46    5.4020   557.8    5.121      61.464
2015    5       11    20  52    5.4020   558.0    5.118      61.508
2015    5       11    20  58    5.4019   558.3    5.115      61.553
2015    5       11    21   4    5.4018   558.5    5.113      61.598
2015    5       11    21   9    5.4016   558.8    5.110      61.643
2015    5       11    21  15    5.4014   559.0    5.107      61.689
2015    5       11    21  21    5.4012   559.3    5.105      61.738
2015    5       11    21  27    5.4009   559.6    5.102      61.788
2015    5       11    21  33    5.4005   559.8    5.099      61.840
2015    5       11    21  39    5.4001   560.1    5.096      61.893
2015    5       11    21  45    5.3997   560.4    5.093      61.946
2015    5       11    21  51    5.3992   560.7    5.090      61.998
2015    5       11    21  56    5.3987   560.9    5.086      62.050
2015    5       11    22   2    5.3981   561.2    5.082      62.101
2015    5       11    22   8    5.3975   561.5    5.079      62.152
2015    5       11    22  14    5.3968   561.7    5.075      62.201
2015    5       11    22  20    5.3961   562.0    5.071      62.249
2015    5       11    22  26    5.3953   562.3    5.066      62.297
2015    5       11    22  32    5.3946   562.6    5.062      62.343
2015    5       11    22  38    5.3938   562.8    5.058      62.389
2015    5       11    22  43    5.3930   563.1    5.053      62.434
2015    5       11    22  49    5.3922   563.4    5.049      62.478
2015    5       11    22  55    5.3913   563.6    5.044      62.521
2015    5       11    23   1    5.3905   563.9    5.039      62.564
2015    5       11    23   7    5.3896   564.2    5.035      62.606
2015    5       11    23  13    5.3887   564.4    5.030      62.648
2015    5       11    23  19    5.3878   564.7    5.025      62.689
2015    5       11    23  25    5.3869   565.0    5.020      62.730
2015    5       11    23  30    5.3861   565.3    5.015      62.771
2015    5       11    23  36    5.3852   565.5    5.011      62.812
2015    5       11    23  42    5.3843   565.8    5.006      62.853
2015    5       11    23  48    5.3834   566.1    5.001      62.893
2015    5       11    23  54    5.3825   566.3    4.996      62.934
2015    5       12     0   0    5.3816   566.6    4.991      62.975
