year    month   day   hour  minute  B_enl V_enl   n_enl       T_enl
[year] [month] [day] [hour][minute] [nT]  [km/s]  [cm-3]      [kK]
2015    5        1     0   1    5.0707   484.2    5.699      46.024
2015    5        1     0   7    5.0687   484.3    5.695      46.027
2015    5        1     0  13    5.0667   484.4    5.690      46.030
2015    5        1     0  19    5.0647   484.5    5.686      46.033
2015    5        1     0  25    5.0626   484.6    5.681      46.035
2015    5        1     0  31    5.0605   484.7    5.677      46.037
2015    5        1     0  37    5.0585   484.8    5.672      46.039
2015    5        1     0  43    5.0564   484.9    5.668      46.041
2015    5        1     0  49    5.0543   485.0    5.663      46.042
2015    5        1     0  55    5.0521   485.1    5.659      46.043
2015    5        1     1   1    5.0500   485.2    5.654      46.044
2015    5        1     1   7    5.0479   485.3    5.650      46.045
2015    5        1     1  12    5.0457   485.4    5.645      46.045
2015    5        1     1  18    5.0435   485.5    5.641      46.046
2015    5        1     1  24    5.0413   485.6    5.636      46.046
2015    5        1     1  30    5.0392   485.7    5.631      46.046
2015    5        1     1  36    5.0370   485.8    5.627      46.046
2015    5        1     1  42    5.0347   485.9    5.622      46.045
2015    5        1     1  48    5.0325   486.0    5.618      46.045
2015    5        1     1  54    5.0303   486.1    5.613      46.044
2015    5        1     2   0    5.0280   486.2    5.608      46.044
2015    5        1     2   6    5.0258   486.3    5.604      46.043
2015    5        1     2  12    5.0235   486.4    5.599      46.042
2015    5        1     2  18    5.0213   486.5    5.595      46.041
2015    5        1     2  23    5.0190   486.6    5.590      46.040
2015    5        1     2  29    5.0167   486.7    5.586      46.039
2015    5        1     2  35    5.0144   486.8    5.581      46.038
2015    5        1     2  41    5.0121   486.9    5.577      46.037
2015    5        1     2  47    5.0098   487.0    5.572      46.036
2015    5        1     2  53    5.0075   487.0    5.568      46.035
2015    5        1     2  59    5.0052   487.1    5.563      46.034
2015    5        1     3   5    5.0029   487.2    5.559      46.033
2015    5        1     3  11    5.0006   487.3    5.555      46.032
2015    5        1     3  17    4.9984   487.4    5.550      46.032
2015    5        1     3  23    4.9961   487.5    5.546      46.031
2015    5        1     3  29    4.9938   487.6    5.542      46.031
2015    5        1     3  35    4.9915   487.7    5.538      46.030
2015    5        1     3  40    4.9892   487.8    5.533      46.030
2015    5        1     3  46    4.9869   487.9    5.529      46.030
2015    5        1     3  52    4.9846   487.9    5.525      46.030
2015    5        1     3  58    4.9823   488.0    5.521      46.031
2015    5        1     4   4    4.9801   488.1    5.517      46.031
2015    5        1     4  10    4.9778   488.2    5.513      46.031
2015    5        1     4  16    4.9755   488.3    5.509      46.032
2015    5        1     4  22    4.9732   488.4    5.505      46.033
2015    5        1     4  28    4.9710   488.4    5.501      46.034
2015    5        1     4  34    4.9687   488.5    5.497      46.035
2015    5        1     4  40    4.9664   488.6    5.493      46.036
2015    5        1     4  46    4.9642   488.7    5.489      46.037
2015    5        1     4  51    4.9619   488.8    5.485      46.038
2015    5        1     4  57    4.9597   488.9    5.481      46.040
2015    5        1     5   3    4.9574   488.9    5.477      46.041
2015    5        1     5   9    4.9552   489.0    5.473      46.042
2015    5        1     5  15    4.9529   489.1    5.469      46.044
2015    5        1     5  21    4.9507   489.2    5.465      46.045
2015    5        1     5  27    4.9484   489.3    5.461      46.046
2015    5        1     5  33    4.9461   489.3    5.457      46.046
2015    5        1     5  39    4.9438   489.4    5.453      46.047
2015    5        1     5  45    4.9416   489.5    5.449      46.047
2015    5        1     5  51    4.9393   489.6    5.445      46.047
2015    5        1     5  57    4.9370   489.7    5.441      46.047
2015    5        1     6   3    4.9347   489.7    5.436      46.047
2015    5        1     6   8    4.9323   489.8    5.432      46.046
2015    5        1     6  14    4.9300   489.9    5.428      46.045
2015    5        1     6  20    4.9277   490.0    5.424      46.044
2015    5        1     6  26    4.9253   490.0    5.420      46.042
2015    5        1     6  32    4.9230   490.1    5.416      46.041
2015    5        1     6  38    4.9207   490.2    5.411      46.039
2015    5        1     6  44    4.9183   490.3    5.407      46.036
2015    5        1     6  50    4.9159   490.3    5.403      46.034
2015    5        1     6  56    4.9136   490.4    5.399      46.031
2015    5        1     7   2    4.9112   490.5    5.395      46.028
2015    5        1     7   8    4.9088   490.6    5.390      46.024
2015    5        1     7  14    4.9064   490.6    5.386      46.021
2015    5        1     7  19    4.9040   490.7    5.382      46.017
2015    5        1     7  25    4.9016   490.8    5.378      46.013
2015    5        1     7  31    4.8992   490.8    5.374      46.009
2015    5        1     7  37    4.8968   490.9    5.369      46.004
2015    5        1     7  43    4.8944   491.0    5.365      46.000
2015    5        1     7  49    4.8920   491.0    5.361      45.995
2015    5        1     7  55    4.8895   491.1    5.357      45.990
2015    5        1     8   1    4.8871   491.2    5.353      45.985
2015    5        1     8   7    4.8847   491.2    5.349      45.980
2015    5        1     8  13    4.8823   491.3    5.345      45.975
2015    5        1     8  19    4.8799   491.4    5.341      45.970
2015    5        1     8  25    4.8775   491.4    5.337      45.965
2015    5        1     8  31    4.8750   491.5    5.333      45.959
2015    5        1     8  36    4.8726   491.6    5.329      45.954
2015    5        1     8  42    4.8702   491.6    5.326      45.949
2015    5        1     8  48    4.8678   491.7    5.322      45.943
2015    5        1     8  54    4.8654   491.8    5.318      45.938
2015    5        1     9   0    4.8630   491.8    5.314      45.932
2015    5        1     9   6    4.8606   491.9    5.311      45.927
2015    5        1     9  12    4.8582   491.9    5.307      45.922
2015    5        1     9  18    4.8559   492.0    5.304      45.917
2015    5        1     9  24    4.8535   492.1    5.300      45.912
2015    5        1     9  30    4.8511   492.1    5.297      45.907
2015    5        1     9  36    4.8487   492.2    5.293      45.902
2015    5        1     9  42    4.8464   492.2    5.290      45.897
2015    5        1     9  47    4.8440   492.3    5.286      45.892
2015    5        1     9  53    4.8417   492.4    5.283      45.888
2015    5        1     9  59    4.8393   492.4    5.280      45.883
2015    5        1    10   5    4.8370   492.5    5.276      45.879
2015    5        1    10  11    4.8346   492.5    5.273      45.875
2015    5        1    10  17    4.8323   492.6    5.270      45.872
2015    5        1    10  23    4.8300   492.7    5.266      45.868
2015    5        1    10  29    4.8276   492.7    5.263      45.865
2015    5        1    10  35    4.8252   492.8    5.260      45.862
2015    5        1    10  41    4.8229   492.8    5.256      45.858
2015    5        1    10  47    4.8206   492.9    5.253      45.855
2015    5        1    10  53    4.8182   492.9    5.249      45.851
2015    5        1    10  59    4.8159   493.0    5.246      45.847
2015    5        1    11   4    4.8135   493.0    5.243      45.844
2015    5        1    11  10    4.8112   493.1    5.239      45.840
2015    5        1    11  16    4.8088   493.1    5.236      45.836
2015    5        1    11  22    4.8065   493.2    5.232      45.832
2015    5        1    11  28    4.8042   493.3    5.229      45.828
2015    5        1    11  34    4.8018   493.3    5.225      45.824
2015    5        1    11  40    4.7995   493.4    5.222      45.819
2015    5        1    11  46    4.7972   493.4    5.218      45.815
2015    5        1    11  52    4.7948   493.5    5.215      45.810
2015    5        1    11  58    4.7925   493.5    5.211      45.806
2015    5        1    12   4    4.7901   493.6    5.208      45.801
2015    5        1    12  10    4.7878   493.6    5.204      45.796
2015    5        1    12  15    4.7854   493.7    5.200      45.791
2015    5        1    12  21    4.7831   493.7    5.197      45.786
2015    5        1    12  27    4.7808   493.8    5.193      45.780
2015    5        1    12  33    4.7784   493.8    5.190      45.775
2015    5        1    12  39    4.7761   493.8    5.186      45.769
2015    5        1    12  45    4.7738   493.9    5.182      45.764
2015    5        1    12  51    4.7714   493.9    5.179      45.758
2015    5        1    12  57    4.7691   494.0    5.175      45.752
2015    5        1    13   3    4.7668   494.0    5.172      45.746
2015    5        1    13   9    4.7644   494.1    5.168      45.740
2015    5        1    13  15    4.7621   494.1    5.164      45.733
2015    5        1    13  21    4.7598   494.2    5.161      45.727
2015    5        1    13  27    4.7574   494.2    5.157      45.721
2015    5        1    13  32    4.7551   494.3    5.154      45.714
2015    5        1    13  38    4.7528   494.3    5.150      45.708
2015    5        1    13  44    4.7505   494.3    5.146      45.701
2015    5        1    13  50    4.7481   494.4    5.143      45.694
2015    5        1    13  56    4.7458   494.4    5.139      45.688
2015    5        1    14   2    4.7435   494.5    5.136      45.681
2015    5        1    14   8    4.7412   494.5    5.133      45.674
2015    5        1    14  14    4.7389   494.5    5.129      45.667
2015    5        1    14  20    4.7366   494.6    5.126      45.660
2015    5        1    14  26    4.7343   494.6    5.123      45.653
2015    5        1    14  32    4.7320   494.6    5.119      45.646
2015    5        1    14  38    4.7297   494.7    5.116      45.639
2015    5        1    14  43    4.7275   494.7    5.113      45.632
2015    5        1    14  49    4.7252   494.8    5.110      45.625
2015    5        1    14  55    4.7229   494.8    5.107      45.618
2015    5        1    15   1    4.7207   494.8    5.104      45.611
2015    5        1    15   7    4.7184   494.9    5.101      45.604
2015    5        1    15  13    4.7161   494.9    5.098      45.597
2015    5        1    15  19    4.7139   494.9    5.095      45.590
2015    5        1    15  25    4.7117   495.0    5.092      45.584
2015    5        1    15  31    4.7094   495.0    5.089      45.577
2015    5        1    15  37    4.7072   495.0    5.086      45.570
2015    5        1    15  43    4.7050   495.1    5.083      45.563
2015    5        1    15  49    4.7028   495.1    5.081      45.557
2015    5        1    15  55    4.7006   495.1    5.078      45.550
2015    5        1    16   0    4.6983   495.1    5.075      45.544
2015    5        1    16   6    4.6962   495.2    5.073      45.537
2015    5        1    16  12    4.6940   495.2    5.070      45.531
2015    5        1    16  18    4.6918   495.2    5.068      45.525
2015    5        1    16  24    4.6896   495.3    5.065      45.519
2015    5        1    16  30    4.6874   495.3    5.063      45.512
2015    5        1    16  36    4.6853   495.3    5.060      45.506
2015    5        1    16  42    4.6831   495.4    5.058      45.500
2015    5        1    16  48    4.6809   495.4    5.055      45.494
2015    5        1    16  54    4.6788   495.4    5.053      45.488
2015    5        1    17   0    4.6766   495.4    5.051      45.482
2015    5        1    17   6    4.6744   495.5    5.048      45.476
2015    5        1    17  11    4.6723   495.5    5.046      45.470
2015    5        1    17  17    4.6701   495.5    5.043      45.465
2015    5        1    17  23    4.6679   495.6    5.041      45.459
2015    5        1    17  29    4.6657   495.6    5.038      45.454
2015    5        1    17  35    4.6636   495.6    5.035      45.448
2015    5        1    17  41    4.6614   495.6    5.033      45.443
2015    5        1    17  47    4.6592   495.7    5.030      45.437
2015    5        1    17  53    4.6570   495.7    5.028      45.431
2015    5        1    17  59    4.6548   495.7    5.025      45.424
2015    5        1    18   5    4.6526   495.8    5.022      45.418
2015    5        1    18  11    4.6504   495.8    5.020      45.411
2015    5        1    18  17    4.6482   495.8    5.017      45.404
2015    5        1    18  23    4.6460   495.8    5.014      45.398
2015    5        1    18  28    4.6438   495.9    5.012      45.391
2015    5        1    18  34    4.6417   495.9    5.009      45.383
2015    5        1    18  40    4.6395   495.9    5.006      45.376
2015    5        1    18  46    4.6372   495.9    5.004      45.368
2015    5        1    18  52    4.6350   496.0    5.001      45.361
2015    5        1    18  58    4.6328   496.0    4.998      45.353
2015    5        1    19   4    4.6306   496.0    4.995      45.345
2015    5        1    19  10    4.6284   496.0    4.993      45.337
2015    5        1    19  16    4.6262   496.1    4.990      45.328
2015    5        1    19  22    4.6240   496.1    4.987      45.320
2015    5        1    19  28    4.6218   496.1    4.984      45.312
2015    5        1    19  34    4.6196   496.1    4.981      45.303
2015    5        1    19  39    4.6174   496.1    4.979      45.294
2015    5        1    19  45    4.6152   496.2    4.976      45.286
2015    5        1    19  51    4.6130   496.2    4.973      45.277
2015    5        1    19  57    4.6108   496.2    4.970      45.268
2015    5        1    20   3    4.6086   496.2    4.968      45.259
2015    5        1    20   9    4.6064   496.3    4.965      45.250
2015    5        1    20  15    4.6042   496.3    4.962      45.241
2015    5        1    20  21    4.6020   496.3    4.959      45.232
2015    5        1    20  27    4.5998   496.3    4.957      45.223
2015    5        1    20  33    4.5976   496.3    4.954      45.214
2015    5        1    20  39    4.5954   496.3    4.951      45.205
2015    5        1    20  45    4.5932   496.4    4.948      45.196
2015    5        1    20  51    4.5910   496.4    4.946      45.187
2015    5        1    20  56    4.5889   496.4    4.943      45.178
2015    5        1    21   2    4.5867   496.4    4.940      45.169
2015    5        1    21   8    4.5845   496.4    4.938      45.161
2015    5        1    21  14    4.5824   496.5    4.935      45.152
2015    5        1    21  20    4.5802   496.5    4.933      45.143
2015    5        1    21  26    4.5781   496.5    4.930      45.134
2015    5        1    21  32    4.5759   496.5    4.927      45.125
2015    5        1    21  38    4.5738   496.5    4.925      45.116
2015    5        1    21  44    4.5716   496.5    4.922      45.107
2015    5        1    21  50    4.5695   496.5    4.920      45.098
2015    5        1    21  56    4.5674   496.6    4.917      45.090
2015    5        1    22   2    4.5653   496.6    4.915      45.081
2015    5        1    22   8    4.5632   496.6    4.912      45.072
2015    5        1    22  13    4.5610   496.6    4.910      45.063
2015    5        1    22  19    4.5589   496.6    4.907      45.054
2015    5        1    22  25    4.5568   496.6    4.905      45.045
2015    5        1    22  31    4.5547   496.6    4.903      45.036
2015    5        1    22  37    4.5526   496.6    4.900      45.027
2015    5        1    22  43    4.5505   496.6    4.898      45.018
2015    5        1    22  49    4.5484   496.7    4.895      45.009
2015    5        1    22  55    4.5464   496.7    4.893      44.999
2015    5        1    23   1    4.5443   496.7    4.891      44.990
2015    5        1    23   7    4.5422   496.7    4.888      44.981
2015    5        1    23  13    4.5401   496.7    4.886      44.971
2015    5        1    23  19    4.5381   496.7    4.884      44.962
2015    5        1    23  24    4.5360   496.7    4.881      44.953
2015    5        1    23  30    4.5339   496.7    4.879      44.943
2015    5        1    23  36    4.5319   496.7    4.877      44.934
2015    5        1    23  42    4.5298   496.7    4.874      44.924
2015    5        1    23  48    4.5278   496.7    4.872      44.914
2015    5        1    23  54    4.5257   496.7    4.870      44.904
2015    5        2     0   0    4.5236   496.7    4.868      44.895
2015    5        2     0   6    4.5216   496.7    4.865      44.885
2015    5        2     0  12    4.5195   496.7    4.863      44.874
2015    5        2     0  18    4.5175   496.7    4.861      44.864
2015    5        2     0  24    4.5155   496.7    4.859      44.854
2015    5        2     0  30    4.5134   496.7    4.856      44.844
2015    5        2     0  35    4.5114   496.8    4.854      44.834
2015    5        2     0  41    4.5093   496.8    4.852      44.824
2015    5        2     0  47    4.5073   496.8    4.850      44.813
2015    5        2     0  53    4.5053   496.8    4.847      44.803
2015    5        2     0  59    4.5032   496.8    4.845      44.792
2015    5        2     1   5    4.5012   496.8    4.843      44.781
2015    5        2     1  11    4.4991   496.8    4.841      44.770
2015    5        2     1  17    4.4971   496.8    4.839      44.760
2015    5        2     1  23    4.4951   496.8    4.837      44.749
2015    5        2     1  29    4.4930   496.8    4.834      44.737
2015    5        2     1  35    4.4910   496.8    4.832      44.726
2015    5        2     1  41    4.4889   496.8    4.830      44.715
2015    5        2     1  47    4.4869   496.8    4.828      44.704
2015    5        2     1  52    4.4849   496.8    4.826      44.692
2015    5        2     1  58    4.4828   496.8    4.824      44.681
2015    5        2     2   4    4.4808   496.7    4.821      44.669
2015    5        2     2  10    4.4787   496.7    4.819      44.657
2015    5        2     2  16    4.4767   496.7    4.817      44.645
2015    5        2     2  22    4.4746   496.7    4.815      44.633
2015    5        2     2  28    4.4726   496.7    4.813      44.621
2015    5        2     2  34    4.4705   496.7    4.811      44.609
2015    5        2     2  40    4.4685   496.7    4.809      44.597
2015    5        2     2  46    4.4664   496.7    4.806      44.584
2015    5        2     2  52    4.4644   496.7    4.804      44.572
2015    5        2     2  58    4.4623   496.7    4.802      44.560
2015    5        2     3   4    4.4603   496.7    4.800      44.547
2015    5        2     3   9    4.4583   496.7    4.798      44.534
2015    5        2     3  15    4.4562   496.7    4.796      44.522
2015    5        2     3  21    4.4542   496.7    4.794      44.509
2015    5        2     3  27    4.4522   496.7    4.792      44.496
2015    5        2     3  33    4.4501   496.7    4.789      44.483
2015    5        2     3  39    4.4481   496.7    4.787      44.470
2015    5        2     3  45    4.4461   496.6    4.785      44.457
2015    5        2     3  51    4.4441   496.6    4.783      44.444
2015    5        2     3  57    4.4421   496.6    4.781      44.431
2015    5        2     4   3    4.4401   496.6    4.779      44.418
2015    5        2     4   9    4.4381   496.6    4.777      44.405
2015    5        2     4  15    4.4361   496.6    4.775      44.392
2015    5        2     4  20    4.4341   496.6    4.773      44.379
2015    5        2     4  26    4.4321   496.6    4.771      44.367
2015    5        2     4  32    4.4301   496.6    4.769      44.354
2015    5        2     4  38    4.4282   496.5    4.767      44.341
2015    5        2     4  44    4.4262   496.5    4.765      44.328
2015    5        2     4  50    4.4242   496.5    4.763      44.315
2015    5        2     4  56    4.4223   496.5    4.761      44.303
2015    5        2     5   2    4.4204   496.5    4.759      44.290
2015    5        2     5   8    4.4184   496.5    4.757      44.277
2015    5        2     5  14    4.4165   496.5    4.755      44.265
2015    5        2     5  20    4.4146   496.4    4.753      44.252
2015    5        2     5  26    4.4126   496.4    4.751      44.240
2015    5        2     5  32    4.4107   496.4    4.749      44.227
2015    5        2     5  37    4.4088   496.4    4.747      44.215
2015    5        2     5  43    4.4069   496.4    4.746      44.203
2015    5        2     5  49    4.4050   496.4    4.744      44.190
2015    5        2     5  55    4.4031   496.3    4.742      44.178
2015    5        2     6   1    4.4012   496.3    4.740      44.166
2015    5        2     6   7    4.3993   496.3    4.738      44.154
2015    5        2     6  13    4.3974   496.3    4.737      44.142
2015    5        2     6  19    4.3956   496.3    4.735      44.130
2015    5        2     6  25    4.3937   496.3    4.733      44.117
2015    5        2     6  31    4.3918   496.2    4.732      44.105
2015    5        2     6  37    4.3899   496.2    4.730      44.093
2015    5        2     6  43    4.3880   496.2    4.728      44.081
2015    5        2     6  48    4.3862   496.2    4.727      44.069
2015    5        2     6  54    4.3843   496.1    4.725      44.057
2015    5        2     7   0    4.3824   496.1    4.723      44.045
2015    5        2     7   6    4.3806   496.1    4.722      44.032
2015    5        2     7  12    4.3787   496.1    4.720      44.020
2015    5        2     7  18    4.3768   496.1    4.719      44.008
2015    5        2     7  24    4.3750   496.0    4.717      43.996
2015    5        2     7  30    4.3731   496.0    4.716      43.983
2015    5        2     7  36    4.3712   496.0    4.714      43.971
2015    5        2     7  42    4.3694   496.0    4.713      43.958
2015    5        2     7  48    4.3675   495.9    4.711      43.946
2015    5        2     7  54    4.3656   495.9    4.710      43.933
2015    5        2     7  59    4.3638   495.9    4.708      43.920
2015    5        2     8   5    4.3619   495.9    4.707      43.908
2015    5        2     8  11    4.3601   495.8    4.705      43.895
2015    5        2     8  17    4.3582   495.8    4.704      43.882
2015    5        2     8  23    4.3563   495.8    4.702      43.869
2015    5        2     8  29    4.3545   495.8    4.701      43.855
2015    5        2     8  35    4.3526   495.7    4.700      43.842
2015    5        2     8  41    4.3507   495.7    4.698      43.829
2015    5        2     8  47    4.3489   495.7    4.697      43.815
2015    5        2     8  53    4.3470   495.7    4.695      43.801
2015    5        2     8  59    4.3452   495.6    4.694      43.787
2015    5        2     9   5    4.3433   495.6    4.693      43.773
2015    5        2     9  11    4.3415   495.6    4.691      43.759
2015    5        2     9  16    4.3396   495.5    4.690      43.745
2015    5        2     9  22    4.3378   495.5    4.688      43.731
2015    5        2     9  28    4.3360   495.5    4.687      43.716
2015    5        2     9  34    4.3341   495.4    4.685      43.702
2015    5        2     9  40    4.3323   495.4    4.684      43.687
2015    5        2     9  46    4.3305   495.4    4.682      43.672
2015    5        2     9  52    4.3286   495.3    4.681      43.657
2015    5        2     9  58    4.3268   495.3    4.680      43.641
2015    5        2    10   4    4.3250   495.3    4.678      43.626
2015    5        2    10  10    4.3232   495.2    4.677      43.611
2015    5        2    10  16    4.3213   495.2    4.675      43.595
2015    5        2    10  22    4.3195   495.2    4.674      43.579
2015    5        2    10  27    4.3177   495.1    4.672      43.563
2015    5        2    10  33    4.3159   495.1    4.671      43.548
2015    5        2    10  39    4.3141   495.1    4.669      43.532
2015    5        2    10  45    4.3123   495.0    4.667      43.516
2015    5        2    10  51    4.3105   495.0    4.666      43.499
2015    5        2    10  57    4.3087   495.0    4.664      43.483
2015    5        2    11   3    4.3069   494.9    4.663      43.467
2015    5        2    11   9    4.3051   494.9    4.661      43.451
2015    5        2    11  15    4.3033   494.8    4.660      43.434
2015    5        2    11  21    4.3015   494.8    4.658      43.418
2015    5        2    11  27    4.2998   494.8    4.657      43.401
2015    5        2    11  33    4.2980   494.7    4.655      43.385
2015    5        2    11  39    4.2962   494.7    4.654      43.368
2015    5        2    11  44    4.2945   494.6    4.652      43.352
2015    5        2    11  50    4.2927   494.6    4.650      43.336
2015    5        2    11  56    4.2909   494.5    4.649      43.319
2015    5        2    12   2    4.2892   494.5    4.647      43.303
2015    5        2    12   8    4.2875   494.5    4.646      43.286
2015    5        2    12  14    4.2857   494.4    4.644      43.270
2015    5        2    12  20    4.2840   494.4    4.643      43.254
2015    5        2    12  26    4.2822   494.3    4.641      43.237
2015    5        2    12  32    4.2805   494.3    4.640      43.221
2015    5        2    12  38    4.2788   494.2    4.638      43.205
2015    5        2    12  44    4.2771   494.2    4.637      43.188
2015    5        2    12  50    4.2753   494.2    4.635      43.172
2015    5        2    12  55    4.2736   494.1    4.634      43.156
2015    5        2    13   1    4.2719   494.1    4.633      43.140
2015    5        2    13   7    4.2702   494.0    4.631      43.124
2015    5        2    13  13    4.2685   494.0    4.630      43.108
2015    5        2    13  19    4.2668   493.9    4.629      43.092
2015    5        2    13  25    4.2650   493.9    4.627      43.076
2015    5        2    13  31    4.2633   493.8    4.626      43.060
2015    5        2    13  37    4.2616   493.8    4.625      43.044
2015    5        2    13  43    4.2599   493.8    4.623      43.028
2015    5        2    13  49    4.2582   493.7    4.622      43.012
2015    5        2    13  55    4.2565   493.7    4.621      42.996
2015    5        2    14   1    4.2548   493.6    4.619      42.980
2015    5        2    14   7    4.2531   493.6    4.618      42.965
2015    5        2    14  12    4.2514   493.5    4.617      42.949
2015    5        2    14  18    4.2497   493.5    4.616      42.933
2015    5        2    14  24    4.2480   493.4    4.615      42.917
2015    5        2    14  30    4.2463   493.4    4.614      42.901
2015    5        2    14  36    4.2446   493.3    4.612      42.885
2015    5        2    14  42    4.2429   493.3    4.611      42.870
2015    5        2    14  48    4.2412   493.2    4.610      42.854
2015    5        2    14  54    4.2395   493.2    4.609      42.838
2015    5        2    15   0    4.2378   493.1    4.608      42.822
2015    5        2    15   6    4.2361   493.1    4.607      42.807
2015    5        2    15  12    4.2345   493.0    4.606      42.791
2015    5        2    15  18    4.2328   493.0    4.606      42.776
2015    5        2    15  23    4.2311   492.9    4.605      42.760
2015    5        2    15  29    4.2295   492.9    4.604      42.745
2015    5        2    15  35    4.2279   492.8    4.603      42.730
2015    5        2    15  41    4.2262   492.8    4.602      42.715
2015    5        2    15  47    4.2246   492.7    4.602      42.699
2015    5        2    15  53    4.2230   492.7    4.601      42.684
2015    5        2    15  59    4.2214   492.6    4.600      42.670
2015    5        2    16   5    4.2199   492.5    4.600      42.655
2015    5        2    16  11    4.2183   492.5    4.599      42.641
2015    5        2    16  17    4.2168   492.4    4.599      42.626
2015    5        2    16  23    4.2152   492.4    4.598      42.612
2015    5        2    16  29    4.2137   492.3    4.598      42.598
2015    5        2    16  35    4.2122   492.3    4.598      42.584
2015    5        2    16  40    4.2106   492.2    4.597      42.570
2015    5        2    16  46    4.2091   492.2    4.597      42.556
2015    5        2    16  52    4.2076   492.1    4.597      42.543
2015    5        2    16  58    4.2061   492.1    4.597      42.530
2015    5        2    17   4    4.2046   492.0    4.596      42.517
2015    5        2    17  10    4.2030   492.0    4.596      42.504
2015    5        2    17  16    4.2015   491.9    4.596      42.490
2015    5        2    17  22    4.2000   491.9    4.595      42.477
2015    5        2    17  28    4.1985   491.8    4.595      42.464
2015    5        2    17  34    4.1970   491.8    4.595      42.450
2015    5        2    17  40    4.1954   491.7    4.594      42.437
2015    5        2    17  46    4.1939   491.6    4.594      42.423
2015    5        2    17  51    4.1923   491.6    4.594      42.409
2015    5        2    17  57    4.1907   491.5    4.593      42.394
2015    5        2    18   3    4.1892   491.5    4.593      42.380
2015    5        2    18   9    4.1876   491.4    4.592      42.365
2015    5        2    18  15    4.1860   491.4    4.592      42.350
2015    5        2    18  21    4.1844   491.3    4.591      42.335
2015    5        2    18  27    4.1828   491.2    4.590      42.319
2015    5        2    18  33    4.1812   491.2    4.590      42.303
2015    5        2    18  39    4.1796   491.1    4.589      42.287
2015    5        2    18  45    4.1779   491.1    4.588      42.271
2015    5        2    18  51    4.1763   491.0    4.587      42.254
2015    5        2    18  57    4.1747   490.9    4.587      42.237
2015    5        2    19   3    4.1731   490.9    4.586      42.220
2015    5        2    19   8    4.1715   490.8    4.585      42.203
2015    5        2    19  14    4.1699   490.8    4.584      42.186
2015    5        2    19  20    4.1682   490.7    4.583      42.168
2015    5        2    19  26    4.1666   490.6    4.582      42.150
2015    5        2    19  32    4.1650   490.6    4.581      42.132
2015    5        2    19  38    4.1634   490.5    4.580      42.114
2015    5        2    19  44    4.1618   490.4    4.579      42.096
2015    5        2    19  50    4.1602   490.4    4.578      42.078
2015    5        2    19  56    4.1586   490.3    4.577      42.059
2015    5        2    20   2    4.1571   490.2    4.576      42.040
2015    5        2    20   8    4.1555   490.2    4.575      42.021
2015    5        2    20  14    4.1539   490.1    4.574      42.002
2015    5        2    20  19    4.1523   490.0    4.573      41.983
2015    5        2    20  25    4.1508   490.0    4.572      41.964
2015    5        2    20  31    4.1492   489.9    4.571      41.944
2015    5        2    20  37    4.1476   489.8    4.569      41.924
2015    5        2    20  43    4.1461   489.8    4.568      41.905
2015    5        2    20  49    4.1445   489.7    4.567      41.885
2015    5        2    20  55    4.1429   489.6    4.566      41.865
2015    5        2    21   1    4.1414   489.5    4.565      41.845
2015    5        2    21   7    4.1398   489.5    4.564      41.824
2015    5        2    21  13    4.1383   489.4    4.562      41.804
2015    5        2    21  19    4.1367   489.3    4.561      41.783
2015    5        2    21  25    4.1352   489.3    4.560      41.763
2015    5        2    21  31    4.1337   489.2    4.559      41.742
2015    5        2    21  36    4.1321   489.1    4.557      41.721
2015    5        2    21  42    4.1306   489.0    4.556      41.700
2015    5        2    21  48    4.1290   489.0    4.555      41.679
2015    5        2    21  54    4.1275   488.9    4.554      41.658
2015    5        2    22   0    4.1260   488.8    4.552      41.636
2015    5        2    22   6    4.1244   488.7    4.551      41.615
2015    5        2    22  12    4.1229   488.7    4.550      41.594
2015    5        2    22  18    4.1214   488.6    4.549      41.573
2015    5        2    22  24    4.1199   488.5    4.548      41.551
2015    5        2    22  30    4.1184   488.4    4.546      41.530
2015    5        2    22  36    4.1169   488.4    4.545      41.509
2015    5        2    22  42    4.1154   488.3    4.544      41.488
2015    5        2    22  47    4.1139   488.2    4.543      41.467
2015    5        2    22  53    4.1124   488.1    4.542      41.446
2015    5        2    22  59    4.1110   488.1    4.541      41.425
2015    5        2    23   5    4.1095   488.0    4.540      41.405
2015    5        2    23  11    4.1081   487.9    4.539      41.385
2015    5        2    23  17    4.1067   487.8    4.539      41.364
2015    5        2    23  23    4.1052   487.8    4.538      41.345
2015    5        2    23  29    4.1038   487.7    4.537      41.325
2015    5        2    23  35    4.1024   487.6    4.536      41.306
2015    5        2    23  41    4.1010   487.5    4.536      41.287
2015    5        2    23  47    4.0996   487.5    4.535      41.268
2015    5        2    23  53    4.0982   487.4    4.535      41.249
2015    5        2    23  59    4.0968   487.3    4.534      41.231
2015    5        3     0   4    4.0954   487.2    4.534      41.213
2015    5        3     0  10    4.0940   487.2    4.534      41.196
2015    5        3     0  16    4.0926   487.1    4.533      41.178
2015    5        3     0  22    4.0912   487.0    4.533      41.161
2015    5        3     0  28    4.0898   486.9    4.533      41.144
2015    5        3     0  34    4.0883   486.9    4.532      41.127
2015    5        3     0  40    4.0869   486.8    4.532      41.110
2015    5        3     0  46    4.0854   486.7    4.532      41.093
2015    5        3     0  52    4.0840   486.6    4.531      41.076
2015    5        3     0  58    4.0825   486.6    4.531      41.059
2015    5        3     1   4    4.0810   486.5    4.531      41.042
2015    5        3     1  10    4.0795   486.4    4.530      41.024
2015    5        3     1  15    4.0780   486.3    4.530      41.007
2015    5        3     1  21    4.0765   486.3    4.530      40.989
2015    5        3     1  27    4.0749   486.2    4.529      40.971
2015    5        3     1  33    4.0734   486.1    4.529      40.953
2015    5        3     1  39    4.0719   486.0    4.529      40.935
2015    5        3     1  45    4.0703   486.0    4.529      40.917
2015    5        3     1  51    4.0688   485.9    4.528      40.898
2015    5        3     1  57    4.0672   485.8    4.528      40.880
2015    5        3     2   3    4.0657   485.7    4.528      40.861
2015    5        3     2   9    4.0642   485.6    4.527      40.842
2015    5        3     2  15    4.0626   485.5    4.527      40.824
2015    5        3     2  21    4.0611   485.4    4.527      40.805
2015    5        3     2  27    4.0596   485.4    4.527      40.786
2015    5        3     2  32    4.0582   485.3    4.527      40.768
2015    5        3     2  38    4.0567   485.2    4.527      40.749
2015    5        3     2  44    4.0553   485.1    4.527      40.731
2015    5        3     2  50    4.0538   485.0    4.527      40.712
2015    5        3     2  56    4.0524   484.9    4.527      40.694
2015    5        3     3   2    4.0511   484.8    4.527      40.677
2015    5        3     3   8    4.0497   484.8    4.527      40.659
2015    5        3     3  14    4.0484   484.7    4.528      40.641
2015    5        3     3  20    4.0471   484.6    4.528      40.624
2015    5        3     3  26    4.0458   484.5    4.529      40.607
2015    5        3     3  32    4.0446   484.4    4.529      40.591
2015    5        3     3  38    4.0433   484.3    4.530      40.575
2015    5        3     3  43    4.0421   484.2    4.530      40.560
2015    5        3     3  49    4.0409   484.1    4.531      40.545
2015    5        3     3  55    4.0397   484.1    4.531      40.531
2015    5        3     4   1    4.0385   484.0    4.532      40.516
2015    5        3     4   7    4.0373   483.9    4.532      40.502
2015    5        3     4  13    4.0361   483.8    4.533      40.487
2015    5        3     4  19    4.0348   483.7    4.533      40.472
2015    5        3     4  25    4.0336   483.6    4.534      40.457
2015    5        3     4  31    4.0324   483.5    4.534      40.443
2015    5        3     4  37    4.0312   483.5    4.534      40.428
2015    5        3     4  43    4.0299   483.4    4.535      40.414
2015    5        3     4  49    4.0286   483.3    4.535      40.399
2015    5        3     4  55    4.0273   483.2    4.535      40.385
2015    5        3     5   0    4.0260   483.1    4.535      40.370
2015    5        3     5   6    4.0247   483.0    4.535      40.354
2015    5        3     5  12    4.0233   482.9    4.534      40.338
2015    5        3     5  18    4.0220   482.9    4.534      40.321
2015    5        3     5  24    4.0206   482.8    4.534      40.304
2015    5        3     5  30    4.0191   482.7    4.533      40.286
2015    5        3     5  36    4.0177   482.6    4.532      40.268
2015    5        3     5  42    4.0163   482.5    4.532      40.249
2015    5        3     5  48    4.0148   482.4    4.531      40.230
2015    5        3     5  54    4.0134   482.3    4.530      40.210
2015    5        3     6   0    4.0119   482.3    4.529      40.190
2015    5        3     6   6    4.0104   482.2    4.528      40.169
2015    5        3     6  11    4.0089   482.1    4.527      40.148
2015    5        3     6  17    4.0074   482.0    4.526      40.126
2015    5        3     6  23    4.0059   481.9    4.525      40.104
2015    5        3     6  29    4.0044   481.8    4.524      40.081
2015    5        3     6  35    4.0028   481.7    4.523      40.059
2015    5        3     6  41    4.0013   481.6    4.521      40.035
2015    5        3     6  47    3.9998   481.5    4.520      40.012
2015    5        3     6  53    3.9982   481.4    4.519      39.989
2015    5        3     6  59    3.9967   481.3    4.518      39.965
2015    5        3     7   5    3.9951   481.2    4.516      39.941
2015    5        3     7  11    3.9936   481.1    4.515      39.916
2015    5        3     7  17    3.9920   481.0    4.514      39.892
2015    5        3     7  23    3.9905   480.9    4.512      39.867
2015    5        3     7  28    3.9890   480.8    4.511      39.842
2015    5        3     7  34    3.9874   480.7    4.510      39.817
2015    5        3     7  40    3.9859   480.6    4.508      39.792
2015    5        3     7  46    3.9843   480.5    4.507      39.767
2015    5        3     7  52    3.9828   480.4    4.506      39.741
2015    5        3     7  58    3.9812   480.3    4.504      39.716
2015    5        3     8   4    3.9797   480.2    4.503      39.690
2015    5        3     8  10    3.9782   480.1    4.501      39.664
2015    5        3     8  16    3.9766   480.0    4.500      39.639
2015    5        3     8  22    3.9751   479.9    4.499      39.613
2015    5        3     8  28    3.9736   479.8    4.498      39.587
2015    5        3     8  34    3.9721   479.7    4.496      39.561
2015    5        3     8  39    3.9706   479.6    4.495      39.534
2015    5        3     8  45    3.9691   479.5    4.494      39.508
2015    5        3     8  51    3.9676   479.4    4.493      39.482
2015    5        3     8  57    3.9661   479.3    4.491      39.456
2015    5        3     9   3    3.9646   479.2    4.490      39.429
2015    5        3     9   9    3.9632   479.1    4.489      39.403
2015    5        3     9  15    3.9617   479.0    4.488      39.377
2015    5        3     9  21    3.9603   478.9    4.487      39.351
2015    5        3     9  27    3.9589   478.8    4.486      39.325
2015    5        3     9  33    3.9575   478.7    4.486      39.300
2015    5        3     9  39    3.9561   478.5    4.485      39.274
2015    5        3     9  45    3.9548   478.4    4.484      39.249
2015    5        3     9  51    3.9534   478.3    4.484      39.224
2015    5        3     9  56    3.9521   478.2    4.483      39.200
2015    5        3    10   2    3.9509   478.1    4.483      39.176
2015    5        3    10   8    3.9496   478.0    4.482      39.152
2015    5        3    10  14    3.9484   477.9    4.482      39.129
2015    5        3    10  20    3.9472   477.8    4.482      39.107
2015    5        3    10  26    3.9461   477.7    4.483      39.085
2015    5        3    10  32    3.9450   477.5    4.483      39.063
2015    5        3    10  38    3.9439   477.4    4.483      39.042
2015    5        3    10  44    3.9428   477.3    4.484      39.023
2015    5        3    10  50    3.9418   477.2    4.485      39.004
2015    5        3    10  56    3.9408   477.1    4.485      38.985
2015    5        3    11   2    3.9398   477.0    4.486      38.968
2015    5        3    11   7    3.9388   476.9    4.487      38.952
2015    5        3    11  13    3.9378   476.8    4.488      38.936
2015    5        3    11  19    3.9369   476.7    4.489      38.920
2015    5        3    11  25    3.9359   476.6    4.491      38.905
2015    5        3    11  31    3.9350   476.5    4.492      38.890
2015    5        3    11  37    3.9340   476.4    4.493      38.875
2015    5        3    11  43    3.9331   476.3    4.495      38.861
2015    5        3    11  49    3.9321   476.2    4.496      38.847
2015    5        3    11  55    3.9310   476.1    4.498      38.834
2015    5        3    12   1    3.9300   476.0    4.499      38.821
2015    5        3    12   7    3.9289   475.9    4.500      38.808
2015    5        3    12  13    3.9278   475.8    4.502      38.796
2015    5        3    12  19    3.9267   475.7    4.503      38.783
2015    5        3    12  24    3.9256   475.6    4.504      38.770
2015    5        3    12  30    3.9244   475.5    4.506      38.756
2015    5        3    12  36    3.9232   475.4    4.507      38.742
2015    5        3    12  42    3.9220   475.3    4.508      38.728
2015    5        3    12  48    3.9207   475.1    4.509      38.714
2015    5        3    12  54    3.9195   475.0    4.511      38.699
2015    5        3    13   0    3.9182   474.9    4.512      38.684
2015    5        3    13   6    3.9169   474.8    4.513      38.668
2015    5        3    13  12    3.9156   474.7    4.514      38.652
2015    5        3    13  18    3.9142   474.6    4.515      38.636
2015    5        3    13  24    3.9129   474.5    4.516      38.619
2015    5        3    13  30    3.9115   474.4    4.516      38.602
2015    5        3    13  35    3.9102   474.3    4.517      38.584
2015    5        3    13  41    3.9088   474.2    4.518      38.567
2015    5        3    13  47    3.9074   474.1    4.519      38.549
2015    5        3    13  53    3.9061   473.9    4.520      38.531
2015    5        3    13  59    3.9047   473.8    4.520      38.513
2015    5        3    14   5    3.9033   473.7    4.521      38.495
2015    5        3    14  11    3.9020   473.6    4.522      38.477
2015    5        3    14  17    3.9006   473.5    4.522      38.459
2015    5        3    14  23    3.8993   473.4    4.523      38.441
2015    5        3    14  29    3.8979   473.2    4.524      38.423
2015    5        3    14  35    3.8966   473.1    4.524      38.406
2015    5        3    14  41    3.8953   473.0    4.525      38.389
2015    5        3    14  47    3.8940   472.9    4.525      38.371
2015    5        3    14  52    3.8927   472.8    4.526      38.354
2015    5        3    14  58    3.8914   472.7    4.526      38.337
2015    5        3    15   4    3.8902   472.5    4.527      38.321
2015    5        3    15  10    3.8889   472.4    4.527      38.305
2015    5        3    15  16    3.8877   472.3    4.527      38.289
2015    5        3    15  22    3.8864   472.2    4.527      38.273
2015    5        3    15  28    3.8852   472.1    4.527      38.257
2015    5        3    15  34    3.8840   471.9    4.528      38.241
2015    5        3    15  40    3.8828   471.8    4.528      38.224
2015    5        3    15  46    3.8816   471.7    4.527      38.207
2015    5        3    15  52    3.8803   471.6    4.527      38.189
2015    5        3    15  58    3.8791   471.5    4.527      38.171
2015    5        3    16   3    3.8779   471.4    4.527      38.153
2015    5        3    16   9    3.8767   471.2    4.526      38.134
2015    5        3    16  15    3.8755   471.1    4.526      38.114
2015    5        3    16  21    3.8743   471.0    4.526      38.094
2015    5        3    16  27    3.8731   470.9    4.525      38.074
2015    5        3    16  33    3.8719   470.8    4.525      38.053
2015    5        3    16  39    3.8707   470.6    4.524      38.031
2015    5        3    16  45    3.8695   470.5    4.523      38.010
2015    5        3    16  51    3.8683   470.4    4.523      37.987
2015    5        3    16  57    3.8672   470.3    4.522      37.964
2015    5        3    17   3    3.8660   470.1    4.522      37.941
2015    5        3    17   9    3.8648   470.0    4.521      37.918
2015    5        3    17  15    3.8637   469.9    4.520      37.894
2015    5        3    17  20    3.8625   469.8    4.520      37.870
2015    5        3    17  26    3.8614   469.6    4.519      37.845
2015    5        3    17  32    3.8602   469.5    4.518      37.821
2015    5        3    17  38    3.8591   469.4    4.518      37.796
2015    5        3    17  44    3.8580   469.3    4.517      37.771
2015    5        3    17  50    3.8569   469.1    4.517      37.746
2015    5        3    17  56    3.8558   469.0    4.516      37.721
2015    5        3    18   2    3.8547   468.9    4.516      37.695
2015    5        3    18   8    3.8536   468.7    4.516      37.670
2015    5        3    18  14    3.8525   468.6    4.515      37.644
2015    5        3    18  20    3.8515   468.5    4.515      37.619
2015    5        3    18  26    3.8504   468.4    4.515      37.594
2015    5        3    18  31    3.8494   468.2    4.514      37.568
2015    5        3    18  37    3.8484   468.1    4.514      37.543
2015    5        3    18  43    3.8474   468.0    4.514      37.518
2015    5        3    18  49    3.8463   467.9    4.514      37.492
2015    5        3    18  55    3.8453   467.7    4.514      37.467
2015    5        3    19   1    3.8443   467.6    4.514      37.442
2015    5        3    19   7    3.8433   467.5    4.515      37.417
2015    5        3    19  13    3.8423   467.3    4.515      37.392
2015    5        3    19  19    3.8413   467.2    4.515      37.367
2015    5        3    19  25    3.8402   467.1    4.516      37.342
2015    5        3    19  31    3.8392   467.0    4.516      37.317
2015    5        3    19  37    3.8382   466.8    4.517      37.292
2015    5        3    19  43    3.8371   466.7    4.517      37.267
2015    5        3    19  48    3.8361   466.6    4.518      37.243
2015    5        3    19  54    3.8350   466.4    4.518      37.218
2015    5        3    20   0    3.8340   466.3    4.519      37.193
2015    5        3    20   6    3.8329   466.2    4.520      37.168
2015    5        3    20  12    3.8319   466.0    4.521      37.144
2015    5        3    20  18    3.8308   465.9    4.521      37.119
2015    5        3    20  24    3.8297   465.8    4.522      37.094
2015    5        3    20  30    3.8287   465.6    4.523      37.070
2015    5        3    20  36    3.8276   465.5    4.524      37.045
2015    5        3    20  42    3.8266   465.3    4.525      37.021
2015    5        3    20  48    3.8255   465.2    4.526      36.997
2015    5        3    20  54    3.8245   465.1    4.528      36.973
2015    5        3    20  59    3.8235   464.9    4.529      36.949
2015    5        3    21   5    3.8225   464.8    4.530      36.926
2015    5        3    21  11    3.8215   464.6    4.532      36.903
2015    5        3    21  17    3.8205   464.5    4.533      36.880
2015    5        3    21  23    3.8195   464.3    4.535      36.858
2015    5        3    21  29    3.8185   464.2    4.536      36.837
2015    5        3    21  35    3.8176   464.1    4.538      36.816
2015    5        3    21  41    3.8167   463.9    4.540      36.797
2015    5        3    21  47    3.8158   463.8    4.542      36.778
2015    5        3    21  53    3.8150   463.6    4.544      36.759
2015    5        3    21  59    3.8142   463.5    4.546      36.742
2015    5        3    22   5    3.8134   463.3    4.549      36.725
2015    5        3    22  10    3.8126   463.2    4.551      36.709
2015    5        3    22  16    3.8118   463.1    4.554      36.695
2015    5        3    22  22    3.8111   462.9    4.556      36.681
2015    5        3    22  28    3.8104   462.8    4.559      36.668
2015    5        3    22  34    3.8097   462.6    4.561      36.657
2015    5        3    22  40    3.8091   462.5    4.564      36.645
2015    5        3    22  46    3.8084   462.4    4.567      36.635
2015    5        3    22  52    3.8077   462.2    4.569      36.624
2015    5        3    22  58    3.8071   462.1    4.572      36.614
2015    5        3    23   4    3.8064   462.0    4.575      36.604
2015    5        3    23  10    3.8058   461.8    4.578      36.594
2015    5        3    23  16    3.8051   461.7    4.581      36.585
2015    5        3    23  22    3.8045   461.6    4.583      36.575
2015    5        3    23  27    3.8038   461.4    4.586      36.566
2015    5        3    23  33    3.8032   461.3    4.589      36.557
2015    5        3    23  39    3.8025   461.1    4.592      36.547
2015    5        3    23  45    3.8018   461.0    4.594      36.538
2015    5        3    23  51    3.8011   460.9    4.597      36.528
2015    5        3    23  57    3.8003   460.7    4.599      36.518
2015    5        4     0   3    3.7996   460.6    4.602      36.507
2015    5        4     0   9    3.7989   460.4    4.604      36.496
2015    5        4     0  15    3.7981   460.3    4.606      36.484
2015    5        4     0  21    3.7974   460.2    4.609      36.472
2015    5        4     0  27    3.7967   460.0    4.611      36.460
2015    5        4     0  33    3.7959   459.9    4.613      36.447
2015    5        4     0  38    3.7952   459.7    4.615      36.434
2015    5        4     0  44    3.7944   459.6    4.617      36.419
2015    5        4     0  50    3.7937   459.4    4.619      36.405
2015    5        4     0  56    3.7929   459.3    4.621      36.390
2015    5        4     1   2    3.7922   459.1    4.623      36.374
2015    5        4     1   8    3.7914   459.0    4.624      36.359
2015    5        4     1  14    3.7907   458.8    4.626      36.343
2015    5        4     1  20    3.7900   458.7    4.628      36.326
2015    5        4     1  26    3.7893   458.5    4.629      36.309
2015    5        4     1  32    3.7886   458.4    4.631      36.292
2015    5        4     1  38    3.7880   458.3    4.632      36.275
2015    5        4     1  44    3.7873   458.1    4.634      36.257
2015    5        4     1  50    3.7867   458.0    4.635      36.239
2015    5        4     1  55    3.7860   457.8    4.637      36.220
2015    5        4     2   1    3.7854   457.7    4.638      36.201
2015    5        4     2   7    3.7849   457.5    4.639      36.182
2015    5        4     2  13    3.7843   457.4    4.641      36.162
2015    5        4     2  19    3.7838   457.2    4.642      36.142
2015    5        4     2  25    3.7832   457.1    4.643      36.121
2015    5        4     2  31    3.7827   456.9    4.644      36.100
2015    5        4     2  37    3.7822   456.8    4.645      36.079
2015    5        4     2  43    3.7817   456.6    4.646      36.057
2015    5        4     2  49    3.7813   456.5    4.647      36.035
2015    5        4     2  55    3.7808   456.3    4.648      36.012
2015    5        4     3   1    3.7803   456.2    4.649      35.990
2015    5        4     3   6    3.7798   456.0    4.650      35.966
2015    5        4     3  12    3.7794   455.9    4.651      35.943
2015    5        4     3  18    3.7789   455.7    4.652      35.919
2015    5        4     3  24    3.7785   455.6    4.653      35.895
2015    5        4     3  30    3.7780   455.4    4.654      35.871
2015    5        4     3  36    3.7776   455.3    4.655      35.846
2015    5        4     3  42    3.7771   455.1    4.656      35.821
2015    5        4     3  48    3.7767   455.0    4.657      35.796
2015    5        4     3  54    3.7762   454.8    4.658      35.771
2015    5        4     4   0    3.7758   454.7    4.659      35.746
2015    5        4     4   6    3.7753   454.5    4.660      35.721
2015    5        4     4  12    3.7749   454.4    4.661      35.695
2015    5        4     4  18    3.7745   454.2    4.662      35.669
2015    5        4     4  23    3.7741   454.1    4.663      35.644
2015    5        4     4  29    3.7737   453.9    4.665      35.619
2015    5        4     4  35    3.7733   453.8    4.666      35.593
2015    5        4     4  41    3.7729   453.6    4.667      35.568
2015    5        4     4  47    3.7726   453.5    4.669      35.543
2015    5        4     4  53    3.7722   453.3    4.670      35.518
2015    5        4     4  59    3.7719   453.2    4.672      35.494
2015    5        4     5   5    3.7715   453.0    4.674      35.469
2015    5        4     5  11    3.7712   452.9    4.676      35.446
2015    5        4     5  17    3.7709   452.7    4.678      35.422
2015    5        4     5  23    3.7706   452.6    4.680      35.400
2015    5        4     5  29    3.7704   452.4    4.682      35.377
2015    5        4     5  34    3.7701   452.3    4.685      35.355
2015    5        4     5  40    3.7698   452.1    4.687      35.334
2015    5        4     5  46    3.7696   452.0    4.690      35.313
2015    5        4     5  52    3.7694   451.8    4.693      35.293
2015    5        4     5  58    3.7692   451.7    4.696      35.273
2015    5        4     6   4    3.7689   451.5    4.699      35.254
2015    5        4     6  10    3.7688   451.4    4.702      35.236
2015    5        4     6  16    3.7686   451.2    4.705      35.218
2015    5        4     6  22    3.7684   451.1    4.709      35.201
2015    5        4     6  28    3.7682   450.9    4.712      35.184
2015    5        4     6  34    3.7681   450.8    4.716      35.168
2015    5        4     6  40    3.7679   450.6    4.719      35.153
2015    5        4     6  46    3.7678   450.5    4.723      35.138
2015    5        4     6  51    3.7676   450.3    4.727      35.123
2015    5        4     6  57    3.7674   450.2    4.731      35.109
2015    5        4     7   3    3.7673   450.0    4.734      35.096
2015    5        4     7   9    3.7671   449.9    4.738      35.083
2015    5        4     7  15    3.7669   449.7    4.742      35.069
2015    5        4     7  21    3.7668   449.6    4.746      35.056
2015    5        4     7  27    3.7666   449.4    4.750      35.043
2015    5        4     7  33    3.7665   449.3    4.754      35.031
2015    5        4     7  39    3.7663   449.1    4.758      35.018
2015    5        4     7  45    3.7662   449.0    4.762      35.005
2015    5        4     7  51    3.7660   448.8    4.766      34.992
2015    5        4     7  57    3.7659   448.7    4.770      34.980
2015    5        4     8   2    3.7658   448.5    4.774      34.967
2015    5        4     8   8    3.7657   448.4    4.778      34.955
2015    5        4     8  14    3.7656   448.2    4.782      34.942
2015    5        4     8  20    3.7656   448.1    4.786      34.930
2015    5        4     8  26    3.7655   447.9    4.790      34.918
2015    5        4     8  32    3.7655   447.7    4.794      34.906
2015    5        4     8  38    3.7655   447.6    4.798      34.895
2015    5        4     8  44    3.7655   447.4    4.802      34.884
2015    5        4     8  50    3.7656   447.3    4.806      34.873
2015    5        4     8  56    3.7657   447.1    4.810      34.862
2015    5        4     9   2    3.7658   447.0    4.815      34.852
2015    5        4     9   8    3.7660   446.8    4.819      34.842
2015    5        4     9  14    3.7662   446.6    4.823      34.832
2015    5        4     9  19    3.7664   446.5    4.827      34.822
2015    5        4     9  25    3.7667   446.3    4.831      34.812
2015    5        4     9  31    3.7670   446.2    4.836      34.803
2015    5        4     9  37    3.7674   446.0    4.840      34.793
2015    5        4     9  43    3.7678   445.9    4.844      34.784
2015    5        4     9  49    3.7682   445.7    4.849      34.774
2015    5        4     9  55    3.7686   445.6    4.853      34.765
2015    5        4    10   1    3.7691   445.4    4.857      34.755
2015    5        4    10   7    3.7695   445.3    4.862      34.745
2015    5        4    10  13    3.7700   445.2    4.866      34.736
2015    5        4    10  19    3.7705   445.0    4.870      34.727
2015    5        4    10  25    3.7710   444.9    4.875      34.717
2015    5        4    10  30    3.7715   444.7    4.879      34.708
2015    5        4    10  36    3.7720   444.6    4.883      34.698
2015    5        4    10  42    3.7725   444.4    4.887      34.689
2015    5        4    10  48    3.7730   444.3    4.891      34.679
2015    5        4    10  54    3.7735   444.1    4.895      34.669
2015    5        4    11   0    3.7740   444.0    4.899      34.659
2015    5        4    11   6    3.7745   443.9    4.903      34.648
2015    5        4    11  12    3.7750   443.7    4.906      34.636
2015    5        4    11  18    3.7755   443.6    4.910      34.625
2015    5        4    11  24    3.7759   443.4    4.914      34.612
2015    5        4    11  30    3.7764   443.3    4.917      34.600
2015    5        4    11  36    3.7769   443.2    4.921      34.587
2015    5        4    11  42    3.7773   443.0    4.924      34.574
2015    5        4    11  47    3.7778   442.9    4.927      34.560
2015    5        4    11  53    3.7782   442.7    4.931      34.546
2015    5        4    11  59    3.7787   442.6    4.934      34.531
2015    5        4    12   5    3.7791   442.5    4.937      34.517
2015    5        4    12  11    3.7796   442.3    4.941      34.501
2015    5        4    12  17    3.7800   442.2    4.944      34.486
2015    5        4    12  23    3.7805   442.0    4.947      34.470
2015    5        4    12  29    3.7809   441.9    4.950      34.454
2015    5        4    12  35    3.7813   441.8    4.954      34.437
2015    5        4    12  41    3.7818   441.6    4.957      34.421
2015    5        4    12  47    3.7822   441.5    4.960      34.404
2015    5        4    12  53    3.7826   441.3    4.963      34.387
2015    5        4    12  58    3.7830   441.2    4.966      34.369
2015    5        4    13   4    3.7835   441.1    4.969      34.352
2015    5        4    13  10    3.7839   440.9    4.973      34.334
2015    5        4    13  16    3.7843   440.8    4.976      34.317
2015    5        4    13  22    3.7848   440.7    4.979      34.299
2015    5        4    13  28    3.7852   440.5    4.983      34.282
2015    5        4    13  34    3.7857   440.4    4.986      34.264
2015    5        4    13  40    3.7862   440.2    4.989      34.246
2015    5        4    13  46    3.7866   440.1    4.993      34.229
2015    5        4    13  52    3.7871   440.0    4.996      34.211
2015    5        4    13  58    3.7876   439.8    5.000      34.194
2015    5        4    14   4    3.7881   439.7    5.003      34.176
2015    5        4    14  10    3.7886   439.6    5.007      34.159
2015    5        4    14  15    3.7891   439.4    5.011      34.142
2015    5        4    14  21    3.7896   439.3    5.014      34.125
2015    5        4    14  27    3.7902   439.1    5.018      34.108
2015    5        4    14  33    3.7907   439.0    5.022      34.091
2015    5        4    14  39    3.7913   438.9    5.026      34.075
2015    5        4    14  45    3.7919   438.7    5.030      34.058
2015    5        4    14  51    3.7924   438.6    5.034      34.042
2015    5        4    14  57    3.7930   438.5    5.038      34.026
2015    5        4    15   3    3.7936   438.3    5.042      34.010
2015    5        4    15   9    3.7942   438.2    5.046      33.994
2015    5        4    15  15    3.7949   438.1    5.051      33.979
2015    5        4    15  21    3.7955   437.9    5.055      33.963
2015    5        4    15  26    3.7962   437.8    5.059      33.949
2015    5        4    15  32    3.7969   437.6    5.064      33.934
2015    5        4    15  38    3.7976   437.5    5.068      33.920
2015    5        4    15  44    3.7983   437.4    5.073      33.907
2015    5        4    15  50    3.7990   437.2    5.078      33.893
2015    5        4    15  56    3.7998   437.1    5.082      33.880
2015    5        4    16   2    3.8006   437.0    5.087      33.868
2015    5        4    16   8    3.8014   436.8    5.092      33.856
2015    5        4    16  14    3.8022   436.7    5.097      33.845
2015    5        4    16  20    3.8030   436.6    5.102      33.834
2015    5        4    16  26    3.8039   436.4    5.107      33.824
2015    5        4    16  32    3.8048   436.3    5.113      33.814
2015    5        4    16  38    3.8058   436.2    5.118      33.804
2015    5        4    16  43    3.8067   436.0    5.123      33.796
2015    5        4    16  49    3.8077   435.9    5.129      33.787
2015    5        4    16  55    3.8087   435.8    5.134      33.779
2015    5        4    17   1    3.8098   435.7    5.140      33.772
2015    5        4    17   7    3.8108   435.5    5.146      33.764
2015    5        4    17  13    3.8119   435.4    5.151      33.757
2015    5        4    17  19    3.8129   435.3    5.157      33.750
2015    5        4    17  25    3.8140   435.2    5.163      33.744
2015    5        4    17  31    3.8152   435.0    5.169      33.738
2015    5        4    17  37    3.8163   434.9    5.175      33.732
2015    5        4    17  43    3.8174   434.8    5.180      33.727
2015    5        4    17  49    3.8186   434.7    5.186      33.722
2015    5        4    17  54    3.8197   434.6    5.192      33.717
2015    5        4    18   0    3.8208   434.4    5.198      33.712
2015    5        4    18   6    3.8220   434.3    5.203      33.707
2015    5        4    18  12    3.8231   434.2    5.209      33.702
2015    5        4    18  18    3.8242   434.1    5.214      33.697
2015    5        4    18  24    3.8253   434.0    5.220      33.691
2015    5        4    18  30    3.8264   433.8    5.225      33.686
2015    5        4    18  36    3.8276   433.7    5.230      33.680
2015    5        4    18  42    3.8287   433.6    5.236      33.674
2015    5        4    18  48    3.8298   433.5    5.241      33.667
2015    5        4    18  54    3.8309   433.4    5.246      33.661
2015    5        4    19   0    3.8320   433.2    5.251      33.654
2015    5        4    19   6    3.8331   433.1    5.256      33.647
2015    5        4    19  11    3.8342   433.0    5.261      33.640
2015    5        4    19  17    3.8353   432.9    5.266      33.632
2015    5        4    19  23    3.8364   432.8    5.271      33.624
2015    5        4    19  29    3.8375   432.6    5.276      33.616
2015    5        4    19  35    3.8386   432.5    5.281      33.608
2015    5        4    19  41    3.8397   432.4    5.286      33.599
2015    5        4    19  47    3.8409   432.3    5.291      33.590
2015    5        4    19  53    3.8420   432.2    5.295      33.581
2015    5        4    19  59    3.8431   432.1    5.300      33.572
2015    5        4    20   5    3.8442   431.9    5.305      33.562
2015    5        4    20  11    3.8454   431.8    5.309      33.553
2015    5        4    20  17    3.8465   431.7    5.314      33.543
2015    5        4    20  22    3.8476   431.6    5.319      33.533
2015    5        4    20  28    3.8488   431.5    5.323      33.523
2015    5        4    20  34    3.8499   431.4    5.328      33.513
2015    5        4    20  40    3.8511   431.2    5.333      33.502
2015    5        4    20  46    3.8523   431.1    5.337      33.492
2015    5        4    20  52    3.8534   431.0    5.342      33.481
2015    5        4    20  58    3.8546   430.9    5.347      33.471
2015    5        4    21   4    3.8558   430.8    5.352      33.460
2015    5        4    21  10    3.8570   430.7    5.356      33.450
2015    5        4    21  16    3.8582   430.6    5.361      33.440
2015    5        4    21  22    3.8594   430.4    5.366      33.429
2015    5        4    21  28    3.8606   430.3    5.370      33.419
2015    5        4    21  34    3.8619   430.2    5.375      33.408
2015    5        4    21  39    3.8631   430.1    5.380      33.398
2015    5        4    21  45    3.8644   430.0    5.385      33.388
2015    5        4    21  51    3.8656   429.9    5.390      33.378
2015    5        4    21  57    3.8669   429.8    5.395      33.368
2015    5        4    22   3    3.8682   429.7    5.400      33.358
2015    5        4    22   9    3.8695   429.6    5.405      33.348
2015    5        4    22  15    3.8708   429.5    5.410      33.338
2015    5        4    22  21    3.8721   429.4    5.415      33.329
2015    5        4    22  27    3.8734   429.2    5.420      33.320
2015    5        4    22  33    3.8748   429.1    5.425      33.311
2015    5        4    22  39    3.8761   429.0    5.431      33.302
2015    5        4    22  45    3.8775   428.9    5.436      33.294
2015    5        4    22  50    3.8789   428.8    5.441      33.285
2015    5        4    22  56    3.8803   428.7    5.447      33.277
2015    5        4    23   2    3.8817   428.6    5.452      33.269
2015    5        4    23   8    3.8831   428.5    5.458      33.262
2015    5        4    23  14    3.8845   428.4    5.463      33.254
2015    5        4    23  20    3.8859   428.3    5.469      33.247
2015    5        4    23  26    3.8874   428.2    5.475      33.240
2015    5        4    23  32    3.8888   428.1    5.480      33.234
2015    5        4    23  38    3.8903   428.0    5.486      33.227
2015    5        4    23  44    3.8917   427.9    5.492      33.221
2015    5        4    23  50    3.8932   427.8    5.498      33.215
2015    5        4    23  56    3.8947   427.7    5.503      33.209
2015    5        5     0   2    3.8962   427.6    5.509      33.204
2015    5        5     0   7    3.8976   427.5    5.515      33.199
2015    5        5     0  13    3.8991   427.4    5.521      33.193
2015    5        5     0  19    3.9006   427.3    5.527      33.188
2015    5        5     0  25    3.9021   427.3    5.532      33.184
2015    5        5     0  31    3.9036   427.2    5.538      33.179
2015    5        5     0  37    3.9051   427.1    5.544      33.174
2015    5        5     0  43    3.9066   427.0    5.550      33.170
2015    5        5     0  49    3.9081   426.9    5.556      33.166
2015    5        5     0  55    3.9096   426.8    5.562      33.161
2015    5        5     1   1    3.9111   426.7    5.567      33.157
2015    5        5     1   7    3.9126   426.6    5.573      33.153
2015    5        5     1  13    3.9141   426.5    5.579      33.149
2015    5        5     1  18    3.9156   426.4    5.585      33.145
2015    5        5     1  24    3.9171   426.3    5.590      33.142
2015    5        5     1  30    3.9186   426.2    5.596      33.138
2015    5        5     1  36    3.9201   426.2    5.602      33.135
2015    5        5     1  42    3.9217   426.1    5.607      33.131
2015    5        5     1  48    3.9232   426.0    5.613      33.127
2015    5        5     1  54    3.9247   425.9    5.619      33.124
2015    5        5     2   0    3.9263   425.8    5.624      33.120
2015    5        5     2   6    3.9278   425.7    5.630      33.117
2015    5        5     2  12    3.9294   425.6    5.636      33.114
2015    5        5     2  18    3.9310   425.5    5.641      33.110
2015    5        5     2  24    3.9325   425.5    5.647      33.107
2015    5        5     2  29    3.9341   425.4    5.652      33.104
2015    5        5     2  35    3.9357   425.3    5.658      33.100
2015    5        5     2  41    3.9373   425.2    5.663      33.097
2015    5        5     2  47    3.9389   425.1    5.669      33.094
2015    5        5     2  53    3.9405   425.0    5.675      33.091
2015    5        5     2  59    3.9422   424.9    5.680      33.088
2015    5        5     3   5    3.9438   424.8    5.686      33.085
2015    5        5     3  11    3.9455   424.8    5.691      33.082
2015    5        5     3  17    3.9472   424.7    5.697      33.079
2015    5        5     3  23    3.9489   424.6    5.703      33.076
2015    5        5     3  29    3.9506   424.5    5.708      33.073
2015    5        5     3  35    3.9522   424.4    5.714      33.070
2015    5        5     3  41    3.9539   424.3    5.720      33.067
2015    5        5     3  46    3.9557   424.3    5.726      33.065
2015    5        5     3  52    3.9574   424.2    5.731      33.062
2015    5        5     3  58    3.9591   424.1    5.737      33.059
2015    5        5     4   4    3.9608   424.0    5.743      33.057
2015    5        5     4  10    3.9625   423.9    5.749      33.054
2015    5        5     4  16    3.9642   423.8    5.755      33.052
2015    5        5     4  22    3.9660   423.8    5.760      33.049
2015    5        5     4  28    3.9677   423.7    5.766      33.046
2015    5        5     4  34    3.9695   423.6    5.772      33.044
2015    5        5     4  40    3.9712   423.5    5.778      33.041
2015    5        5     4  46    3.9729   423.5    5.783      33.038
2015    5        5     4  52    3.9747   423.4    5.789      33.035
2015    5        5     4  57    3.9764   423.3    5.795      33.033
2015    5        5     5   3    3.9782   423.2    5.801      33.030
2015    5        5     5   9    3.9800   423.1    5.807      33.028
2015    5        5     5  15    3.9817   423.1    5.812      33.025
2015    5        5     5  21    3.9835   423.0    5.818      33.022
2015    5        5     5  27    3.9853   422.9    5.824      33.020
2015    5        5     5  33    3.9870   422.8    5.830      33.017
2015    5        5     5  39    3.9888   422.8    5.836      33.015
2015    5        5     5  45    3.9906   422.7    5.842      33.013
2015    5        5     5  51    3.9924   422.6    5.847      33.011
2015    5        5     5  57    3.9941   422.6    5.853      33.008
2015    5        5     6   3    3.9959   422.5    5.859      33.007
2015    5        5     6   9    3.9977   422.4    5.865      33.005
2015    5        5     6  14    3.9995   422.3    5.871      33.003
2015    5        5     6  20    4.0013   422.3    5.876      33.001
2015    5        5     6  26    4.0031   422.2    5.882      32.999
2015    5        5     6  32    4.0049   422.1    5.888      32.998
2015    5        5     6  38    4.0067   422.1    5.894      32.996
2015    5        5     6  44    4.0085   422.0    5.900      32.995
2015    5        5     6  50    4.0103   421.9    5.905      32.994
2015    5        5     6  56    4.0121   421.9    5.911      32.993
2015    5        5     7   2    4.0138   421.8    5.917      32.991
2015    5        5     7   8    4.0156   421.7    5.922      32.990
2015    5        5     7  14    4.0174   421.7    5.928      32.989
2015    5        5     7  20    4.0192   421.6    5.933      32.988
2015    5        5     7  25    4.0210   421.5    5.939      32.987
2015    5        5     7  31    4.0228   421.5    5.944      32.986
2015    5        5     7  37    4.0245   421.4    5.950      32.984
2015    5        5     7  43    4.0263   421.3    5.955      32.983
2015    5        5     7  49    4.0281   421.3    5.961      32.982
2015    5        5     7  55    4.0299   421.2    5.966      32.981
2015    5        5     8   1    4.0317   421.1    5.972      32.980
2015    5        5     8   7    4.0335   421.1    5.977      32.979
2015    5        5     8  13    4.0352   421.0    5.982      32.978
2015    5        5     8  19    4.0370   420.9    5.987      32.977
2015    5        5     8  25    4.0388   420.9    5.993      32.977
2015    5        5     8  31    4.0406   420.8    5.998      32.976
2015    5        5     8  37    4.0424   420.8    6.003      32.975
2015    5        5     8  42    4.0442   420.7    6.008      32.974
2015    5        5     8  48    4.0460   420.6    6.013      32.973
2015    5        5     8  54    4.0478   420.6    6.018      32.972
2015    5        5     9   0    4.0496   420.5    6.023      32.972
2015    5        5     9   6    4.0514   420.4    6.029      32.971
2015    5        5     9  12    4.0532   420.4    6.034      32.971
2015    5        5     9  18    4.0551   420.3    6.039      32.970
2015    5        5     9  24    4.0569   420.3    6.044      32.970
2015    5        5     9  30    4.0588   420.2    6.049      32.970
2015    5        5     9  36    4.0606   420.1    6.054      32.970
2015    5        5     9  42    4.0625   420.1    6.059      32.970
2015    5        5     9  48    4.0644   420.0    6.064      32.970
2015    5        5     9  53    4.0663   420.0    6.069      32.971
2015    5        5     9  59    4.0682   419.9    6.075      32.971
2015    5        5    10   5    4.0701   419.8    6.080      32.972
2015    5        5    10  11    4.0720   419.8    6.085      32.973
2015    5        5    10  17    4.0740   419.7    6.090      32.974
2015    5        5    10  23    4.0760   419.7    6.096      32.975
2015    5        5    10  29    4.0779   419.6    6.101      32.977
2015    5        5    10  35    4.0799   419.6    6.106      32.979
2015    5        5    10  41    4.0819   419.5    6.112      32.981
2015    5        5    10  47    4.0839   419.4    6.117      32.983
2015    5        5    10  53    4.0860   419.4    6.123      32.985
2015    5        5    10  59    4.0880   419.3    6.128      32.987
2015    5        5    11   5    4.0901   419.3    6.134      32.990
2015    5        5    11  10    4.0921   419.2    6.139      32.992
2015    5        5    11  16    4.0942   419.2    6.145      32.995
2015    5        5    11  22    4.0962   419.1    6.151      32.998
2015    5        5    11  28    4.0983   419.1    6.156      33.001
2015    5        5    11  34    4.1004   419.0    6.162      33.004
2015    5        5    11  40    4.1025   419.0    6.167      33.008
2015    5        5    11  46    4.1045   418.9    6.173      33.011
2015    5        5    11  52    4.1066   418.9    6.178      33.015
2015    5        5    11  58    4.1087   418.8    6.184      33.019
2015    5        5    12   4    4.1108   418.8    6.189      33.023
2015    5        5    12  10    4.1129   418.7    6.194      33.027
2015    5        5    12  16    4.1150   418.7    6.199      33.031
2015    5        5    12  21    4.1171   418.7    6.205      33.035
2015    5        5    12  27    4.1192   418.6    6.210      33.039
2015    5        5    12  33    4.1213   418.6    6.215      33.043
2015    5        5    12  39    4.1234   418.5    6.220      33.047
2015    5        5    12  45    4.1255   418.5    6.225      33.050
2015    5        5    12  51    4.1276   418.4    6.230      33.054
2015    5        5    12  57    4.1297   418.4    6.235      33.058
2015    5        5    13   3    4.1319   418.3    6.240      33.061
2015    5        5    13   9    4.1340   418.3    6.244      33.064
2015    5        5    13  15    4.1361   418.3    6.249      33.068
2015    5        5    13  21    4.1383   418.2    6.254      33.071
2015    5        5    13  27    4.1405   418.2    6.259      33.074
2015    5        5    13  33    4.1426   418.1    6.263      33.077
2015    5        5    13  38    4.1448   418.1    6.268      33.080
2015    5        5    13  44    4.1470   418.0    6.272      33.083
2015    5        5    13  50    4.1491   418.0    6.277      33.085
2015    5        5    13  56    4.1513   418.0    6.281      33.088
2015    5        5    14   2    4.1536   417.9    6.286      33.091
2015    5        5    14   8    4.1558   417.9    6.290      33.093
2015    5        5    14  14    4.1580   417.8    6.295      33.096
2015    5        5    14  20    4.1603   417.8    6.299      33.098
2015    5        5    14  26    4.1626   417.7    6.303      33.101
2015    5        5    14  32    4.1648   417.7    6.307      33.103
2015    5        5    14  38    4.1671   417.7    6.312      33.106
2015    5        5    14  44    4.1695   417.6    6.316      33.108
2015    5        5    14  49    4.1718   417.6    6.320      33.111
2015    5        5    14  55    4.1741   417.6    6.324      33.113
2015    5        5    15   1    4.1765   417.5    6.328      33.116
2015    5        5    15   7    4.1789   417.5    6.333      33.118
2015    5        5    15  13    4.1813   417.4    6.337      33.121
2015    5        5    15  19    4.1837   417.4    6.341      33.124
2015    5        5    15  25    4.1862   417.4    6.345      33.127
2015    5        5    15  31    4.1887   417.3    6.349      33.130
2015    5        5    15  37    4.1912   417.3    6.353      33.133
2015    5        5    15  43    4.1937   417.3    6.358      33.136
2015    5        5    15  49    4.1962   417.2    6.362      33.139
2015    5        5    15  55    4.1988   417.2    6.366      33.143
2015    5        5    16   0    4.2013   417.2    6.370      33.147
2015    5        5    16   6    4.2039   417.1    6.374      33.151
2015    5        5    16  12    4.2065   417.1    6.379      33.155
2015    5        5    16  18    4.2091   417.1    6.383      33.160
2015    5        5    16  24    4.2118   417.0    6.387      33.164
2015    5        5    16  30    4.2144   417.0    6.392      33.170
2015    5        5    16  36    4.2171   417.0    6.396      33.175
2015    5        5    16  42    4.2198   416.9    6.401      33.181
2015    5        5    16  48    4.2225   416.9    6.405      33.186
2015    5        5    16  54    4.2252   416.9    6.410      33.193
2015    5        5    17   0    4.2279   416.8    6.415      33.199
2015    5        5    17   6    4.2307   416.8    6.419      33.206
2015    5        5    17  12    4.2334   416.8    6.424      33.213
2015    5        5    17  17    4.2362   416.8    6.429      33.221
2015    5        5    17  23    4.2390   416.7    6.434      33.228
2015    5        5    17  29    4.2418   416.7    6.439      33.236
2015    5        5    17  35    4.2446   416.7    6.443      33.245
2015    5        5    17  41    4.2474   416.7    6.448      33.254
2015    5        5    17  47    4.2502   416.6    6.454      33.263
2015    5        5    17  53    4.2530   416.6    6.459      33.272
2015    5        5    17  59    4.2558   416.6    6.464      33.282
2015    5        5    18   5    4.2587   416.6    6.469      33.292
2015    5        5    18  11    4.2615   416.5    6.474      33.303
2015    5        5    18  17    4.2644   416.5    6.480      33.313
2015    5        5    18  23    4.2672   416.5    6.485      33.324
2015    5        5    18  28    4.2701   416.5    6.491      33.336
2015    5        5    18  34    4.2730   416.5    6.496      33.347
2015    5        5    18  40    4.2759   416.4    6.502      33.359
2015    5        5    18  46    4.2787   416.4    6.507      33.371
2015    5        5    18  52    4.2816   416.4    6.513      33.384
2015    5        5    18  58    4.2845   416.4    6.519      33.396
2015    5        5    19   4    4.2874   416.4    6.524      33.409
2015    5        5    19  10    4.2902   416.4    6.530      33.422
2015    5        5    19  16    4.2931   416.3    6.536      33.435
2015    5        5    19  22    4.2960   416.3    6.542      33.449
2015    5        5    19  28    4.2988   416.3    6.548      33.463
2015    5        5    19  34    4.3017   416.3    6.553      33.477
2015    5        5    19  40    4.3045   416.3    6.559      33.491
2015    5        5    19  45    4.3074   416.3    6.565      33.505
2015    5        5    19  51    4.3102   416.2    6.571      33.520
2015    5        5    19  57    4.3131   416.2    6.577      33.535
2015    5        5    20   3    4.3159   416.2    6.583      33.550
2015    5        5    20   9    4.3188   416.2    6.589      33.566
2015    5        5    20  15    4.3216   416.2    6.594      33.581
2015    5        5    20  21    4.3244   416.2    6.600      33.596
2015    5        5    20  27    4.3273   416.2    6.606      33.611
2015    5        5    20  33    4.3301   416.2    6.612      33.626
2015    5        5    20  39    4.3330   416.1    6.618      33.642
2015    5        5    20  45    4.3358   416.1    6.623      33.657
2015    5        5    20  51    4.3386   416.1    6.629      33.672
2015    5        5    20  56    4.3415   416.1    6.635      33.687
2015    5        5    21   2    4.3443   416.1    6.641      33.702
2015    5        5    21   8    4.3472   416.1    6.647      33.717
2015    5        5    21  14    4.3500   416.1    6.653      33.732
2015    5        5    21  20    4.3528   416.1    6.658      33.747
2015    5        5    21  26    4.3557   416.1    6.664      33.763
2015    5        5    21  32    4.3585   416.1    6.670      33.778
2015    5        5    21  38    4.3613   416.0    6.676      33.794
2015    5        5    21  44    4.3641   416.0    6.681      33.809
2015    5        5    21  50    4.3669   416.0    6.687      33.825
2015    5        5    21  56    4.3697   416.0    6.692      33.840
2015    5        5    22   2    4.3725   416.0    6.697      33.856
2015    5        5    22   8    4.3753   416.0    6.703      33.871
2015    5        5    22  13    4.3781   416.0    6.708      33.887
2015    5        5    22  19    4.3809   416.0    6.713      33.902
2015    5        5    22  25    4.3837   416.0    6.718      33.917
2015    5        5    22  31    4.3864   416.0    6.723      33.932
2015    5        5    22  37    4.3892   416.0    6.728      33.947
2015    5        5    22  43    4.3920   416.0    6.732      33.961
2015    5        5    22  49    4.3947   416.0    6.737      33.976
2015    5        5    22  55    4.3975   416.0    6.742      33.990
2015    5        5    23   1    4.4002   416.0    6.747      34.005
2015    5        5    23   7    4.4030   416.0    6.751      34.019
2015    5        5    23  13    4.4057   416.0    6.756      34.033
2015    5        5    23  19    4.4085   416.0    6.760      34.047
2015    5        5    23  24    4.4112   416.0    6.765      34.061
2015    5        5    23  30    4.4140   416.0    6.769      34.075
2015    5        5    23  36    4.4167   416.0    6.773      34.089
2015    5        5    23  42    4.4194   416.0    6.778      34.102
2015    5        5    23  48    4.4222   416.0    6.782      34.116
2015    5        5    23  54    4.4249   416.0    6.786      34.130
2015    5        6     0   0    4.4276   416.0    6.791      34.144
2015    5        6     0   6    4.4304   416.0    6.795      34.157
2015    5        6     0  12    4.4331   416.0    6.799      34.171
2015    5        6     0  18    4.4359   416.0    6.803      34.185
2015    5        6     0  24    4.4386   416.0    6.807      34.199
2015    5        6     0  30    4.4413   416.0    6.812      34.213
2015    5        6     0  36    4.4440   416.0    6.816      34.227
2015    5        6     0  41    4.4468   416.0    6.820      34.241
2015    5        6     0  47    4.4495   416.0    6.824      34.255
2015    5        6     0  53    4.4523   416.0    6.828      34.269
2015    5        6     0  59    4.4550   416.0    6.832      34.284
2015    5        6     1   5    4.4577   416.0    6.837      34.298
2015    5        6     1  11    4.4604   416.0    6.841      34.313
2015    5        6     1  17    4.4632   416.0    6.845      34.328
2015    5        6     1  23    4.4659   416.0    6.849      34.342
2015    5        6     1  29    4.4687   416.0    6.853      34.358
2015    5        6     1  35    4.4714   416.1    6.857      34.373
2015    5        6     1  41    4.4742   416.1    6.861      34.388
2015    5        6     1  47    4.4770   416.1    6.866      34.404
2015    5        6     1  52    4.4797   416.1    6.870      34.420
2015    5        6     1  58    4.4825   416.1    6.874      34.436
2015    5        6     2   4    4.4853   416.1    6.878      34.453
2015    5        6     2  10    4.4881   416.1    6.883      34.469
2015    5        6     2  16    4.4909   416.1    6.887      34.486
2015    5        6     2  22    4.4936   416.1    6.891      34.503
2015    5        6     2  28    4.4965   416.1    6.895      34.521
2015    5        6     2  34    4.4993   416.2    6.900      34.538
2015    5        6     2  40    4.5021   416.2    6.904      34.556
2015    5        6     2  46    4.5049   416.2    6.909      34.574
2015    5        6     2  52    4.5077   416.2    6.913      34.593
2015    5        6     2  58    4.5105   416.2    6.917      34.611
2015    5        6     3   4    4.5133   416.2    6.922      34.630
2015    5        6     3   9    4.5162   416.2    6.926      34.650
2015    5        6     3  15    4.5190   416.3    6.931      34.669
2015    5        6     3  21    4.5218   416.3    6.936      34.689
2015    5        6     3  27    4.5247   416.3    6.940      34.709
2015    5        6     3  33    4.5275   416.3    6.945      34.729
2015    5        6     3  39    4.5303   416.3    6.950      34.749
2015    5        6     3  45    4.5332   416.3    6.954      34.770
2015    5        6     3  51    4.5360   416.4    6.959      34.791
2015    5        6     3  57    4.5388   416.4    6.964      34.812
2015    5        6     4   3    4.5417   416.4    6.969      34.833
2015    5        6     4   9    4.5445   416.4    6.974      34.855
2015    5        6     4  15    4.5473   416.4    6.979      34.878
2015    5        6     4  20    4.5501   416.4    6.983      34.900
2015    5        6     4  26    4.5529   416.5    6.988      34.923
2015    5        6     4  32    4.5557   416.5    6.993      34.947
2015    5        6     4  38    4.5585   416.5    6.998      34.971
2015    5        6     4  44    4.5613   416.5    7.003      34.995
2015    5        6     4  50    4.5641   416.6    7.008      35.020
2015    5        6     4  56    4.5668   416.6    7.012      35.044
2015    5        6     5   2    4.5696   416.6    7.017      35.070
2015    5        6     5   8    4.5723   416.6    7.022      35.096
2015    5        6     5  14    4.5751   416.7    7.026      35.122
2015    5        6     5  20    4.5778   416.7    7.031      35.148
2015    5        6     5  26    4.5804   416.7    7.035      35.175
2015    5        6     5  32    4.5831   416.7    7.040      35.202
2015    5        6     5  37    4.5858   416.8    7.044      35.229
2015    5        6     5  43    4.5884   416.8    7.048      35.256
2015    5        6     5  49    4.5910   416.8    7.052      35.284
2015    5        6     5  55    4.5936   416.9    7.056      35.311
2015    5        6     6   1    4.5962   416.9    7.060      35.339
2015    5        6     6   7    4.5988   416.9    7.064      35.366
2015    5        6     6  13    4.6013   416.9    7.068      35.394
2015    5        6     6  19    4.6038   417.0    7.072      35.421
2015    5        6     6  25    4.6063   417.0    7.076      35.448
2015    5        6     6  31    4.6088   417.0    7.079      35.476
2015    5        6     6  37    4.6113   417.1    7.083      35.503
2015    5        6     6  43    4.6138   417.1    7.086      35.530
2015    5        6     6  48    4.6162   417.1    7.089      35.557
2015    5        6     6  54    4.6187   417.2    7.093      35.584
2015    5        6     7   0    4.6211   417.2    7.096      35.611
2015    5        6     7   6    4.6235   417.2    7.099      35.638
2015    5        6     7  12    4.6259   417.3    7.102      35.664
2015    5        6     7  18    4.6283   417.3    7.106      35.690
2015    5        6     7  24    4.6307   417.3    7.109      35.717
2015    5        6     7  30    4.6331   417.4    7.112      35.743
2015    5        6     7  36    4.6355   417.4    7.115      35.769
2015    5        6     7  42    4.6379   417.4    7.118      35.794
2015    5        6     7  48    4.6402   417.5    7.121      35.820
2015    5        6     7  54    4.6426   417.5    7.124      35.845
2015    5        6     7  59    4.6450   417.5    7.127      35.871
2015    5        6     8   5    4.6473   417.6    7.130      35.896
2015    5        6     8  11    4.6497   417.6    7.133      35.921
2015    5        6     8  17    4.6520   417.6    7.136      35.946
2015    5        6     8  23    4.6544   417.7    7.139      35.971
2015    5        6     8  29    4.6567   417.7    7.141      35.997
2015    5        6     8  35    4.6590   417.8    7.144      36.022
2015    5        6     8  41    4.6614   417.8    7.147      36.048
2015    5        6     8  47    4.6637   417.8    7.150      36.074
2015    5        6     8  53    4.6660   417.9    7.153      36.101
2015    5        6     8  59    4.6683   417.9    7.156      36.127
2015    5        6     9   5    4.6706   418.0    7.158      36.153
2015    5        6     9  11    4.6729   418.0    7.161      36.180
2015    5        6     9  16    4.6752   418.0    7.164      36.206
2015    5        6     9  22    4.6775   418.1    7.166      36.232
2015    5        6     9  28    4.6797   418.1    7.169      36.258
2015    5        6     9  34    4.6820   418.2    7.172      36.284
2015    5        6     9  40    4.6843   418.2    7.174      36.310
2015    5        6     9  46    4.6866   418.2    7.177      36.337
2015    5        6     9  52    4.6888   418.3    7.179      36.362
2015    5        6     9  58    4.6911   418.3    7.182      36.388
2015    5        6    10   4    4.6934   418.4    7.185      36.414
2015    5        6    10  10    4.6956   418.4    7.187      36.440
2015    5        6    10  16    4.6979   418.5    7.190      36.466
2015    5        6    10  22    4.7002   418.5    7.193      36.492
2015    5        6    10  27    4.7025   418.6    7.196      36.517
2015    5        6    10  33    4.7048   418.6    7.198      36.543
2015    5        6    10  39    4.7070   418.6    7.201      36.569
2015    5        6    10  45    4.7093   418.7    7.204      36.595
2015    5        6    10  51    4.7115   418.7    7.207      36.621
2015    5        6    10  57    4.7138   418.8    7.210      36.647
2015    5        6    11   3    4.7160   418.8    7.213      36.674
2015    5        6    11   9    4.7182   418.9    7.216      36.701
2015    5        6    11  15    4.7203   418.9    7.219      36.727
2015    5        6    11  21    4.7225   419.0    7.222      36.754
2015    5        6    11  27    4.7246   419.0    7.225      36.781
2015    5        6    11  33    4.7267   419.1    7.228      36.807
2015    5        6    11  39    4.7288   419.1    7.231      36.834
2015    5        6    11  44    4.7308   419.2    7.234      36.862
2015    5        6    11  50    4.7328   419.2    7.237      36.890
2015    5        6    11  56    4.7348   419.3    7.239      36.918
2015    5        6    12   2    4.7368   419.4    7.242      36.947
2015    5        6    12   8    4.7387   419.4    7.244      36.976
2015    5        6    12  14    4.7406   419.5    7.247      37.005
2015    5        6    12  20    4.7425   419.5    7.249      37.035
2015    5        6    12  26    4.7444   419.6    7.251      37.063
2015    5        6    12  32    4.7462   419.6    7.253      37.092
2015    5        6    12  38    4.7481   419.7    7.255      37.120
2015    5        6    12  44    4.7499   419.7    7.257      37.148
2015    5        6    12  50    4.7516   419.8    7.259      37.175
2015    5        6    12  55    4.7534   419.8    7.260      37.203
2015    5        6    13   1    4.7551   419.9    7.262      37.229
2015    5        6    13   7    4.7569   420.0    7.263      37.256
2015    5        6    13  13    4.7586   420.0    7.265      37.282
2015    5        6    13  19    4.7603   420.1    7.266      37.307
2015    5        6    13  25    4.7620   420.1    7.267      37.333
2015    5        6    13  31    4.7637   420.2    7.268      37.357
2015    5        6    13  37    4.7654   420.2    7.269      37.382
2015    5        6    13  43    4.7671   420.3    7.270      37.406
2015    5        6    13  49    4.7687   420.3    7.271      37.430
2015    5        6    13  55    4.7704   420.4    7.272      37.453
2015    5        6    14   1    4.7721   420.4    7.273      37.477
2015    5        6    14   7    4.7737   420.5    7.274      37.499
2015    5        6    14  12    4.7754   420.5    7.275      37.522
2015    5        6    14  18    4.7771   420.6    7.275      37.545
2015    5        6    14  24    4.7787   420.6    7.276      37.567
2015    5        6    14  30    4.7804   420.7    7.277      37.589
2015    5        6    14  36    4.7821   420.7    7.277      37.610
2015    5        6    14  42    4.7838   420.8    7.278      37.632
2015    5        6    14  48    4.7855   420.9    7.279      37.653
2015    5        6    14  54    4.7873   420.9    7.280      37.675
2015    5        6    15   0    4.7890   421.0    7.280      37.696
2015    5        6    15   6    4.7908   421.0    7.281      37.717
2015    5        6    15  12    4.7925   421.1    7.282      37.738
2015    5        6    15  18    4.7943   421.1    7.283      37.759
2015    5        6    15  23    4.7961   421.2    7.284      37.781
2015    5        6    15  29    4.7980   421.2    7.285      37.802
2015    5        6    15  35    4.7998   421.3    7.286      37.824
2015    5        6    15  41    4.8017   421.3    7.287      37.845
2015    5        6    15  47    4.8036   421.4    7.288      37.866
2015    5        6    15  53    4.8055   421.4    7.289      37.888
2015    5        6    15  59    4.8074   421.5    7.291      37.911
2015    5        6    16   5    4.8093   421.6    7.292      37.934
2015    5        6    16  11    4.8113   421.6    7.294      37.959
2015    5        6    16  17    4.8131   421.7    7.295      37.984
2015    5        6    16  23    4.8150   421.7    7.296      38.010
2015    5        6    16  29    4.8168   421.8    7.297      38.036
2015    5        6    16  35    4.8186   421.9    7.298      38.064
2015    5        6    16  40    4.8204   421.9    7.299      38.091
2015    5        6    16  46    4.8222   422.0    7.299      38.117
2015    5        6    16  52    4.8239   422.1    7.299      38.144
2015    5        6    16  58    4.8255   422.1    7.300      38.169
2015    5        6    17   4    4.8271   422.2    7.300      38.195
2015    5        6    17  10    4.8287   422.3    7.300      38.220
2015    5        6    17  16    4.8303   422.3    7.299      38.244
2015    5        6    17  22    4.8318   422.4    7.299      38.269
2015    5        6    17  28    4.8332   422.5    7.298      38.292
2015    5        6    17  34    4.8347   422.5    7.297      38.315
2015    5        6    17  40    4.8361   422.6    7.296      38.338
2015    5        6    17  46    4.8375   422.7    7.295      38.360
2015    5        6    17  51    4.8388   422.7    7.294      38.382
2015    5        6    17  57    4.8402   422.8    7.293      38.403
2015    5        6    18   3    4.8415   422.9    7.292      38.424
2015    5        6    18   9    4.8428   422.9    7.290      38.445
2015    5        6    18  15    4.8441   423.0    7.289      38.465
2015    5        6    18  21    4.8454   423.1    7.287      38.485
2015    5        6    18  27    4.8467   423.1    7.286      38.505
2015    5        6    18  33    4.8479   423.2    7.284      38.524
2015    5        6    18  39    4.8491   423.3    7.282      38.544
2015    5        6    18  45    4.8503   423.3    7.281      38.563
2015    5        6    18  51    4.8515   423.4    7.279      38.582
2015    5        6    18  57    4.8527   423.5    7.277      38.600
2015    5        6    19   3    4.8539   423.5    7.275      38.619
2015    5        6    19   8    4.8551   423.6    7.273      38.638
2015    5        6    19  14    4.8563   423.7    7.271      38.656
2015    5        6    19  20    4.8574   423.7    7.269      38.675
2015    5        6    19  26    4.8586   423.8    7.267      38.693
2015    5        6    19  32    4.8597   423.9    7.265      38.711
2015    5        6    19  38    4.8608   423.9    7.263      38.729
2015    5        6    19  44    4.8620   424.0    7.261      38.748
2015    5        6    19  50    4.8631   424.1    7.259      38.766
2015    5        6    19  56    4.8642   424.1    7.257      38.784
2015    5        6    20   2    4.8653   424.2    7.255      38.803
2015    5        6    20   8    4.8665   424.3    7.253      38.821
2015    5        6    20  14    4.8676   424.3    7.252      38.840
2015    5        6    20  19    4.8687   424.4    7.250      38.859
2015    5        6    20  25    4.8698   424.5    7.248      38.878
2015    5        6    20  31    4.8709   424.5    7.246      38.898
2015    5        6    20  37    4.8721   424.6    7.244      38.917
2015    5        6    20  43    4.8732   424.7    7.243      38.937
2015    5        6    20  49    4.8744   424.7    7.241      38.958
2015    5        6    20  55    4.8755   424.8    7.240      38.978
2015    5        6    21   1    4.8767   424.9    7.238      38.999
2015    5        6    21   7    4.8779   424.9    7.237      39.021
2015    5        6    21  13    4.8791   425.0    7.236      39.042
2015    5        6    21  19    4.8803   425.1    7.235      39.065
2015    5        6    21  25    4.8815   425.1    7.234      39.088
2015    5        6    21  30    4.8827   425.2    7.233      39.111
2015    5        6    21  36    4.8840   425.3    7.232      39.135
2015    5        6    21  42    4.8853   425.4    7.232      39.159
2015    5        6    21  48    4.8865   425.4    7.231      39.184
2015    5        6    21  54    4.8878   425.5    7.231      39.209
2015    5        6    22   0    4.8891   425.6    7.231      39.236
2015    5        6    22   6    4.8904   425.6    7.231      39.263
2015    5        6    22  12    4.8917   425.7    7.231      39.290
2015    5        6    22  18    4.8929   425.8    7.231      39.318
2015    5        6    22  24    4.8942   425.9    7.232      39.346
2015    5        6    22  30    4.8955   425.9    7.232      39.374
2015    5        6    22  36    4.8967   426.0    7.232      39.403
2015    5        6    22  42    4.8979   426.1    7.233      39.431
2015    5        6    22  47    4.8991   426.2    7.233      39.459
2015    5        6    22  53    4.9003   426.2    7.233      39.486
2015    5        6    22  59    4.9014   426.3    7.234      39.513
2015    5        6    23   5    4.9025   426.4    7.234      39.541
2015    5        6    23  11    4.9036   426.5    7.234      39.568
2015    5        6    23  17    4.9047   426.5    7.235      39.595
2015    5        6    23  23    4.9057   426.6    7.235      39.623
2015    5        6    23  29    4.9066   426.7    7.235      39.649
2015    5        6    23  35    4.9076   426.8    7.235      39.676
2015    5        6    23  41    4.9085   426.9    7.235      39.702
2015    5        6    23  47    4.9093   426.9    7.235      39.728
2015    5        6    23  53    4.9101   427.0    7.234      39.753
2015    5        6    23  58    4.9109   427.1    7.234      39.778
2015    5        7     0   4    4.9117   427.2    7.233      39.801
2015    5        7     0  10    4.9124   427.3    7.232      39.824
2015    5        7     0  16    4.9130   427.4    7.231      39.847
2015    5        7     0  22    4.9137   427.5    7.229      39.869
2015    5        7     0  28    4.9143   427.5    7.228      39.890
2015    5        7     0  34    4.9148   427.6    7.226      39.911
2015    5        7     0  40    4.9154   427.7    7.224      39.931
2015    5        7     0  46    4.9159   427.8    7.222      39.950
2015    5        7     0  52    4.9163   427.9    7.220      39.969
2015    5        7     0  58    4.9168   428.0    7.217      39.987
2015    5        7     1   4    4.9172   428.1    7.215      40.005
2015    5        7     1  10    4.9175   428.2    7.212      40.022
2015    5        7     1  15    4.9179   428.3    7.209      40.039
2015    5        7     1  21    4.9182   428.4    7.206      40.055
2015    5        7     1  27    4.9185   428.4    7.203      40.071
2015    5        7     1  33    4.9187   428.5    7.200      40.087
2015    5        7     1  39    4.9190   428.6    7.197      40.102
2015    5        7     1  45    4.9192   428.7    7.193      40.117
2015    5        7     1  51    4.9193   428.8    7.190      40.132
2015    5        7     1  57    4.9195   428.9    7.186      40.146
2015    5        7     2   3    4.9196   429.0    7.183      40.160
2015    5        7     2   9    4.9197   429.1    7.179      40.173
2015    5        7     2  15    4.9198   429.2    7.175      40.186
2015    5        7     2  21    4.9198   429.3    7.171      40.199
2015    5        7     2  26    4.9198   429.4    7.167      40.212
2015    5        7     2  32    4.9198   429.5    7.163      40.225
2015    5        7     2  38    4.9198   429.6    7.159      40.237
2015    5        7     2  44    4.9197   429.7    7.155      40.249
2015    5        7     2  50    4.9196   429.8    7.151      40.261
2015    5        7     2  56    4.9195   429.9    7.147      40.272
2015    5        7     3   2    4.9194   430.0    7.142      40.283
2015    5        7     3   8    4.9192   430.1    7.138      40.295
2015    5        7     3  14    4.9190   430.2    7.134      40.306
2015    5        7     3  20    4.9188   430.2    7.129      40.316
2015    5        7     3  26    4.9186   430.3    7.125      40.327
2015    5        7     3  32    4.9184   430.4    7.120      40.337
2015    5        7     3  38    4.9181   430.5    7.116      40.348
2015    5        7     3  43    4.9178   430.6    7.111      40.358
2015    5        7     3  49    4.9175   430.7    7.107      40.368
2015    5        7     3  55    4.9172   430.8    7.102      40.378
2015    5        7     4   1    4.9169   430.9    7.098      40.388
2015    5        7     4   7    4.9165   431.0    7.093      40.398
2015    5        7     4  13    4.9162   431.1    7.089      40.408
2015    5        7     4  19    4.9158   431.2    7.084      40.419
2015    5        7     4  25    4.9154   431.3    7.080      40.429
2015    5        7     4  31    4.9150   431.3    7.075      40.439
2015    5        7     4  37    4.9146   431.4    7.071      40.449
2015    5        7     4  43    4.9141   431.5    7.067      40.460
2015    5        7     4  49    4.9137   431.6    7.062      40.470
2015    5        7     4  54    4.9132   431.7    7.058      40.481
2015    5        7     5   0    4.9128   431.8    7.054      40.492
2015    5        7     5   6    4.9123   431.9    7.049      40.504
2015    5        7     5  12    4.9118   432.0    7.045      40.515
2015    5        7     5  18    4.9113   432.0    7.041      40.527
2015    5        7     5  24    4.9108   432.1    7.037      40.539
2015    5        7     5  30    4.9103   432.2    7.033      40.552
2015    5        7     5  36    4.9098   432.3    7.029      40.565
2015    5        7     5  42    4.9092   432.4    7.025      40.578
2015    5        7     5  48    4.9086   432.5    7.021      40.592
2015    5        7     5  54    4.9080   432.6    7.018      40.606
2015    5        7     6   0    4.9074   432.7    7.014      40.621
2015    5        7     6   5    4.9067   432.8    7.010      40.636
2015    5        7     6  11    4.9059   432.8    7.006      40.651
2015    5        7     6  17    4.9052   432.9    7.002      40.666
2015    5        7     6  23    4.9044   433.0    6.998      40.681
2015    5        7     6  29    4.9036   433.1    6.993      40.697
2015    5        7     6  35    4.9027   433.2    6.989      40.712
2015    5        7     6  41    4.9018   433.3    6.985      40.726
2015    5        7     6  47    4.9009   433.4    6.980      40.741
2015    5        7     6  53    4.8999   433.5    6.976      40.754
2015    5        7     6  59    4.8989   433.6    6.971      40.767
2015    5        7     7   5    4.8979   433.7    6.966      40.780
2015    5        7     7  11    4.8968   433.8    6.961      40.792
2015    5        7     7  17    4.8957   433.8    6.956      40.804
2015    5        7     7  22    4.8945   433.9    6.951      40.816
2015    5        7     7  28    4.8934   434.0    6.946      40.826
2015    5        7     7  34    4.8922   434.1    6.940      40.837
2015    5        7     7  40    4.8910   434.2    6.935      40.847
2015    5        7     7  46    4.8897   434.3    6.930      40.856
2015    5        7     7  52    4.8885   434.4    6.924      40.865
2015    5        7     7  58    4.8872   434.5    6.919      40.874
2015    5        7     8   4    4.8858   434.5    6.913      40.882
2015    5        7     8  10    4.8845   434.6    6.907      40.890
2015    5        7     8  16    4.8831   434.7    6.901      40.897
2015    5        7     8  22    4.8817   434.8    6.895      40.904
2015    5        7     8  28    4.8803   434.9    6.889      40.910
2015    5        7     8  33    4.8788   435.0    6.883      40.916
2015    5        7     8  39    4.8774   435.1    6.877      40.922
2015    5        7     8  45    4.8759   435.2    6.871      40.928
2015    5        7     8  51    4.8744   435.2    6.865      40.932
2015    5        7     8  57    4.8728   435.3    6.859      40.937
2015    5        7     9   3    4.8712   435.4    6.852      40.941
2015    5        7     9   9    4.8697   435.5    6.846      40.945
2015    5        7     9  15    4.8680   435.6    6.840      40.948
2015    5        7     9  21    4.8664   435.7    6.833      40.951
2015    5        7     9  27    4.8647   435.8    6.826      40.954
2015    5        7     9  33    4.8630   435.8    6.820      40.956
2015    5        7     9  39    4.8613   435.9    6.813      40.958
2015    5        7     9  45    4.8596   436.0    6.806      40.960
2015    5        7     9  50    4.8579   436.1    6.800      40.961
2015    5        7     9  56    4.8561   436.2    6.793      40.962
2015    5        7    10   2    4.8543   436.3    6.786      40.963
2015    5        7    10   8    4.8525   436.3    6.779      40.963
2015    5        7    10  14    4.8506   436.4    6.772      40.963
2015    5        7    10  20    4.8487   436.5    6.765      40.963
2015    5        7    10  26    4.8469   436.6    6.759      40.962
2015    5        7    10  32    4.8449   436.7    6.752      40.961
2015    5        7    10  38    4.8430   436.7    6.745      40.960
2015    5        7    10  44    4.8411   436.8    6.737      40.958
2015    5        7    10  50    4.8391   436.9    6.730      40.956
2015    5        7    10  56    4.8371   437.0    6.723      40.954
2015    5        7    11   1    4.8350   437.0    6.716      40.952
2015    5        7    11   7    4.8330   437.1    6.709      40.949
2015    5        7    11  13    4.8309   437.2    6.702      40.946
2015    5        7    11  19    4.8289   437.3    6.695      40.942
2015    5        7    11  25    4.8268   437.3    6.688      40.939
2015    5        7    11  31    4.8246   437.4    6.681      40.935
2015    5        7    11  37    4.8225   437.5    6.674      40.931
2015    5        7    11  43    4.8204   437.6    6.667      40.926
2015    5        7    11  49    4.8182   437.6    6.659      40.921
2015    5        7    11  55    4.8160   437.7    6.652      40.916
2015    5        7    12   1    4.8138   437.8    6.645      40.910
2015    5        7    12   7    4.8116   437.8    6.638      40.905
2015    5        7    12  13    4.8093   437.9    6.631      40.899
2015    5        7    12  18    4.8071   438.0    6.624      40.892
2015    5        7    12  24    4.8048   438.0    6.617      40.886
2015    5        7    12  30    4.8025   438.1    6.610      40.879
2015    5        7    12  36    4.8002   438.1    6.603      40.873
2015    5        7    12  42    4.7979   438.2    6.596      40.865
2015    5        7    12  48    4.7956   438.3    6.589      40.858
2015    5        7    12  54    4.7932   438.3    6.582      40.850
2015    5        7    13   0    4.7909   438.4    6.575      40.843
2015    5        7    13   6    4.7885   438.5    6.568      40.835
2015    5        7    13  12    4.7862   438.5    6.561      40.827
2015    5        7    13  18    4.7838   438.6    6.554      40.818
2015    5        7    13  24    4.7813   438.6    6.547      40.810
2015    5        7    13  29    4.7789   438.7    6.540      40.801
2015    5        7    13  35    4.7765   438.7    6.533      40.792
2015    5        7    13  41    4.7740   438.8    6.526      40.783
2015    5        7    13  47    4.7715   438.8    6.519      40.773
2015    5        7    13  53    4.7691   438.9    6.513      40.764
2015    5        7    13  59    4.7665   438.9    6.506      40.754
2015    5        7    14   5    4.7640   439.0    6.499      40.744
2015    5        7    14  11    4.7615   439.0    6.492      40.734
2015    5        7    14  17    4.7590   439.1    6.486      40.724
2015    5        7    14  23    4.7564   439.1    6.479      40.713
2015    5        7    14  29    4.7538   439.2    6.472      40.702
2015    5        7    14  35    4.7513   439.2    6.466      40.691
2015    5        7    14  41    4.7487   439.3    6.459      40.681
2015    5        7    14  46    4.7461   439.3    6.452      40.669
2015    5        7    14  52    4.7435   439.4    6.446      40.658
2015    5        7    14  58    4.7409   439.4    6.439      40.647
2015    5        7    15   4    4.7382   439.4    6.433      40.635
2015    5        7    15  10    4.7356   439.5    6.427      40.623
2015    5        7    15  16    4.7330   439.5    6.420      40.611
2015    5        7    15  22    4.7303   439.6    6.414      40.599
2015    5        7    15  28    4.7277   439.6    6.408      40.587
2015    5        7    15  34    4.7250   439.6    6.401      40.575
2015    5        7    15  40    4.7223   439.7    6.395      40.563
2015    5        7    15  46    4.7197   439.7    6.389      40.550
2015    5        7    15  52    4.7170   439.7    6.383      40.537
2015    5        7    15  57    4.7143   439.8    6.377      40.525
2015    5        7    16   3    4.7116   439.8    6.371      40.512
2015    5        7    16   9    4.7090   439.8    6.365      40.499
2015    5        7    16  15    4.7063   439.9    6.359      40.486
2015    5        7    16  21    4.7036   439.9    6.353      40.472
2015    5        7    16  27    4.7010   439.9    6.347      40.459
2015    5        7    16  33    4.6983   440.0    6.341      40.445
2015    5        7    16  39    4.6956   440.0    6.335      40.432
2015    5        7    16  45    4.6930   440.0    6.330      40.418
2015    5        7    16  51    4.6903   440.0    6.324      40.404
2015    5        7    16  57    4.6877   440.1    6.318      40.391
2015    5        7    17   3    4.6851   440.1    6.313      40.377
2015    5        7    17   8    4.6824   440.1    6.307      40.363
2015    5        7    17  14    4.6798   440.1    6.302      40.349
2015    5        7    17  20    4.6772   440.1    6.297      40.335
2015    5        7    17  26    4.6746   440.2    6.292      40.321
2015    5        7    17  32    4.6720   440.2    6.286      40.306
2015    5        7    17  38    4.6694   440.2    6.281      40.292
2015    5        7    17  44    4.6668   440.2    6.276      40.278
2015    5        7    17  50    4.6642   440.2    6.271      40.264
2015    5        7    17  56    4.6616   440.2    6.267      40.249
2015    5        7    18   2    4.6591   440.3    6.262      40.235
2015    5        7    18   8    4.6565   440.3    6.257      40.221
2015    5        7    18  14    4.6540   440.3    6.252      40.207
2015    5        7    18  20    4.6515   440.3    6.248      40.193
2015    5        7    18  25    4.6490   440.3    6.243      40.179
2015    5        7    18  31    4.6464   440.3    6.238      40.165
2015    5        7    18  37    4.6439   440.3    6.233      40.151
2015    5        7    18  43    4.6414   440.4    6.229      40.137
2015    5        7    18  49    4.6389   440.4    6.224      40.122
2015    5        7    18  55    4.6364   440.4    6.219      40.108
2015    5        7    19   1    4.6338   440.4    6.215      40.093
2015    5        7    19   7    4.6313   440.4    6.210      40.078
2015    5        7    19  13    4.6288   440.4    6.205      40.064
2015    5        7    19  19    4.6263   440.4    6.201      40.049
2015    5        7    19  25    4.6238   440.4    6.196      40.034
2015    5        7    19  31    4.6212   440.4    6.191      40.019
2015    5        7    19  36    4.6187   440.4    6.186      40.004
2015    5        7    19  42    4.6161   440.4    6.181      39.988
2015    5        7    19  48    4.6136   440.5    6.177      39.972
2015    5        7    19  54    4.6110   440.5    6.172      39.956
2015    5        7    20   0    4.6085   440.5    6.167      39.940
2015    5        7    20   6    4.6059   440.5    6.162      39.923
2015    5        7    20  12    4.6034   440.5    6.157      39.907
2015    5        7    20  18    4.6008   440.5    6.152      39.890
2015    5        7    20  24    4.5983   440.5    6.148      39.873
2015    5        7    20  30    4.5957   440.5    6.143      39.855
2015    5        7    20  36    4.5932   440.5    6.138      39.837
2015    5        7    20  42    4.5906   440.5    6.133      39.819
2015    5        7    20  48    4.5881   440.5    6.128      39.801
2015    5        7    20  53    4.5855   440.5    6.123      39.783
2015    5        7    20  59    4.5830   440.5    6.119      39.765
2015    5        7    21   5    4.5805   440.5    6.114      39.746
2015    5        7    21  11    4.5780   440.5    6.109      39.727
2015    5        7    21  17    4.5754   440.5    6.105      39.708
2015    5        7    21  23    4.5729   440.5    6.100      39.689
2015    5        7    21  29    4.5704   440.5    6.095      39.670
2015    5        7    21  35    4.5679   440.5    6.091      39.650
2015    5        7    21  41    4.5654   440.4    6.086      39.631
2015    5        7    21  47    4.5629   440.4    6.082      39.611
2015    5        7    21  53    4.5604   440.4    6.077      39.591
2015    5        7    21  59    4.5579   440.4    6.073      39.571
2015    5        7    22   4    4.5555   440.4    6.068      39.551
2015    5        7    22  10    4.5530   440.4    6.064      39.531
2015    5        7    22  16    4.5506   440.4    6.060      39.511
2015    5        7    22  22    4.5481   440.4    6.056      39.491
2015    5        7    22  28    4.5457   440.4    6.052      39.471
2015    5        7    22  34    4.5433   440.4    6.047      39.451
2015    5        7    22  40    4.5409   440.4    6.043      39.431
2015    5        7    22  46    4.5385   440.4    6.040      39.410
2015    5        7    22  52    4.5361   440.3    6.036      39.390
2015    5        7    22  58    4.5338   440.3    6.032      39.370
2015    5        7    23   4    4.5314   440.3    6.028      39.350
2015    5        7    23  10    4.5291   440.3    6.025      39.330
2015    5        7    23  16    4.5267   440.3    6.021      39.311
2015    5        7    23  21    4.5244   440.3    6.018      39.291
2015    5        7    23  27    4.5222   440.2    6.015      39.272
2015    5        7    23  33    4.5199   440.2    6.012      39.252
2015    5        7    23  39    4.5177   440.2    6.009      39.233
2015    5        7    23  45    4.5155   440.2    6.006      39.215
2015    5        7    23  51    4.5133   440.2    6.003      39.196
2015    5        7    23  57    4.5111   440.1    6.000      39.178
2015    5        8     0   3    4.5090   440.1    5.998      39.160
2015    5        8     0   9    4.5069   440.1    5.996      39.142
2015    5        8     0  15    4.5048   440.1    5.993      39.125
2015    5        8     0  21    4.5028   440.1    5.991      39.108
2015    5        8     0  27    4.5008   440.0    5.989      39.091
2015    5        8     0  32    4.4988   440.0    5.987      39.074
2015    5        8     0  38    4.4968   440.0    5.986      39.058
2015    5        8     0  44    4.4949   440.0    5.984      39.042
2015    5        8     0  50    4.4930   439.9    5.982      39.027
2015    5        8     0  56    4.4911   439.9    5.981      39.012
2015    5        8     1   2    4.4893   439.9    5.980      38.998
2015    5        8     1   8    4.4875   439.9    5.979      38.984
2015    5        8     1  14    4.4858   439.8    5.977      38.970
2015    5        8     1  20    4.4840   439.8    5.976      38.957
2015    5        8     1  26    4.4823   439.8    5.975      38.944
2015    5        8     1  32    4.4807   439.8    5.974      38.931
2015    5        8     1  38    4.4790   439.7    5.973      38.918
2015    5        8     1  43    4.4774   439.7    5.972      38.906
2015    5        8     1  49    4.4757   439.7    5.971      38.893
2015    5        8     1  55    4.4741   439.6    5.970      38.881
2015    5        8     2   1    4.4725   439.6    5.969      38.868
2015    5        8     2   7    4.4709   439.6    5.968      38.856
2015    5        8     2  13    4.4693   439.6    5.967      38.844
2015    5        8     2  19    4.4677   439.5    5.966      38.833
2015    5        8     2  25    4.4662   439.5    5.965      38.821
2015    5        8     2  31    4.4646   439.5    5.964      38.809
2015    5        8     2  37    4.4630   439.5    5.963      38.797
2015    5        8     2  43    4.4615   439.4    5.961      38.786
2015    5        8     2  49    4.4599   439.4    5.960      38.774
2015    5        8     2  55    4.4584   439.4    5.959      38.762
2015    5        8     3   0    4.4569   439.4    5.957      38.750
2015    5        8     3   6    4.4553   439.3    5.956      38.738
2015    5        8     3  12    4.4538   439.3    5.955      38.726
2015    5        8     3  18    4.4523   439.3    5.953      38.713
2015    5        8     3  24    4.4507   439.2    5.952      38.701
2015    5        8     3  30    4.4492   439.2    5.950      38.688
2015    5        8     3  36    4.4477   439.2    5.948      38.675
2015    5        8     3  42    4.4462   439.2    5.947      38.663
2015    5        8     3  48    4.4447   439.1    5.945      38.650
2015    5        8     3  54    4.4432   439.1    5.944      38.637
2015    5        8     4   0    4.4418   439.1    5.942      38.624
2015    5        8     4   6    4.4403   439.1    5.940      38.611
2015    5        8     4  11    4.4389   439.0    5.939      38.597
2015    5        8     4  17    4.4374   439.0    5.937      38.584
2015    5        8     4  23    4.4360   439.0    5.935      38.571
2015    5        8     4  29    4.4345   438.9    5.934      38.558
2015    5        8     4  35    4.4331   438.9    5.932      38.544
2015    5        8     4  41    4.4317   438.9    5.930      38.531
2015    5        8     4  47    4.4303   438.9    5.929      38.517
2015    5        8     4  53    4.4290   438.8    5.927      38.504
2015    5        8     4  59    4.4276   438.8    5.925      38.490
2015    5        8     5   5    4.4262   438.8    5.924      38.477
2015    5        8     5  11    4.4248   438.8    5.922      38.463
2015    5        8     5  17    4.4235   438.7    5.920      38.449
2015    5        8     5  23    4.4221   438.7    5.918      38.435
2015    5        8     5  28    4.4208   438.7    5.917      38.422
2015    5        8     5  34    4.4194   438.6    5.915      38.408
2015    5        8     5  40    4.4181   438.6    5.914      38.394
2015    5        8     5  46    4.4168   438.6    5.912      38.380
2015    5        8     5  52    4.4154   438.6    5.910      38.366
2015    5        8     5  58    4.4141   438.5    5.909      38.352
2015    5        8     6   4    4.4128   438.5    5.907      38.339
2015    5        8     6  10    4.4115   438.5    5.906      38.325
2015    5        8     6  16    4.4102   438.4    5.904      38.311
2015    5        8     6  22    4.4089   438.4    5.903      38.297
2015    5        8     6  28    4.4076   438.4    5.902      38.283
2015    5        8     6  34    4.4064   438.4    5.900      38.269
2015    5        8     6  39    4.4051   438.3    5.899      38.255
2015    5        8     6  45    4.4038   438.3    5.898      38.242
2015    5        8     6  51    4.4026   438.3    5.896      38.228
2015    5        8     6  57    4.4014   438.2    5.895      38.214
2015    5        8     7   3    4.4001   438.2    5.894      38.201
2015    5        8     7   9    4.3989   438.2    5.893      38.187
2015    5        8     7  15    4.3977   438.1    5.892      38.173
2015    5        8     7  21    4.3965   438.1    5.891      38.160
2015    5        8     7  27    4.3953   438.1    5.890      38.146
2015    5        8     7  33    4.3942   438.0    5.889      38.133
2015    5        8     7  39    4.3930   438.0    5.888      38.119
2015    5        8     7  45    4.3919   438.0    5.887      38.106
2015    5        8     7  51    4.3908   437.9    5.886      38.093
2015    5        8     7  56    4.3897   437.9    5.886      38.080
2015    5        8     8   2    4.3886   437.9    5.885      38.067
2015    5        8     8   8    4.3875   437.8    5.884      38.053
2015    5        8     8  14    4.3864   437.8    5.884      38.041
2015    5        8     8  20    4.3854   437.8    5.883      38.028
2015    5        8     8  26    4.3844   437.7    5.882      38.015
2015    5        8     8  32    4.3833   437.7    5.882      38.002
2015    5        8     8  38    4.3823   437.6    5.881      37.989
2015    5        8     8  44    4.3813   437.6    5.881      37.977
2015    5        8     8  50    4.3804   437.6    5.880      37.964
2015    5        8     8  56    4.3794   437.5    5.880      37.951
2015    5        8     9   2    4.3784   437.5    5.880      37.939
2015    5        8     9   7    4.3775   437.5    5.879      37.926
2015    5        8     9  13    4.3766   437.4    5.879      37.914
2015    5        8     9  19    4.3757   437.4    5.878      37.901
2015    5        8     9  25    4.3748   437.3    5.878      37.889
2015    5        8     9  31    4.3739   437.3    5.878      37.877
2015    5        8     9  37    4.3731   437.3    5.877      37.864
2015    5        8     9  43    4.3722   437.2    5.877      37.852
2015    5        8     9  49    4.3714   437.2    5.877      37.840
2015    5        8     9  55    4.3706   437.1    5.877      37.828
2015    5        8    10   1    4.3698   437.1    5.876      37.816
2015    5        8    10   7    4.3690   437.1    5.876      37.804
2015    5        8    10  13    4.3682   437.0    5.876      37.792
2015    5        8    10  18    4.3675   437.0    5.876      37.780
2015    5        8    10  24    4.3668   436.9    5.876      37.769
2015    5        8    10  30    4.3661   436.9    5.876      37.757
2015    5        8    10  36    4.3654   436.8    5.875      37.746
2015    5        8    10  42    4.3647   436.8    5.875      37.735
2015    5        8    10  48    4.3640   436.8    5.875      37.724
2015    5        8    10  54    4.3634   436.7    5.875      37.713
2015    5        8    11   0    4.3628   436.7    5.875      37.702
2015    5        8    11   6    4.3621   436.6    5.875      37.691
2015    5        8    11  12    4.3616   436.6    5.875      37.681
2015    5        8    11  18    4.3610   436.6    5.875      37.670
2015    5        8    11  24    4.3604   436.5    5.875      37.660
2015    5        8    11  30    4.3599   436.5    5.875      37.650
2015    5        8    11  35    4.3593   436.4    5.875      37.640
2015    5        8    11  41    4.3588   436.4    5.875      37.630
2015    5        8    11  47    4.3583   436.4    5.875      37.621
2015    5        8    11  53    4.3579   436.3    5.875      37.611
2015    5        8    11  59    4.3574   436.3    5.875      37.602
2015    5        8    12   5    4.3569   436.2    5.876      37.593
2015    5        8    12  11    4.3565   436.2    5.876      37.584
2015    5        8    12  17    4.3560   436.2    5.876      37.575
2015    5        8    12  23    4.3556   436.1    5.876      37.566
2015    5        8    12  29    4.3552   436.1    5.876      37.558
2015    5        8    12  35    4.3548   436.0    5.876      37.550
2015    5        8    12  41    4.3543   436.0    5.876      37.541
2015    5        8    12  47    4.3539   436.0    5.877      37.533
2015    5        8    12  52    4.3535   435.9    5.877      37.525
2015    5        8    12  58    4.3531   435.9    5.877      37.517
2015    5        8    13   4    4.3526   435.8    5.877      37.509
2015    5        8    13  10    4.3522   435.8    5.877      37.502
2015    5        8    13  16    4.3518   435.8    5.877      37.494
2015    5        8    13  22    4.3514   435.7    5.877      37.486
2015    5        8    13  28    4.3509   435.7    5.877      37.478
2015    5        8    13  34    4.3505   435.7    5.877      37.470
2015    5        8    13  40    4.3501   435.6    5.877      37.462
2015    5        8    13  46    4.3496   435.6    5.877      37.454
2015    5        8    13  52    4.3492   435.5    5.877      37.446
2015    5        8    13  58    4.3488   435.5    5.877      37.438
2015    5        8    14   3    4.3484   435.5    5.877      37.430
2015    5        8    14   9    4.3479   435.4    5.877      37.421
2015    5        8    14  15    4.3475   435.4    5.877      37.413
2015    5        8    14  21    4.3471   435.3    5.877      37.404
2015    5        8    14  27    4.3467   435.3    5.877      37.395
2015    5        8    14  33    4.3463   435.3    5.877      37.386
2015    5        8    14  39    4.3459   435.2    5.877      37.377
2015    5        8    14  45    4.3455   435.2    5.877      37.367
2015    5        8    14  51    4.3451   435.1    5.877      37.358
2015    5        8    14  57    4.3448   435.1    5.877      37.348
2015    5        8    15   3    4.3444   435.1    5.876      37.338
2015    5        8    15   9    4.3440   435.0    5.876      37.328
2015    5        8    15  14    4.3436   435.0    5.876      37.318
2015    5        8    15  20    4.3433   434.9    5.876      37.308
2015    5        8    15  26    4.3429   434.9    5.876      37.297
2015    5        8    15  32    4.3426   434.8    5.876      37.287
2015    5        8    15  38    4.3422   434.8    5.875      37.276
2015    5        8    15  44    4.3419   434.7    5.875      37.265
2015    5        8    15  50    4.3416   434.7    5.875      37.254
2015    5        8    15  56    4.3413   434.6    5.875      37.242
2015    5        8    16   2    4.3410   434.6    5.875      37.231
2015    5        8    16   8    4.3407   434.6    5.875      37.220
2015    5        8    16  14    4.3404   434.5    5.875      37.208
2015    5        8    16  20    4.3402   434.5    5.875      37.196
2015    5        8    16  26    4.3399   434.4    5.875      37.185
2015    5        8    16  31    4.3397   434.4    5.875      37.173
2015    5        8    16  37    4.3395   434.3    5.875      37.161
2015    5        8    16  43    4.3393   434.3    5.875      37.150
2015    5        8    16  49    4.3392   434.2    5.876      37.138
2015    5        8    16  55    4.3390   434.2    5.876      37.126
2015    5        8    17   1    4.3388   434.1    5.876      37.114
2015    5        8    17   7    4.3387   434.1    5.877      37.103
2015    5        8    17  13    4.3386   434.0    5.877      37.092
2015    5        8    17  19    4.3386   433.9    5.878      37.080
2015    5        8    17  25    4.3385   433.9    5.879      37.069
2015    5        8    17  31    4.3385   433.8    5.879      37.059
2015    5        8    17  37    4.3385   433.8    5.880      37.048
2015    5        8    17  42    4.3385   433.7    5.881      37.038
2015    5        8    17  48    4.3386   433.7    5.882      37.027
2015    5        8    17  54    4.3387   433.6    5.883      37.017
2015    5        8    18   0    4.3388   433.6    5.885      37.008
2015    5        8    18   6    4.3390   433.5    5.886      36.999
2015    5        8    18  12    4.3391   433.5    5.887      36.990
2015    5        8    18  18    4.3393   433.4    5.889      36.981
2015    5        8    18  24    4.3396   433.4    5.891      36.973
2015    5        8    18  30    4.3398   433.3    5.892      36.965
2015    5        8    18  36    4.3401   433.3    5.894      36.957
2015    5        8    18  42    4.3404   433.2    5.896      36.950
2015    5        8    18  48    4.3408   433.2    5.898      36.943
2015    5        8    18  54    4.3412   433.1    5.900      36.936
2015    5        8    18  59    4.3416   433.1    5.902      36.930
2015    5        8    19   5    4.3420   433.0    5.904      36.924
2015    5        8    19  11    4.3425   432.9    5.906      36.918
2015    5        8    19  17    4.3429   432.9    5.908      36.913
2015    5        8    19  23    4.3434   432.8    5.911      36.908
2015    5        8    19  29    4.3440   432.8    5.913      36.903
2015    5        8    19  35    4.3445   432.7    5.915      36.899
2015    5        8    19  41    4.3451   432.7    5.918      36.895
2015    5        8    19  47    4.3456   432.6    5.920      36.891
2015    5        8    19  53    4.3462   432.6    5.923      36.888
2015    5        8    19  59    4.3468   432.5    5.926      36.885
2015    5        8    20   5    4.3475   432.5    5.928      36.882
2015    5        8    20  10    4.3481   432.4    5.931      36.880
2015    5        8    20  16    4.3488   432.4    5.934      36.878
2015    5        8    20  22    4.3494   432.3    5.936      36.876
2015    5        8    20  28    4.3501   432.3    5.939      36.874
2015    5        8    20  34    4.3509   432.2    5.942      36.873
2015    5        8    20  40    4.3516   432.2    5.945      36.872
2015    5        8    20  46    4.3524   432.1    5.948      36.872
2015    5        8    20  52    4.3531   432.1    5.951      36.871
2015    5        8    20  58    4.3540   432.0    5.954      36.872
2015    5        8    21   4    4.3548   432.0    5.957      36.872
2015    5        8    21  10    4.3557   431.9    5.961      36.873
2015    5        8    21  16    4.3566   431.9    5.964      36.874
2015    5        8    21  22    4.3575   431.8    5.967      36.876
2015    5        8    21  27    4.3585   431.8    5.971      36.878
2015    5        8    21  33    4.3594   431.7    5.974      36.880
2015    5        8    21  39    4.3604   431.7    5.978      36.884
2015    5        8    21  45    4.3614   431.7    5.982      36.888
2015    5        8    21  51    4.3624   431.6    5.985      36.892
2015    5        8    21  57    4.3634   431.6    5.989      36.898
2015    5        8    22   3    4.3644   431.5    5.992      36.903
2015    5        8    22   9    4.3655   431.5    5.996      36.909
2015    5        8    22  15    4.3665   431.5    6.000      36.915
2015    5        8    22  21    4.3675   431.4    6.003      36.921
2015    5        8    22  27    4.3686   431.4    6.007      36.927
2015    5        8    22  33    4.3696   431.3    6.010      36.933
2015    5        8    22  38    4.3707   431.3    6.014      36.939
2015    5        8    22  44    4.3717   431.3    6.017      36.945
2015    5        8    22  50    4.3728   431.2    6.020      36.950
2015    5        8    22  56    4.3738   431.2    6.024      36.956
2015    5        8    23   2    4.3748   431.2    6.027      36.961
2015    5        8    23   8    4.3759   431.1    6.030      36.966
2015    5        8    23  14    4.3769   431.1    6.033      36.971
2015    5        8    23  20    4.3779   431.0    6.036      36.976
2015    5        8    23  26    4.3790   431.0    6.039      36.980
2015    5        8    23  32    4.3800   431.0    6.042      36.984
2015    5        8    23  38    4.3811   430.9    6.045      36.988
2015    5        8    23  44    4.3821   430.9    6.048      36.992
2015    5        8    23  49    4.3832   430.9    6.051      36.995
2015    5        8    23  55    4.3843   430.8    6.054      36.998
2015    5        9     0   1    4.3853   430.8    6.057      37.001
2015    5        9     0   7    4.3864   430.8    6.060      37.004
2015    5        9     0  13    4.3876   430.7    6.063      37.007
2015    5        9     0  19    4.3887   430.7    6.067      37.009
2015    5        9     0  25    4.3898   430.6    6.070      37.011
2015    5        9     0  31    4.3910   430.6    6.073      37.013
2015    5        9     0  37    4.3922   430.6    6.076      37.015
2015    5        9     0  43    4.3934   430.5    6.079      37.017
2015    5        9     0  49    4.3947   430.5    6.082      37.019
2015    5        9     0  55    4.3960   430.4    6.086      37.021
2015    5        9     1   1    4.3973   430.4    6.089      37.023
2015    5        9     1   6    4.3986   430.4    6.093      37.026
2015    5        9     1  12    4.4000   430.3    6.097      37.028
2015    5        9     1  18    4.4014   430.3    6.101      37.030
2015    5        9     1  24    4.4029   430.3    6.105      37.033
2015    5        9     1  30    4.4045   430.2    6.109      37.036
2015    5        9     1  36    4.4061   430.2    6.113      37.040
2015    5        9     1  42    4.4077   430.1    6.117      37.044
2015    5        9     1  48    4.4094   430.1    6.122      37.048
2015    5        9     1  54    4.4111   430.1    6.127      37.053
2015    5        9     2   0    4.4128   430.0    6.132      37.058
2015    5        9     2   6    4.4146   430.0    6.137      37.064
2015    5        9     2  12    4.4164   430.0    6.143      37.071
2015    5        9     2  17    4.4182   429.9    6.148      37.078
2015    5        9     2  23    4.4200   429.9    6.154      37.087
2015    5        9     2  29    4.4219   429.9    6.160      37.097
2015    5        9     2  35    4.4237   429.9    6.165      37.109
2015    5        9     2  41    4.4256   429.9    6.171      37.121
2015    5        9     2  47    4.4275   429.8    6.177      37.134
2015    5        9     2  53    4.4293   429.8    6.182      37.148
2015    5        9     2  59    4.4312   429.8    6.188      37.163
2015    5        9     3   5    4.4331   429.8    6.194      37.178
2015    5        9     3  11    4.4351   429.8    6.200      37.193
2015    5        9     3  17    4.4370   429.8    6.205      37.208
2015    5        9     3  23    4.4389   429.8    6.211      37.224
2015    5        9     3  29    4.4409   429.7    6.217      37.239
2015    5        9     3  34    4.4428   429.7    6.223      37.255
2015    5        9     3  40    4.4448   429.7    6.228      37.272
2015    5        9     3  46    4.4469   429.7    6.234      37.288
2015    5        9     3  52    4.4489   429.7    6.240      37.305
2015    5        9     3  58    4.4510   429.7    6.246      37.322
2015    5        9     4   4    4.4531   429.7    6.252      37.340
2015    5        9     4  10    4.4553   429.7    6.258      37.358
2015    5        9     4  16    4.4574   429.7    6.264      37.376
2015    5        9     4  22    4.4596   429.7    6.270      37.395
2015    5        9     4  28    4.4618   429.7    6.276      37.415
2015    5        9     4  34    4.4640   429.7    6.283      37.435
2015    5        9     4  40    4.4662   429.7    6.289      37.457
2015    5        9     4  45    4.4684   429.7    6.295      37.479
2015    5        9     4  51    4.4706   429.7    6.302      37.503
2015    5        9     4  57    4.4728   429.7    6.308      37.527
2015    5        9     5   3    4.4750   429.7    6.314      37.551
2015    5        9     5   9    4.4772   429.7    6.320      37.576
2015    5        9     5  15    4.4794   429.7    6.326      37.600
2015    5        9     5  21    4.4815   429.7    6.332      37.624
2015    5        9     5  27    4.4837   429.7    6.338      37.649
2015    5        9     5  33    4.4858   429.7    6.344      37.673
2015    5        9     5  39    4.4880   429.7    6.350      37.697
2015    5        9     5  45    4.4901   429.8    6.356      37.721
2015    5        9     5  51    4.4922   429.8    6.361      37.744
2015    5        9     5  57    4.4943   429.8    6.367      37.767
2015    5        9     6   2    4.4964   429.8    6.372      37.791
2015    5        9     6   8    4.4985   429.8    6.378      37.814
2015    5        9     6  14    4.5006   429.8    6.383      37.837
2015    5        9     6  20    4.5027   429.8    6.389      37.859
2015    5        9     6  26    4.5047   429.8    6.394      37.882
2015    5        9     6  32    4.5068   429.8    6.399      37.904
2015    5        9     6  38    4.5089   429.9    6.404      37.927
2015    5        9     6  44    4.5110   429.9    6.410      37.949
2015    5        9     6  50    4.5131   429.9    6.415      37.972
2015    5        9     6  56    4.5152   429.9    6.420      37.994
2015    5        9     7   2    4.5173   429.9    6.425      38.016
2015    5        9     7   8    4.5194   429.9    6.430      38.038
2015    5        9     7  13    4.5216   429.9    6.435      38.061
2015    5        9     7  19    4.5237   429.9    6.441      38.083
2015    5        9     7  25    4.5259   430.0    6.446      38.105
2015    5        9     7  31    4.5281   430.0    6.451      38.127
2015    5        9     7  37    4.5303   430.0    6.456      38.150
2015    5        9     7  43    4.5325   430.0    6.462      38.172
2015    5        9     7  49    4.5348   430.0    6.467      38.195
2015    5        9     7  55    4.5371   430.0    6.473      38.218
2015    5        9     8   1    4.5395   430.0    6.479      38.242
2015    5        9     8   7    4.5419   430.1    6.484      38.265
2015    5        9     8  13    4.5443   430.1    6.491      38.288
2015    5        9     8  19    4.5468   430.1    6.497      38.312
2015    5        9     8  24    4.5494   430.1    6.503      38.337
2015    5        9     8  30    4.5520   430.1    6.509      38.363
2015    5        9     8  36    4.5546   430.2    6.516      38.391
2015    5        9     8  42    4.5572   430.2    6.522      38.419
2015    5        9     8  48    4.5599   430.2    6.529      38.449
2015    5        9     8  54    4.5626   430.3    6.535      38.479
2015    5        9     9   0    4.5652   430.3    6.542      38.511
2015    5        9     9   6    4.5679   430.3    6.548      38.543
2015    5        9     9  12    4.5706   430.4    6.554      38.575
2015    5        9     9  18    4.5732   430.4    6.561      38.606
2015    5        9     9  24    4.5758   430.5    6.567      38.637
2015    5        9     9  30    4.5785   430.5    6.573      38.667
2015    5        9     9  36    4.5810   430.6    6.579      38.698
2015    5        9     9  41    4.5835   430.6    6.585      38.728
2015    5        9     9  47    4.5860   430.7    6.591      38.759
2015    5        9     9  53    4.5885   430.7    6.597      38.791
2015    5        9     9  59    4.5909   430.8    6.603      38.822
2015    5        9    10   5    4.5933   430.8    6.609      38.854
2015    5        9    10  11    4.5957   430.9    6.615      38.887
2015    5        9    10  17    4.5980   430.9    6.620      38.919
2015    5        9    10  23    4.6004   431.0    6.626      38.952
2015    5        9    10  29    4.6027   431.1    6.631      38.985
2015    5        9    10  35    4.6050   431.1    6.636      39.018
2015    5        9    10  41    4.6073   431.2    6.642      39.050
2015    5        9    10  47    4.6096   431.2    6.647      39.083
2015    5        9    10  52    4.6118   431.3    6.652      39.114
2015    5        9    10  58    4.6141   431.4    6.657      39.146
2015    5        9    11   4    4.6164   431.4    6.662      39.178
2015    5        9    11  10    4.6186   431.5    6.667      39.209
2015    5        9    11  16    4.6209   431.5    6.672      39.241
2015    5        9    11  22    4.6232   431.6    6.677      39.272
2015    5        9    11  28    4.6255   431.7    6.682      39.303
2015    5        9    11  34    4.6278   431.7    6.687      39.334
2015    5        9    11  40    4.6302   431.8    6.692      39.366
2015    5        9    11  46    4.6325   431.9    6.697      39.398
2015    5        9    11  52    4.6349   431.9    6.702      39.431
2015    5        9    11  58    4.6373   432.0    6.707      39.466
2015    5        9    12   4    4.6396   432.1    6.712      39.502
2015    5        9    12   9    4.6420   432.2    6.716      39.538
2015    5        9    12  15    4.6443   432.2    6.721      39.575
2015    5        9    12  21    4.6467   432.3    6.725      39.613
2015    5        9    12  27    4.6490   432.4    6.730      39.650
2015    5        9    12  33    4.6512   432.5    6.734      39.687
2015    5        9    12  39    4.6534   432.6    6.738      39.723
2015    5        9    12  45    4.6556   432.7    6.742      39.759
2015    5        9    12  51    4.6578   432.7    6.745      39.795
2015    5        9    12  57    4.6599   432.8    6.749      39.830
2015    5        9    13   3    4.6620   432.9    6.752      39.864
2015    5        9    13   9    4.6641   433.0    6.755      39.898
2015    5        9    13  15    4.6662   433.1    6.758      39.932
2015    5        9    13  20    4.6682   433.2    6.761      39.965
2015    5        9    13  26    4.6702   433.3    6.764      39.997
2015    5        9    13  32    4.6722   433.3    6.767      40.029
2015    5        9    13  38    4.6742   433.4    6.769      40.061
2015    5        9    13  44    4.6762   433.5    6.772      40.092
2015    5        9    13  50    4.6781   433.6    6.774      40.123
2015    5        9    13  56    4.6801   433.7    6.777      40.154
2015    5        9    14   2    4.6821   433.8    6.779      40.185
2015    5        9    14   8    4.6840   433.9    6.781      40.215
2015    5        9    14  14    4.6860   433.9    6.784      40.245
2015    5        9    14  20    4.6879   434.0    6.786      40.275
2015    5        9    14  26    4.6899   434.1    6.788      40.305
2015    5        9    14  32    4.6918   434.2    6.791      40.335
2015    5        9    14  37    4.6938   434.3    6.793      40.365
2015    5        9    14  43    4.6958   434.4    6.796      40.396
2015    5        9    14  49    4.6978   434.5    6.798      40.426
2015    5        9    14  55    4.6999   434.5    6.801      40.456
2015    5        9    15   1    4.7019   434.6    6.804      40.487
2015    5        9    15   7    4.7040   434.7    6.806      40.518
2015    5        9    15  13    4.7061   434.8    6.809      40.550
2015    5        9    15  19    4.7083   434.9    6.812      40.582
2015    5        9    15  25    4.7104   435.0    6.815      40.615
2015    5        9    15  31    4.7126   435.1    6.819      40.648
2015    5        9    15  37    4.7148   435.2    6.822      40.681
2015    5        9    15  43    4.7170   435.3    6.825      40.715
2015    5        9    15  48    4.7193   435.4    6.828      40.750
2015    5        9    15  54    4.7215   435.5    6.832      40.785
2015    5        9    16   0    4.7237   435.6    6.835      40.822
2015    5        9    16   6    4.7259   435.7    6.838      40.858
2015    5        9    16  12    4.7281   435.8    6.841      40.895
2015    5        9    16  18    4.7302   435.9    6.843      40.932
2015    5        9    16  24    4.7323   436.0    6.846      40.970
2015    5        9    16  30    4.7343   436.1    6.848      41.007
2015    5        9    16  36    4.7363   436.2    6.850      41.043
2015    5        9    16  42    4.7382   436.4    6.852      41.078
2015    5        9    16  48    4.7401   436.5    6.854      41.112
2015    5        9    16  54    4.7420   436.6    6.855      41.146
2015    5        9    16  59    4.7438   436.7    6.857      41.179
2015    5        9    17   5    4.7456   436.8    6.858      41.211
2015    5        9    17  11    4.7473   436.9    6.859      41.243
2015    5        9    17  17    4.7491   437.0    6.860      41.274
2015    5        9    17  23    4.7507   437.2    6.861      41.305
2015    5        9    17  29    4.7524   437.3    6.862      41.335
2015    5        9    17  35    4.7540   437.4    6.863      41.364
2015    5        9    17  41    4.7557   437.5    6.863      41.394
2015    5        9    17  47    4.7573   437.6    6.864      41.423
2015    5        9    17  53    4.7589   437.7    6.864      41.451
2015    5        9    17  59    4.7605   437.8    6.865      41.479
2015    5        9    18   5    4.7620   437.9    6.866      41.507
2015    5        9    18  11    4.7636   438.1    6.866      41.535
2015    5        9    18  16    4.7652   438.2    6.867      41.563
2015    5        9    18  22    4.7667   438.3    6.867      41.590
2015    5        9    18  28    4.7683   438.4    6.868      41.617
2015    5        9    18  34    4.7699   438.5    6.869      41.645
2015    5        9    18  40    4.7715   438.6    6.869      41.672
2015    5        9    18  46    4.7731   438.7    6.870      41.699
2015    5        9    18  52    4.7747   438.8    6.871      41.726
2015    5        9    18  58    4.7763   438.9    6.872      41.754
2015    5        9    19   4    4.7780   439.0    6.874      41.781
2015    5        9    19  10    4.7797   439.2    6.875      41.810
2015    5        9    19  16    4.7814   439.3    6.876      41.840
2015    5        9    19  22    4.7831   439.4    6.877      41.871
2015    5        9    19  27    4.7848   439.5    6.879      41.904
2015    5        9    19  33    4.7865   439.6    6.880      41.937
2015    5        9    19  39    4.7883   439.7    6.881      41.971
2015    5        9    19  45    4.7900   439.9    6.883      42.005
2015    5        9    19  51    4.7917   440.0    6.884      42.041
2015    5        9    19  57    4.7934   440.1    6.886      42.076
2015    5        9    20   3    4.7950   440.2    6.887      42.111
2015    5        9    20   9    4.7967   440.3    6.889      42.146
2015    5        9    20  15    4.7984   440.5    6.890      42.181
2015    5        9    20  21    4.8001   440.6    6.892      42.217
2015    5        9    20  27    4.8018   440.7    6.893      42.254
2015    5        9    20  33    4.8034   440.8    6.895      42.292
2015    5        9    20  39    4.8051   441.0    6.896      42.330
2015    5        9    20  44    4.8067   441.1    6.898      42.368
2015    5        9    20  50    4.8083   441.2    6.899      42.407
2015    5        9    20  56    4.8099   441.4    6.900      42.446
2015    5        9    21   2    4.8115   441.5    6.901      42.485
2015    5        9    21   8    4.8130   441.6    6.902      42.524
2015    5        9    21  14    4.8145   441.8    6.903      42.561
2015    5        9    21  20    4.8160   441.9    6.903      42.598
2015    5        9    21  26    4.8175   442.1    6.904      42.634
2015    5        9    21  32    4.8190   442.2    6.904      42.670
2015    5        9    21  38    4.8204   442.3    6.904      42.705
2015    5        9    21  44    4.8218   442.5    6.904      42.739
2015    5        9    21  50    4.8232   442.6    6.904      42.773
2015    5        9    21  55    4.8246   442.8    6.903      42.806
2015    5        9    22   1    4.8259   442.9    6.903      42.839
2015    5        9    22   7    4.8273   443.0    6.903      42.870
2015    5        9    22  13    4.8287   443.2    6.902      42.902
2015    5        9    22  19    4.8301   443.3    6.902      42.933
2015    5        9    22  25    4.8314   443.5    6.901      42.964
2015    5        9    22  31    4.8328   443.6    6.901      42.995
2015    5        9    22  37    4.8342   443.7    6.900      43.026
2015    5        9    22  43    4.8355   443.9    6.899      43.056
2015    5        9    22  49    4.8369   444.0    6.898      43.087
2015    5        9    22  55    4.8382   444.2    6.897      43.117
2015    5        9    23   1    4.8395   444.3    6.896      43.147
2015    5        9    23   7    4.8408   444.5    6.895      43.176
2015    5        9    23  12    4.8421   444.6    6.894      43.205
2015    5        9    23  18    4.8433   444.8    6.893      43.233
2015    5        9    23  24    4.8446   444.9    6.891      43.261
2015    5        9    23  30    4.8458   445.0    6.890      43.288
2015    5        9    23  36    4.8470   445.2    6.888      43.315
2015    5        9    23  42    4.8482   445.3    6.887      43.341
2015    5        9    23  48    4.8494   445.5    6.885      43.367
2015    5        9    23  54    4.8506   445.6    6.883      43.392
2015    5       10     0   0    4.8517   445.8    6.882      43.418
2015    5       10     0   6    4.8529   445.9    6.880      43.442
2015    5       10     0  12    4.8540   446.0    6.878      43.467
2015    5       10     0  18    4.8551   446.2    6.876      43.491
2015    5       10     0  23    4.8563   446.3    6.874      43.515
2015    5       10     0  29    4.8574   446.5    6.872      43.539
2015    5       10     0  35    4.8585   446.6    6.870      43.562
2015    5       10     0  41    4.8595   446.8    6.868      43.586
2015    5       10     0  47    4.8606   446.9    6.866      43.609
2015    5       10     0  53    4.8617   447.1    6.864      43.633
2015    5       10     0  59    4.8628   447.2    6.862      43.656
2015    5       10     1   5    4.8638   447.3    6.860      43.679
2015    5       10     1  11    4.8648   447.5    6.858      43.703
2015    5       10     1  17    4.8659   447.6    6.855      43.726
2015    5       10     1  23    4.8669   447.8    6.853      43.749
2015    5       10     1  29    4.8679   447.9    6.851      43.772
2015    5       10     1  34    4.8689   448.1    6.849      43.794
2015    5       10     1  40    4.8699   448.2    6.847      43.817
2015    5       10     1  46    4.8709   448.3    6.844      43.840
2015    5       10     1  52    4.8719   448.5    6.842      43.862
2015    5       10     1  58    4.8729   448.6    6.840      43.884
2015    5       10     2   4    4.8739   448.8    6.838      43.907
2015    5       10     2  10    4.8749   448.9    6.835      43.929
2015    5       10     2  16    4.8759   449.0    6.833      43.951
2015    5       10     2  22    4.8769   449.2    6.831      43.973
2015    5       10     2  28    4.8779   449.3    6.829      43.995
2015    5       10     2  34    4.8789   449.5    6.827      44.017
2015    5       10     2  40    4.8799   449.6    6.825      44.039
2015    5       10     2  46    4.8810   449.7    6.823      44.061
2015    5       10     2  51    4.8820   449.9    6.821      44.084
2015    5       10     2  57    4.8830   450.0    6.819      44.106
2015    5       10     3   3    4.8840   450.1    6.818      44.128
2015    5       10     3   9    4.8851   450.3    6.816      44.150
2015    5       10     3  15    4.8861   450.4    6.815      44.173
2015    5       10     3  21    4.8872   450.5    6.813      44.196
2015    5       10     3  27    4.8883   450.7    6.812      44.219
2015    5       10     3  33    4.8894   450.8    6.811      44.242
2015    5       10     3  39    4.8905   450.9    6.810      44.265
2015    5       10     3  45    4.8917   451.1    6.809      44.289
2015    5       10     3  51    4.8928   451.2    6.809      44.314
2015    5       10     3  57    4.8940   451.3    6.808      44.340
2015    5       10     4   2    4.8952   451.5    6.808      44.367
2015    5       10     4   8    4.8964   451.6    6.807      44.395
2015    5       10     4  14    4.8976   451.7    6.806      44.423
2015    5       10     4  20    4.8988   451.9    6.806      44.453
2015    5       10     4  26    4.8999   452.0    6.805      44.483
2015    5       10     4  32    4.9011   452.2    6.805      44.512
2015    5       10     4  38    4.9023   452.3    6.804      44.541
2015    5       10     4  44    4.9035   452.4    6.803      44.570
2015    5       10     4  50    4.9046   452.6    6.802      44.599
2015    5       10     4  56    4.9057   452.7    6.801      44.627
2015    5       10     5   2    4.9068   452.9    6.801      44.656
2015    5       10     5   8    4.9079   453.0    6.799      44.685
2015    5       10     5  14    4.9090   453.2    6.798      44.714
2015    5       10     5  19    4.9100   453.3    6.797      44.742
2015    5       10     5  25    4.9110   453.5    6.796      44.771
2015    5       10     5  31    4.9120   453.6    6.794      44.800
2015    5       10     5  37    4.9130   453.8    6.793      44.829
2015    5       10     5  43    4.9140   453.9    6.791      44.856
2015    5       10     5  49    4.9149   454.1    6.789      44.884
2015    5       10     5  55    4.9158   454.2    6.787      44.910
2015    5       10     6   1    4.9168   454.4    6.785      44.936
2015    5       10     6   7    4.9176   454.5    6.783      44.962
2015    5       10     6  13    4.9185   454.7    6.780      44.987
2015    5       10     6  19    4.9193   454.8    6.778      45.011
2015    5       10     6  25    4.9202   455.0    6.775      45.035
2015    5       10     6  30    4.9210   455.1    6.773      45.058
2015    5       10     6  36    4.9218   455.3    6.770      45.081
2015    5       10     6  42    4.9226   455.4    6.767      45.104
2015    5       10     6  48    4.9234   455.6    6.764      45.126
2015    5       10     6  54    4.9242   455.7    6.762      45.148
2015    5       10     7   0    4.9250   455.9    6.759      45.169
2015    5       10     7   6    4.9257   456.0    6.756      45.190
2015    5       10     7  12    4.9265   456.2    6.753      45.211
2015    5       10     7  18    4.9272   456.3    6.750      45.231
2015    5       10     7  24    4.9280   456.5    6.747      45.252
2015    5       10     7  30    4.9287   456.6    6.744      45.272
2015    5       10     7  36    4.9295   456.8    6.741      45.291
2015    5       10     7  42    4.9302   456.9    6.738      45.311
2015    5       10     7  47    4.9309   457.1    6.735      45.330
2015    5       10     7  53    4.9316   457.2    6.732      45.350
2015    5       10     7  59    4.9323   457.4    6.729      45.369
2015    5       10     8   5    4.9331   457.5    6.726      45.388
2015    5       10     8  11    4.9338   457.7    6.723      45.406
2015    5       10     8  17    4.9345   457.8    6.719      45.425
2015    5       10     8  23    4.9352   458.0    6.716      45.443
2015    5       10     8  29    4.9360   458.1    6.713      45.461
2015    5       10     8  35    4.9367   458.3    6.710      45.479
2015    5       10     8  41    4.9374   458.4    6.707      45.497
2015    5       10     8  47    4.9382   458.5    6.704      45.515
2015    5       10     8  53    4.9389   458.7    6.701      45.532
2015    5       10     8  58    4.9397   458.8    6.698      45.550
2015    5       10     9   4    4.9405   459.0    6.696      45.568
2015    5       10     9  10    4.9413   459.1    6.693      45.586
2015    5       10     9  16    4.9421   459.3    6.690      45.604
2015    5       10     9  22    4.9429   459.4    6.687      45.622
2015    5       10     9  28    4.9437   459.5    6.685      45.640
2015    5       10     9  34    4.9445   459.7    6.682      45.658
2015    5       10     9  40    4.9454   459.8    6.679      45.676
2015    5       10     9  46    4.9462   460.0    6.677      45.695
2015    5       10     9  52    4.9470   460.1    6.674      45.713
2015    5       10     9  58    4.9479   460.2    6.672      45.732
2015    5       10    10   4    4.9487   460.4    6.670      45.750
2015    5       10    10   9    4.9495   460.5    6.667      45.769
2015    5       10    10  15    4.9503   460.7    6.665      45.788
2015    5       10    10  21    4.9512   460.8    6.663      45.807
2015    5       10    10  27    4.9520   460.9    6.660      45.826
2015    5       10    10  33    4.9528   461.1    6.658      45.844
2015    5       10    10  39    4.9536   461.2    6.656      45.863
2015    5       10    10  45    4.9544   461.3    6.654      45.882
2015    5       10    10  51    4.9551   461.5    6.651      45.900
2015    5       10    10  57    4.9559   461.6    6.649      45.918
2015    5       10    11   3    4.9567   461.7    6.646      45.936
2015    5       10    11   9    4.9575   461.9    6.644      45.954
2015    5       10    11  15    4.9584   462.0    6.642      45.971
2015    5       10    11  21    4.9592   462.1    6.639      45.988
2015    5       10    11  26    4.9600   462.3    6.637      46.005
2015    5       10    11  32    4.9608   462.4    6.634      46.022
2015    5       10    11  38    4.9616   462.5    6.632      46.038
2015    5       10    11  44    4.9625   462.6    6.630      46.055
2015    5       10    11  50    4.9633   462.8    6.627      46.072
2015    5       10    11  56    4.9642   462.9    6.625      46.088
2015    5       10    12   2    4.9651   463.0    6.623      46.105
2015    5       10    12   8    4.9660   463.1    6.620      46.121
2015    5       10    12  14    4.9669   463.3    6.618      46.138
2015    5       10    12  20    4.9678   463.4    6.616      46.156
2015    5       10    12  26    4.9687   463.5    6.614      46.174
2015    5       10    12  32    4.9695   463.6    6.612      46.192
2015    5       10    12  37    4.9704   463.8    6.610      46.211
2015    5       10    12  43    4.9713   463.9    6.607      46.230
2015    5       10    12  49    4.9721   464.0    6.605      46.250
2015    5       10    12  55    4.9730   464.1    6.602      46.269
2015    5       10    13   1    4.9738   464.3    6.600      46.288
2015    5       10    13   7    4.9746   464.4    6.597      46.306
2015    5       10    13  13    4.9755   464.5    6.595      46.324
2015    5       10    13  19    4.9763   464.7    6.592      46.342
2015    5       10    13  25    4.9770   464.8    6.589      46.360
2015    5       10    13  31    4.9778   464.9    6.586      46.377
2015    5       10    13  37    4.9786   465.0    6.584      46.394
2015    5       10    13  43    4.9794   465.2    6.581      46.411
2015    5       10    13  49    4.9802   465.3    6.578      46.427
2015    5       10    13  54    4.9809   465.4    6.575      46.443
2015    5       10    14   0    4.9817   465.5    6.572      46.459
2015    5       10    14   6    4.9825   465.7    6.569      46.475
2015    5       10    14  12    4.9833   465.8    6.566      46.490
2015    5       10    14  18    4.9841   465.9    6.563      46.506
2015    5       10    14  24    4.9850   466.0    6.560      46.521
2015    5       10    14  30    4.9858   466.1    6.557      46.536
2015    5       10    14  36    4.9866   466.3    6.555      46.551
2015    5       10    14  42    4.9875   466.4    6.552      46.566
2015    5       10    14  48    4.9884   466.5    6.550      46.581
2015    5       10    14  54    4.9893   466.6    6.547      46.596
2015    5       10    15   0    4.9903   466.7    6.545      46.612
2015    5       10    15   5    4.9912   466.9    6.542      46.627
2015    5       10    15  11    4.9922   467.0    6.540      46.643
2015    5       10    15  17    4.9933   467.1    6.538      46.658
2015    5       10    15  23    4.9943   467.2    6.537      46.674
2015    5       10    15  29    4.9954   467.3    6.535      46.691
2015    5       10    15  35    4.9966   467.4    6.533      46.708
2015    5       10    15  41    4.9977   467.6    6.532      46.726
2015    5       10    15  47    4.9989   467.7    6.530      46.745
2015    5       10    15  53    5.0000   467.8    6.529      46.765
2015    5       10    15  59    5.0012   467.9    6.528      46.785
2015    5       10    16   5    5.0024   468.0    6.526      46.805
2015    5       10    16  11    5.0037   468.2    6.525      46.825
2015    5       10    16  16    5.0049   468.3    6.524      46.846
2015    5       10    16  22    5.0062   468.4    6.523      46.866
2015    5       10    16  28    5.0075   468.5    6.522      46.886
2015    5       10    16  34    5.0087   468.6    6.521      46.906
2015    5       10    16  40    5.0100   468.7    6.520      46.926
2015    5       10    16  46    5.0114   468.8    6.519      46.946
2015    5       10    16  52    5.0127   469.0    6.518      46.966
2015    5       10    16  58    5.0140   469.1    6.517      46.986
2015    5       10    17   4    5.0154   469.2    6.517      47.006
2015    5       10    17  10    5.0167   469.3    6.516      47.027
2015    5       10    17  16    5.0181   469.4    6.516      47.047
2015    5       10    17  22    5.0194   469.5    6.516      47.068
2015    5       10    17  28    5.0208   469.6    6.515      47.089
2015    5       10    17  33    5.0221   469.8    6.515      47.110
2015    5       10    17  39    5.0235   469.9    6.515      47.131
2015    5       10    17  45    5.0249   470.0    6.516      47.152
2015    5       10    17  51    5.0262   470.1    6.516      47.174
2015    5       10    17  57    5.0276   470.2    6.517      47.196
2015    5       10    18   3    5.0290   470.3    6.517      47.218
2015    5       10    18   9    5.0304   470.4    6.518      47.240
2015    5       10    18  15    5.0318   470.5    6.518      47.263
2015    5       10    18  21    5.0333   470.6    6.519      47.288
2015    5       10    18  27    5.0347   470.7    6.519      47.314
2015    5       10    18  33    5.0361   470.9    6.519      47.342
2015    5       10    18  39    5.0376   471.0    6.519      47.370
2015    5       10    18  44    5.0390   471.1    6.519      47.400
2015    5       10    18  50    5.0405   471.2    6.519      47.430
2015    5       10    18  56    5.0419   471.3    6.519      47.461
2015    5       10    19   2    5.0433   471.4    6.518      47.491
2015    5       10    19   8    5.0447   471.5    6.518      47.521
2015    5       10    19  14    5.0461   471.7    6.517      47.550
2015    5       10    19  20    5.0476   471.8    6.516      47.578
2015    5       10    19  26    5.0489   471.9    6.515      47.607
2015    5       10    19  32    5.0503   472.0    6.514      47.634
2015    5       10    19  38    5.0517   472.1    6.513      47.661
2015    5       10    19  44    5.0531   472.2    6.512      47.688
2015    5       10    19  50    5.0545   472.3    6.511      47.714
2015    5       10    19  56    5.0559   472.4    6.509      47.740
2015    5       10    20   1    5.0572   472.6    6.508      47.765
2015    5       10    20   7    5.0586   472.7    6.506      47.789
2015    5       10    20  13    5.0600   472.8    6.505      47.814
2015    5       10    20  19    5.0614   472.9    6.503      47.838
2015    5       10    20  25    5.0629   473.0    6.502      47.861
2015    5       10    20  31    5.0643   473.1    6.500      47.885
2015    5       10    20  37    5.0657   473.2    6.499      47.908
2015    5       10    20  43    5.0672   473.3    6.497      47.931
2015    5       10    20  49    5.0686   473.5    6.496      47.954
2015    5       10    20  55    5.0701   473.6    6.494      47.977
2015    5       10    21   1    5.0716   473.7    6.493      48.000
2015    5       10    21   7    5.0732   473.8    6.492      48.023
2015    5       10    21  12    5.0747   473.9    6.491      48.046
2015    5       10    21  18    5.0763   474.0    6.489      48.069
2015    5       10    21  24    5.0779   474.1    6.488      48.093
2015    5       10    21  30    5.0795   474.3    6.488      48.116
2015    5       10    21  36    5.0811   474.4    6.487      48.139
2015    5       10    21  42    5.0828   474.5    6.486      48.163
2015    5       10    21  48    5.0845   474.6    6.486      48.187
2015    5       10    21  54    5.0863   474.7    6.486      48.212
2015    5       10    22   0    5.0881   474.8    6.485      48.236
2015    5       10    22   6    5.0899   474.9    6.486      48.261
2015    5       10    22  12    5.0918   475.1    6.486      48.286
2015    5       10    22  18    5.0937   475.2    6.487      48.313
2015    5       10    22  24    5.0957   475.3    6.488      48.340
2015    5       10    22  29    5.0977   475.4    6.489      48.368
2015    5       10    22  35    5.0997   475.5    6.490      48.398
2015    5       10    22  41    5.1017   475.6    6.491      48.428
2015    5       10    22  47    5.1038   475.8    6.493      48.461
2015    5       10    22  53    5.1059   475.9    6.495      48.494
2015    5       10    22  59    5.1081   476.0    6.497      48.529
2015    5       10    23   5    5.1102   476.1    6.499      48.565
2015    5       10    23  11    5.1124   476.3    6.501      48.602
2015    5       10    23  17    5.1146   476.4    6.503      48.640
2015    5       10    23  23    5.1169   476.5    6.506      48.679
2015    5       10    23  29    5.1191   476.6    6.508      48.718
2015    5       10    23  35    5.1214   476.8    6.511      48.758
2015    5       10    23  40    5.1238   476.9    6.514      48.797
2015    5       10    23  46    5.1262   477.0    6.518      48.837
2015    5       10    23  52    5.1286   477.1    6.521      48.877
2015    5       10    23  58    5.1311   477.3    6.525      48.919
2015    5       11     0   4    5.1336   477.4    6.529      48.964
