year    month   day   hour  minute  B_enl V_enl   n_enl       T_enl
[year] [month] [day] [hour][minute] [nT]  [km/s]  [cm-3]      [kK]
2015    5        3     0   4    4.7145   515.9    4.525      49.437
2015    5        3     0   9    4.7129   515.9    4.524      49.429
2015    5        3     0  15    4.7114   515.9    4.522      49.420
2015    5        3     0  21    4.7098   515.9    4.521      49.412
2015    5        3     0  27    4.7083   515.9    4.519      49.403
2015    5        3     0  32    4.7067   515.9    4.518      49.394
2015    5        3     0  38    4.7051   515.9    4.517      49.385
2015    5        3     0  44    4.7036   515.9    4.515      49.375
2015    5        3     0  50    4.7020   515.8    4.514      49.366
2015    5        3     0  55    4.7004   515.8    4.512      49.356
2015    5        3     1   1    4.6989   515.8    4.511      49.346
2015    5        3     1   7    4.6973   515.8    4.509      49.335
2015    5        3     1  12    4.6957   515.8    4.508      49.325
2015    5        3     1  18    4.6941   515.8    4.506      49.314
2015    5        3     1  24    4.6926   515.8    4.505      49.303
2015    5        3     1  30    4.6910   515.8    4.503      49.292
2015    5        3     1  35    4.6894   515.8    4.502      49.280
2015    5        3     1  41    4.6878   515.8    4.500      49.269
2015    5        3     1  47    4.6862   515.8    4.499      49.257
2015    5        3     1  52    4.6846   515.8    4.497      49.245
2015    5        3     1  58    4.6830   515.8    4.496      49.234
2015    5        3     2   4    4.6815   515.7    4.494      49.222
2015    5        3     2  10    4.6799   515.7    4.493      49.210
2015    5        3     2  15    4.6783   515.7    4.491      49.198
2015    5        3     2  21    4.6767   515.7    4.490      49.186
2015    5        3     2  27    4.6751   515.7    4.489      49.174
2015    5        3     2  33    4.6735   515.7    4.487      49.162
2015    5        3     2  38    4.6719   515.7    4.486      49.150
2015    5        3     2  44    4.6703   515.7    4.485      49.138
2015    5        3     2  50    4.6688   515.7    4.483      49.125
2015    5        3     2  55    4.6672   515.6    4.482      49.113
2015    5        3     3   1    4.6656   515.6    4.481      49.102
2015    5        3     3   7    4.6640   515.6    4.479      49.090
2015    5        3     3  13    4.6624   515.6    4.478      49.078
2015    5        3     3  18    4.6608   515.6    4.477      49.066
2015    5        3     3  24    4.6592   515.6    4.476      49.054
2015    5        3     3  30    4.6576   515.6    4.475      49.043
2015    5        3     3  35    4.6560   515.5    4.474      49.032
2015    5        3     3  41    4.6544   515.5    4.473      49.020
2015    5        3     3  47    4.6528   515.5    4.472      49.009
2015    5        3     3  53    4.6513   515.5    4.471      48.998
2015    5        3     3  58    4.6497   515.5    4.470      48.987
2015    5        3     4   4    4.6481   515.5    4.469      48.977
2015    5        3     4  10    4.6465   515.5    4.468      48.966
2015    5        3     4  15    4.6449   515.4    4.467      48.956
2015    5        3     4  21    4.6433   515.4    4.467      48.945
2015    5        3     4  27    4.6418   515.4    4.466      48.935
2015    5        3     4  33    4.6402   515.4    4.465      48.925
2015    5        3     4  38    4.6386   515.4    4.464      48.915
2015    5        3     4  44    4.6370   515.4    4.464      48.906
2015    5        3     4  50    4.6354   515.3    4.463      48.896
2015    5        3     4  56    4.6338   515.3    4.462      48.887
2015    5        3     5   1    4.6323   515.3    4.461      48.878
2015    5        3     5   7    4.6307   515.3    4.461      48.869
2015    5        3     5  13    4.6291   515.3    4.460      48.860
2015    5        3     5  18    4.6275   515.3    4.459      48.851
2015    5        3     5  24    4.6259   515.2    4.459      48.842
2015    5        3     5  30    4.6243   515.2    4.458      48.833
2015    5        3     5  36    4.6227   515.2    4.457      48.825
2015    5        3     5  41    4.6211   515.2    4.456      48.816
2015    5        3     5  47    4.6195   515.2    4.456      48.807
2015    5        3     5  53    4.6180   515.1    4.455      48.799
2015    5        3     5  58    4.6164   515.1    4.454      48.790
2015    5        3     6   4    4.6148   515.1    4.453      48.781
2015    5        3     6  10    4.6132   515.1    4.452      48.773
2015    5        3     6  16    4.6116   515.1    4.451      48.764
2015    5        3     6  21    4.6100   515.0    4.451      48.754
2015    5        3     6  27    4.6084   515.0    4.450      48.745
2015    5        3     6  33    4.6068   515.0    4.449      48.735
2015    5        3     6  38    4.6053   515.0    4.448      48.725
2015    5        3     6  44    4.6037   514.9    4.447      48.715
2015    5        3     6  50    4.6021   514.9    4.446      48.705
2015    5        3     6  56    4.6006   514.9    4.445      48.695
2015    5        3     7   1    4.5990   514.9    4.444      48.684
2015    5        3     7   7    4.5975   514.9    4.443      48.673
2015    5        3     7  13    4.5959   514.8    4.442      48.662
2015    5        3     7  19    4.5944   514.8    4.441      48.651
2015    5        3     7  24    4.5928   514.8    4.440      48.639
2015    5        3     7  30    4.5913   514.8    4.439      48.627
2015    5        3     7  36    4.5897   514.7    4.437      48.615
2015    5        3     7  41    4.5882   514.7    4.436      48.603
2015    5        3     7  47    4.5866   514.7    4.435      48.591
2015    5        3     7  53    4.5851   514.7    4.434      48.578
2015    5        3     7  59    4.5835   514.6    4.433      48.566
2015    5        3     8   4    4.5820   514.6    4.432      48.553
2015    5        3     8  10    4.5805   514.6    4.430      48.539
2015    5        3     8  16    4.5789   514.6    4.429      48.526
2015    5        3     8  21    4.5774   514.5    4.428      48.513
2015    5        3     8  27    4.5758   514.5    4.426      48.499
2015    5        3     8  33    4.5743   514.5    4.425      48.485
2015    5        3     8  39    4.5727   514.5    4.424      48.471
2015    5        3     8  44    4.5711   514.5    4.422      48.457
2015    5        3     8  50    4.5695   514.4    4.421      48.442
2015    5        3     8  56    4.5679   514.4    4.420      48.427
2015    5        3     9   1    4.5664   514.4    4.418      48.413
2015    5        3     9   7    4.5648   514.3    4.417      48.397
2015    5        3     9  13    4.5632   514.3    4.416      48.382
2015    5        3     9  19    4.5616   514.3    4.415      48.367
2015    5        3     9  24    4.5600   514.3    4.413      48.351
2015    5        3     9  30    4.5583   514.2    4.412      48.336
2015    5        3     9  36    4.5567   514.2    4.411      48.320
2015    5        3     9  42    4.5551   514.2    4.409      48.304
2015    5        3     9  47    4.5534   514.2    4.408      48.288
2015    5        3     9  53    4.5518   514.1    4.407      48.272
2015    5        3     9  59    4.5502   514.1    4.406      48.255
2015    5        3    10   4    4.5485   514.1    4.404      48.239
2015    5        3    10  10    4.5469   514.0    4.403      48.223
2015    5        3    10  16    4.5452   514.0    4.402      48.207
2015    5        3    10  22    4.5435   514.0    4.401      48.190
2015    5        3    10  27    4.5419   514.0    4.400      48.174
2015    5        3    10  33    4.5402   513.9    4.399      48.157
2015    5        3    10  39    4.5385   513.9    4.398      48.141
2015    5        3    10  44    4.5368   513.9    4.397      48.124
2015    5        3    10  50    4.5351   513.8    4.396      48.108
2015    5        3    10  56    4.5334   513.8    4.395      48.092
2015    5        3    11   2    4.5317   513.8    4.394      48.075
2015    5        3    11   7    4.5301   513.7    4.393      48.059
2015    5        3    11  13    4.5283   513.7    4.392      48.043
2015    5        3    11  19    4.5267   513.7    4.391      48.026
2015    5        3    11  25    4.5249   513.6    4.390      48.010
2015    5        3    11  30    4.5232   513.6    4.390      47.994
2015    5        3    11  36    4.5215   513.6    4.389      47.977
2015    5        3    11  42    4.5198   513.5    4.388      47.961
2015    5        3    11  47    4.5181   513.5    4.387      47.945
2015    5        3    11  53    4.5164   513.5    4.386      47.929
2015    5        3    11  59    4.5146   513.4    4.386      47.913
2015    5        3    12   5    4.5129   513.4    4.385      47.897
2015    5        3    12  10    4.5112   513.4    4.384      47.881
2015    5        3    12  16    4.5095   513.3    4.383      47.865
2015    5        3    12  22    4.5077   513.3    4.383      47.849
2015    5        3    12  27    4.5060   513.3    4.382      47.834
2015    5        3    12  33    4.5043   513.2    4.381      47.818
2015    5        3    12  39    4.5025   513.2    4.380      47.802
2015    5        3    12  45    4.5008   513.1    4.380      47.786
2015    5        3    12  50    4.4991   513.1    4.379      47.770
2015    5        3    12  56    4.4973   513.1    4.378      47.754
2015    5        3    13   2    4.4956   513.0    4.377      47.739
2015    5        3    13   7    4.4939   513.0    4.377      47.722
2015    5        3    13  13    4.4921   512.9    4.376      47.706
2015    5        3    13  19    4.4904   512.9    4.375      47.691
2015    5        3    13  25    4.4887   512.9    4.374      47.674
2015    5        3    13  30    4.4870   512.8    4.373      47.658
2015    5        3    13  36    4.4853   512.8    4.372      47.642
2015    5        3    13  42    4.4836   512.7    4.371      47.626
2015    5        3    13  48    4.4819   512.7    4.370      47.610
2015    5        3    13  53    4.4802   512.6    4.369      47.593
2015    5        3    13  59    4.4785   512.6    4.369      47.577
2015    5        3    14   5    4.4768   512.6    4.368      47.560
2015    5        3    14  10    4.4751   512.5    4.367      47.544
2015    5        3    14  16    4.4734   512.5    4.365      47.527
2015    5        3    14  22    4.4718   512.4    4.364      47.510
2015    5        3    14  28    4.4701   512.4    4.363      47.493
2015    5        3    14  33    4.4685   512.3    4.362      47.476
2015    5        3    14  39    4.4669   512.3    4.361      47.459
2015    5        3    14  45    4.4652   512.2    4.360      47.442
2015    5        3    14  50    4.4636   512.2    4.359      47.424
2015    5        3    14  56    4.4620   512.1    4.358      47.407
2015    5        3    15   2    4.4604   512.1    4.357      47.389
2015    5        3    15   8    4.4588   512.0    4.356      47.371
2015    5        3    15  13    4.4572   512.0    4.355      47.353
2015    5        3    15  19    4.4556   511.9    4.354      47.335
2015    5        3    15  25    4.4540   511.9    4.353      47.317
2015    5        3    15  30    4.4524   511.8    4.352      47.298
2015    5        3    15  36    4.4508   511.8    4.351      47.279
2015    5        3    15  42    4.4492   511.7    4.350      47.261
2015    5        3    15  48    4.4476   511.7    4.349      47.241
2015    5        3    15  53    4.4460   511.6    4.347      47.222
2015    5        3    15  59    4.4443   511.6    4.346      47.202
2015    5        3    16   5    4.4427   511.5    4.345      47.182
2015    5        3    16  11    4.4410   511.5    4.345      47.162
2015    5        3    16  16    4.4394   511.4    4.344      47.142
2015    5        3    16  22    4.4377   511.4    4.343      47.122
2015    5        3    16  28    4.4361   511.3    4.342      47.101
2015    5        3    16  33    4.4344   511.3    4.341      47.080
2015    5        3    16  39    4.4327   511.2    4.340      47.060
2015    5        3    16  45    4.4310   511.1    4.339      47.039
2015    5        3    16  51    4.4294   511.1    4.338      47.017
2015    5        3    16  56    4.4276   511.0    4.338      46.996
2015    5        3    17   2    4.4260   511.0    4.337      46.975
2015    5        3    17   8    4.4243   510.9    4.336      46.954
2015    5        3    17  13    4.4226   510.9    4.336      46.932
2015    5        3    17  19    4.4209   510.8    4.335      46.911
2015    5        3    17  25    4.4192   510.8    4.334      46.889
2015    5        3    17  31    4.4175   510.7    4.334      46.868
2015    5        3    17  36    4.4158   510.7    4.333      46.846
2015    5        3    17  42    4.4141   510.6    4.333      46.824
2015    5        3    17  48    4.4124   510.5    4.332      46.803
2015    5        3    17  53    4.4107   510.5    4.332      46.781
2015    5        3    17  59    4.4090   510.4    4.332      46.760
2015    5        3    18   5    4.4073   510.4    4.331      46.738
2015    5        3    18  11    4.4056   510.3    4.331      46.716
2015    5        3    18  16    4.4039   510.3    4.330      46.695
2015    5        3    18  22    4.4022   510.2    4.330      46.673
2015    5        3    18  28    4.4005   510.1    4.330      46.651
2015    5        3    18  34    4.3988   510.1    4.330      46.630
2015    5        3    18  39    4.3971   510.0    4.329      46.608
2015    5        3    18  45    4.3954   510.0    4.329      46.587
2015    5        3    18  51    4.3937   509.9    4.329      46.565
2015    5        3    18  56    4.3920   509.9    4.328      46.544
2015    5        3    19   2    4.3902   509.8    4.328      46.522
2015    5        3    19   8    4.3885   509.7    4.328      46.500
2015    5        3    19  14    4.3868   509.7    4.327      46.478
2015    5        3    19  19    4.3851   509.6    4.327      46.456
2015    5        3    19  25    4.3834   509.6    4.327      46.434
2015    5        3    19  31    4.3816   509.5    4.326      46.411
2015    5        3    19  36    4.3799   509.4    4.326      46.389
2015    5        3    19  42    4.3782   509.4    4.325      46.366
2015    5        3    19  48    4.3765   509.3    4.325      46.343
2015    5        3    19  54    4.3747   509.2    4.324      46.321
2015    5        3    19  59    4.3730   509.2    4.324      46.297
2015    5        3    20   5    4.3713   509.1    4.323      46.274
2015    5        3    20  11    4.3696   509.0    4.323      46.251
2015    5        3    20  16    4.3679   509.0    4.322      46.227
2015    5        3    20  22    4.3662   508.9    4.321      46.204
2015    5        3    20  28    4.3644   508.8    4.321      46.180
2015    5        3    20  34    4.3628   508.8    4.320      46.156
2015    5        3    20  39    4.3610   508.7    4.319      46.132
2015    5        3    20  45    4.3594   508.6    4.318      46.107
2015    5        3    20  51    4.3577   508.6    4.318      46.083
2015    5        3    20  57    4.3560   508.5    4.317      46.058
2015    5        3    21   2    4.3543   508.4    4.316      46.033
2015    5        3    21   8    4.3527   508.4    4.315      46.008
2015    5        3    21  14    4.3510   508.3    4.314      45.983
2015    5        3    21  19    4.3494   508.2    4.313      45.957
2015    5        3    21  25    4.3477   508.2    4.312      45.931
2015    5        3    21  31    4.3460   508.1    4.312      45.906
2015    5        3    21  37    4.3444   508.0    4.311      45.879
2015    5        3    21  42    4.3427   507.9    4.310      45.853
2015    5        3    21  48    4.3411   507.9    4.309      45.826
2015    5        3    21  54    4.3394   507.8    4.308      45.800
2015    5        3    21  59    4.3378   507.7    4.307      45.772
2015    5        3    22   5    4.3361   507.7    4.306      45.745
2015    5        3    22  11    4.3345   507.6    4.305      45.718
2015    5        3    22  17    4.3328   507.5    4.304      45.690
2015    5        3    22  22    4.3312   507.4    4.303      45.662
2015    5        3    22  28    4.3295   507.4    4.301      45.634
2015    5        3    22  34    4.3278   507.3    4.300      45.605
2015    5        3    22  40    4.3262   507.2    4.299      45.577
2015    5        3    22  45    4.3245   507.1    4.298      45.548
2015    5        3    22  51    4.3228   507.0    4.297      45.519
2015    5        3    22  57    4.3211   507.0    4.296      45.489
2015    5        3    23   2    4.3194   506.9    4.295      45.460
2015    5        3    23   8    4.3178   506.8    4.294      45.430
2015    5        3    23  14    4.3161   506.7    4.293      45.401
2015    5        3    23  20    4.3144   506.6    4.292      45.371
2015    5        3    23  25    4.3127   506.5    4.291      45.341
2015    5        3    23  31    4.3110   506.5    4.291      45.311
2015    5        3    23  37    4.3094   506.4    4.290      45.282
2015    5        3    23  42    4.3077   506.3    4.289      45.252
2015    5        3    23  48    4.3060   506.2    4.288      45.222
2015    5        3    23  54    4.3043   506.1    4.287      45.193
2015    5        4     0   0    4.3027   506.0    4.287      45.164
2015    5        4     0   5    4.3010   506.0    4.286      45.135
2015    5        4     0  11    4.2993   505.9    4.286      45.106
2015    5        4     0  17    4.2977   505.8    4.285      45.077
2015    5        4     0  22    4.2961   505.7    4.285      45.049
2015    5        4     0  28    4.2944   505.6    4.285      45.020
2015    5        4     0  34    4.2928   505.5    4.284      44.993
2015    5        4     0  40    4.2912   505.4    4.284      44.965
2015    5        4     0  45    4.2895   505.4    4.284      44.938
2015    5        4     0  51    4.2879   505.3    4.284      44.911
2015    5        4     0  57    4.2863   505.2    4.284      44.884
2015    5        4     1   3    4.2847   505.1    4.284      44.857
2015    5        4     1   8    4.2831   505.0    4.284      44.831
2015    5        4     1  14    4.2815   504.9    4.284      44.804
2015    5        4     1  20    4.2799   504.8    4.284      44.778
2015    5        4     1  25    4.2782   504.8    4.284      44.752
2015    5        4     1  31    4.2766   504.7    4.285      44.725
2015    5        4     1  37    4.2750   504.6    4.285      44.699
2015    5        4     1  43    4.2734   504.5    4.285      44.673
2015    5        4     1  48    4.2718   504.4    4.285      44.646
2015    5        4     1  54    4.2702   504.3    4.285      44.620
2015    5        4     2   0    4.2686   504.2    4.286      44.593
2015    5        4     2   5    4.2669   504.1    4.286      44.566
2015    5        4     2  11    4.2653   504.1    4.286      44.539
2015    5        4     2  17    4.2637   504.0    4.286      44.512
2015    5        4     2  23    4.2620   503.9    4.287      44.484
2015    5        4     2  28    4.2604   503.8    4.287      44.456
2015    5        4     2  34    4.2588   503.7    4.287      44.428
2015    5        4     2  40    4.2571   503.6    4.287      44.400
2015    5        4     2  45    4.2555   503.5    4.287      44.371
2015    5        4     2  51    4.2539   503.4    4.287      44.342
2015    5        4     2  57    4.2522   503.3    4.287      44.313
2015    5        4     3   3    4.2506   503.2    4.287      44.283
2015    5        4     3   8    4.2490   503.1    4.288      44.254
2015    5        4     3  14    4.2474   503.0    4.288      44.223
2015    5        4     3  20    4.2458   502.9    4.288      44.193
2015    5        4     3  26    4.2442   502.8    4.288      44.163
2015    5        4     3  31    4.2426   502.7    4.288      44.132
2015    5        4     3  37    4.2410   502.6    4.288      44.101
2015    5        4     3  43    4.2394   502.5    4.288      44.070
2015    5        4     3  48    4.2379   502.4    4.288      44.039
2015    5        4     3  54    4.2363   502.3    4.288      44.008
2015    5        4     4   0    4.2348   502.2    4.288      43.976
2015    5        4     4   6    4.2333   502.1    4.289      43.945
2015    5        4     4  11    4.2318   502.0    4.289      43.914
2015    5        4     4  17    4.2303   501.9    4.289      43.882
2015    5        4     4  23    4.2288   501.8    4.289      43.851
2015    5        4     4  28    4.2273   501.7    4.290      43.820
2015    5        4     4  34    4.2258   501.6    4.290      43.789
2015    5        4     4  40    4.2244   501.5    4.290      43.758
2015    5        4     4  46    4.2229   501.4    4.290      43.727
2015    5        4     4  51    4.2215   501.3    4.291      43.697
2015    5        4     4  57    4.2201   501.2    4.291      43.666
2015    5        4     5   3    4.2186   501.1    4.292      43.636
2015    5        4     5   8    4.2172   501.0    4.292      43.606
2015    5        4     5  14    4.2157   500.9    4.292      43.577
2015    5        4     5  20    4.2143   500.8    4.293      43.547
2015    5        4     5  26    4.2128   500.7    4.293      43.517
2015    5        4     5  31    4.2113   500.6    4.293      43.487
2015    5        4     5  37    4.2098   500.5    4.293      43.457
2015    5        4     5  43    4.2083   500.4    4.293      43.426
2015    5        4     5  49    4.2068   500.3    4.293      43.395
2015    5        4     5  54    4.2053   500.2    4.293      43.364
2015    5        4     6   0    4.2038   500.1    4.293      43.333
2015    5        4     6   6    4.2022   500.0    4.293      43.301
2015    5        4     6  11    4.2007   499.9    4.293      43.269
2015    5        4     6  17    4.1991   499.8    4.293      43.237
2015    5        4     6  23    4.1976   499.7    4.293      43.204
2015    5        4     6  29    4.1960   499.6    4.292      43.172
2015    5        4     6  34    4.1944   499.4    4.292      43.139
2015    5        4     6  40    4.1929   499.3    4.292      43.106
2015    5        4     6  46    4.1913   499.2    4.291      43.072
2015    5        4     6  51    4.1897   499.1    4.291      43.039
2015    5        4     6  57    4.1882   499.0    4.291      43.005
2015    5        4     7   3    4.1866   498.9    4.291      42.972
2015    5        4     7   9    4.1850   498.8    4.290      42.938
2015    5        4     7  14    4.1834   498.7    4.290      42.904
2015    5        4     7  20    4.1818   498.6    4.290      42.871
2015    5        4     7  26    4.1803   498.5    4.289      42.837
2015    5        4     7  31    4.1787   498.4    4.289      42.803
2015    5        4     7  37    4.1771   498.3    4.289      42.770
2015    5        4     7  43    4.1755   498.1    4.288      42.736
2015    5        4     7  49    4.1739   498.0    4.288      42.702
2015    5        4     7  54    4.1724   497.9    4.288      42.669
2015    5        4     8   0    4.1708   497.8    4.288      42.635
2015    5        4     8   6    4.1692   497.7    4.287      42.602
2015    5        4     8  12    4.1676   497.6    4.287      42.568
2015    5        4     8  17    4.1660   497.5    4.287      42.534
2015    5        4     8  23    4.1644   497.4    4.287      42.500
2015    5        4     8  29    4.1628   497.2    4.287      42.466
2015    5        4     8  34    4.1612   497.1    4.286      42.432
2015    5        4     8  40    4.1597   497.0    4.286      42.397
2015    5        4     8  46    4.1581   496.9    4.286      42.363
2015    5        4     8  52    4.1565   496.8    4.286      42.328
2015    5        4     8  57    4.1549   496.7    4.285      42.293
2015    5        4     9   3    4.1533   496.5    4.285      42.258
2015    5        4     9   9    4.1517   496.4    4.285      42.223
2015    5        4     9  14    4.1502   496.3    4.285      42.187
2015    5        4     9  20    4.1486   496.2    4.285      42.152
2015    5        4     9  26    4.1470   496.1    4.284      42.116
2015    5        4     9  32    4.1455   495.9    4.284      42.080
2015    5        4     9  37    4.1439   495.8    4.284      42.044
2015    5        4     9  43    4.1423   495.7    4.284      42.008
2015    5        4     9  49    4.1408   495.6    4.284      41.971
2015    5        4     9  54    4.1392   495.4    4.284      41.934
2015    5        4    10   0    4.1377   495.3    4.284      41.898
2015    5        4    10   6    4.1361   495.2    4.283      41.861
2015    5        4    10  12    4.1346   495.1    4.283      41.824
2015    5        4    10  17    4.1330   494.9    4.283      41.787
2015    5        4    10  23    4.1315   494.8    4.283      41.750
2015    5        4    10  29    4.1300   494.7    4.283      41.713
2015    5        4    10  35    4.1285   494.5    4.283      41.675
2015    5        4    10  40    4.1270   494.4    4.283      41.638
2015    5        4    10  46    4.1256   494.3    4.284      41.601
2015    5        4    10  52    4.1241   494.1    4.284      41.564
2015    5        4    10  57    4.1227   494.0    4.284      41.527
2015    5        4    11   3    4.1212   493.9    4.284      41.490
2015    5        4    11   9    4.1198   493.7    4.285      41.453
2015    5        4    11  15    4.1184   493.6    4.285      41.417
2015    5        4    11  20    4.1170   493.5    4.286      41.381
2015    5        4    11  26    4.1157   493.3    4.286      41.345
2015    5        4    11  32    4.1143   493.2    4.287      41.309
2015    5        4    11  37    4.1130   493.0    4.287      41.274
2015    5        4    11  43    4.1117   492.9    4.288      41.239
2015    5        4    11  49    4.1104   492.8    4.289      41.204
2015    5        4    11  55    4.1091   492.6    4.290      41.170
2015    5        4    12   0    4.1079   492.5    4.291      41.137
2015    5        4    12   6    4.1067   492.3    4.292      41.104
2015    5        4    12  12    4.1055   492.2    4.293      41.071
2015    5        4    12  17    4.1043   492.1    4.295      41.040
2015    5        4    12  23    4.1031   491.9    4.296      41.009
2015    5        4    12  29    4.1019   491.8    4.297      40.978
2015    5        4    12  35    4.1007   491.7    4.299      40.948
2015    5        4    12  40    4.0995   491.5    4.300      40.919
2015    5        4    12  46    4.0983   491.4    4.302      40.890
2015    5        4    12  52    4.0971   491.3    4.303      40.861
2015    5        4    12  58    4.0959   491.1    4.304      40.832
2015    5        4    13   3    4.0947   491.0    4.306      40.804
2015    5        4    13   9    4.0935   490.9    4.307      40.775
2015    5        4    13  15    4.0923   490.7    4.309      40.747
2015    5        4    13  20    4.0911   490.6    4.310      40.718
2015    5        4    13  26    4.0899   490.5    4.311      40.690
2015    5        4    13  32    4.0887   490.3    4.313      40.662
2015    5        4    13  38    4.0875   490.2    4.314      40.633
2015    5        4    13  43    4.0862   490.1    4.315      40.605
2015    5        4    13  49    4.0850   489.9    4.317      40.576
2015    5        4    13  55    4.0838   489.8    4.318      40.548
2015    5        4    14   0    4.0825   489.7    4.319      40.519
2015    5        4    14   6    4.0812   489.5    4.320      40.490
2015    5        4    14  12    4.0800   489.4    4.321      40.461
2015    5        4    14  18    4.0787   489.2    4.323      40.432
2015    5        4    14  23    4.0774   489.1    4.324      40.403
2015    5        4    14  29    4.0761   489.0    4.325      40.373
2015    5        4    14  35    4.0748   488.8    4.326      40.344
2015    5        4    14  40    4.0734   488.7    4.327      40.314
2015    5        4    14  46    4.0721   488.6    4.328      40.284
2015    5        4    14  52    4.0708   488.4    4.329      40.254
2015    5        4    14  58    4.0694   488.3    4.330      40.224
2015    5        4    15   3    4.0681   488.1    4.331      40.193
2015    5        4    15   9    4.0668   488.0    4.331      40.162
2015    5        4    15  15    4.0654   487.9    4.332      40.131
2015    5        4    15  21    4.0641   487.7    4.333      40.100
2015    5        4    15  26    4.0627   487.6    4.334      40.069
2015    5        4    15  32    4.0614   487.4    4.334      40.037
2015    5        4    15  38    4.0600   487.3    4.335      40.006
2015    5        4    15  43    4.0587   487.1    4.336      39.974
2015    5        4    15  49    4.0574   487.0    4.337      39.942
2015    5        4    15  55    4.0560   486.8    4.337      39.910
2015    5        4    16   1    4.0547   486.7    4.338      39.877
2015    5        4    16   6    4.0534   486.5    4.338      39.845
2015    5        4    16  12    4.0521   486.4    4.339      39.812
2015    5        4    16  18    4.0508   486.2    4.339      39.779
2015    5        4    16  23    4.0495   486.1    4.340      39.747
2015    5        4    16  29    4.0482   486.0    4.341      39.714
2015    5        4    16  35    4.0469   485.8    4.341      39.681
2015    5        4    16  41    4.0456   485.7    4.342      39.648
2015    5        4    16  46    4.0444   485.5    4.342      39.615
2015    5        4    16  52    4.0431   485.4    4.343      39.582
2015    5        4    16  58    4.0419   485.2    4.343      39.548
2015    5        4    17   3    4.0407   485.1    4.344      39.515
2015    5        4    17   9    4.0395   484.9    4.344      39.482
2015    5        4    17  15    4.0383   484.8    4.345      39.449
2015    5        4    17  21    4.0371   484.6    4.345      39.416
2015    5        4    17  26    4.0359   484.4    4.346      39.383
2015    5        4    17  32    4.0348   484.3    4.346      39.349
2015    5        4    17  38    4.0336   484.1    4.347      39.316
2015    5        4    17  44    4.0324   484.0    4.348      39.283
2015    5        4    17  49    4.0313   483.8    4.348      39.249
2015    5        4    17  55    4.0301   483.7    4.349      39.216
2015    5        4    18   1    4.0290   483.5    4.349      39.183
2015    5        4    18   6    4.0278   483.4    4.350      39.150
2015    5        4    18  12    4.0267   483.2    4.350      39.117
2015    5        4    18  18    4.0256   483.1    4.351      39.083
2015    5        4    18  24    4.0244   482.9    4.352      39.050
2015    5        4    18  29    4.0233   482.8    4.352      39.016
2015    5        4    18  35    4.0222   482.6    4.353      38.983
2015    5        4    18  41    4.0211   482.4    4.353      38.950
2015    5        4    18  46    4.0201   482.3    4.354      38.916
2015    5        4    18  52    4.0190   482.1    4.355      38.883
2015    5        4    18  58    4.0179   482.0    4.355      38.849
2015    5        4    19   4    4.0169   481.8    4.356      38.816
2015    5        4    19   9    4.0158   481.6    4.357      38.782
2015    5        4    19  15    4.0148   481.5    4.357      38.749
2015    5        4    19  21    4.0138   481.3    4.358      38.716
2015    5        4    19  26    4.0127   481.2    4.359      38.683
2015    5        4    19  32    4.0117   481.0    4.360      38.650
2015    5        4    19  38    4.0107   480.8    4.361      38.617
2015    5        4    19  44    4.0098   480.7    4.362      38.585
2015    5        4    19  49    4.0088   480.5    4.363      38.552
2015    5        4    19  55    4.0078   480.3    4.364      38.520
2015    5        4    20   1    4.0069   480.2    4.365      38.488
2015    5        4    20   7    4.0059   480.0    4.366      38.456
2015    5        4    20  12    4.0050   479.8    4.367      38.425
2015    5        4    20  18    4.0041   479.7    4.368      38.394
2015    5        4    20  24    4.0031   479.5    4.370      38.363
2015    5        4    20  29    4.0022   479.3    4.371      38.332
2015    5        4    20  35    4.0014   479.2    4.373      38.302
2015    5        4    20  41    4.0005   479.0    4.374      38.272
2015    5        4    20  47    3.9996   478.8    4.376      38.242
2015    5        4    20  52    3.9987   478.7    4.377      38.212
2015    5        4    20  58    3.9979   478.5    4.379      38.183
2015    5        4    21   4    3.9970   478.3    4.380      38.154
2015    5        4    21   9    3.9962   478.2    4.382      38.124
2015    5        4    21  15    3.9953   478.0    4.384      38.096
2015    5        4    21  21    3.9945   477.8    4.386      38.067
2015    5        4    21  27    3.9937   477.7    4.388      38.039
2015    5        4    21  32    3.9928   477.5    4.389      38.010
2015    5        4    21  38    3.9920   477.3    4.391      37.982
2015    5        4    21  44    3.9912   477.2    4.393      37.954
2015    5        4    21  49    3.9903   477.0    4.395      37.926
2015    5        4    21  55    3.9895   476.8    4.397      37.898
2015    5        4    22   1    3.9886   476.7    4.399      37.870
2015    5        4    22   7    3.9878   476.5    4.401      37.843
2015    5        4    22  12    3.9870   476.3    4.404      37.815
2015    5        4    22  18    3.9862   476.1    4.406      37.787
2015    5        4    22  24    3.9854   476.0    4.408      37.760
2015    5        4    22  30    3.9846   475.8    4.410      37.732
2015    5        4    22  35    3.9838   475.6    4.412      37.705
2015    5        4    22  41    3.9830   475.4    4.414      37.678
2015    5        4    22  47    3.9822   475.3    4.417      37.650
2015    5        4    22  52    3.9815   475.1    4.419      37.623
2015    5        4    22  58    3.9807   474.9    4.421      37.596
2015    5        4    23   4    3.9800   474.7    4.424      37.569
2015    5        4    23  10    3.9792   474.6    4.426      37.542
2015    5        4    23  15    3.9785   474.4    4.428      37.516
2015    5        4    23  21    3.9778   474.2    4.431      37.489
2015    5        4    23  27    3.9771   474.0    4.433      37.463
2015    5        4    23  32    3.9765   473.9    4.436      37.437
2015    5        4    23  38    3.9758   473.7    4.438      37.411
2015    5        4    23  44    3.9752   473.5    4.441      37.385
2015    5        4    23  50    3.9745   473.3    4.443      37.360
2015    5        4    23  55    3.9739   473.2    4.446      37.334
2015    5        5     0   1    3.9733   473.0    4.449      37.309
2015    5        5     0   7    3.9728   472.8    4.451      37.284
2015    5        5     0  12    3.9722   472.6    4.454      37.260
2015    5        5     0  18    3.9717   472.5    4.457      37.235
2015    5        5     0  24    3.9712   472.3    4.460      37.211
2015    5        5     0  30    3.9706   472.1    4.462      37.187
2015    5        5     0  35    3.9701   472.0    4.465      37.163
2015    5        5     0  41    3.9696   471.8    4.468      37.140
2015    5        5     0  47    3.9691   471.6    4.471      37.116
2015    5        5     0  53    3.9686   471.4    4.474      37.093
2015    5        5     0  58    3.9681   471.3    4.476      37.069
2015    5        5     1   4    3.9676   471.1    4.479      37.046
2015    5        5     1  10    3.9672   470.9    4.482      37.023
2015    5        5     1  15    3.9667   470.8    4.485      37.001
2015    5        5     1  21    3.9662   470.6    4.488      36.978
2015    5        5     1  27    3.9657   470.4    4.490      36.955
2015    5        5     1  33    3.9653   470.3    4.493      36.932
2015    5        5     1  38    3.9648   470.1    4.496      36.909
2015    5        5     1  44    3.9644   469.9    4.499      36.886
2015    5        5     1  50    3.9639   469.7    4.501      36.863
2015    5        5     1  55    3.9635   469.6    4.504      36.840
2015    5        5     2   1    3.9630   469.4    4.507      36.817
2015    5        5     2   7    3.9626   469.2    4.510      36.794
2015    5        5     2  13    3.9621   469.1    4.512      36.771
2015    5        5     2  18    3.9617   468.9    4.515      36.748
2015    5        5     2  24    3.9612   468.7    4.518      36.725
2015    5        5     2  30    3.9608   468.6    4.520      36.702
2015    5        5     2  35    3.9604   468.4    4.523      36.678
2015    5        5     2  41    3.9600   468.2    4.525      36.655
2015    5        5     2  47    3.9595   468.0    4.528      36.631
2015    5        5     2  53    3.9591   467.9    4.530      36.608
2015    5        5     2  58    3.9587   467.7    4.533      36.584
2015    5        5     3   4    3.9583   467.5    4.536      36.560
2015    5        5     3  10    3.9579   467.4    4.538      36.536
2015    5        5     3  16    3.9575   467.2    4.540      36.511
2015    5        5     3  21    3.9571   467.0    4.543      36.487
2015    5        5     3  27    3.9567   466.8    4.545      36.463
2015    5        5     3  33    3.9564   466.7    4.548      36.438
2015    5        5     3  38    3.9560   466.5    4.550      36.413
2015    5        5     3  44    3.9556   466.3    4.553      36.388
2015    5        5     3  50    3.9553   466.2    4.555      36.363
2015    5        5     3  56    3.9549   466.0    4.557      36.338
2015    5        5     4   1    3.9546   465.8    4.560      36.313
2015    5        5     4   7    3.9542   465.6    4.562      36.288
2015    5        5     4  13    3.9539   465.5    4.565      36.262
2015    5        5     4  18    3.9536   465.3    4.567      36.237
2015    5        5     4  24    3.9533   465.1    4.569      36.211
2015    5        5     4  30    3.9530   464.9    4.572      36.186
2015    5        5     4  36    3.9527   464.8    4.574      36.160
2015    5        5     4  41    3.9524   464.6    4.577      36.134
2015    5        5     4  47    3.9522   464.4    4.579      36.108
2015    5        5     4  53    3.9520   464.3    4.581      36.083
2015    5        5     4  58    3.9517   464.1    4.584      36.057
2015    5        5     5   4    3.9515   463.9    4.586      36.031
2015    5        5     5  10    3.9513   463.7    4.589      36.005
2015    5        5     5  16    3.9511   463.6    4.592      35.980
2015    5        5     5  21    3.9510   463.4    4.594      35.954
2015    5        5     5  27    3.9508   463.2    4.597      35.928
2015    5        5     5  33    3.9507   463.0    4.600      35.903
2015    5        5     5  39    3.9505   462.9    4.602      35.877
2015    5        5     5  44    3.9505   462.7    4.605      35.852
2015    5        5     5  50    3.9504   462.5    4.608      35.827
2015    5        5     5  56    3.9503   462.4    4.611      35.802
2015    5        5     6   1    3.9502   462.2    4.613      35.777
2015    5        5     6   7    3.9502   462.0    4.616      35.752
2015    5        5     6  13    3.9502   461.8    4.619      35.728
2015    5        5     6  19    3.9502   461.7    4.622      35.703
2015    5        5     6  24    3.9502   461.5    4.625      35.679
2015    5        5     6  30    3.9502   461.3    4.628      35.655
2015    5        5     6  36    3.9503   461.2    4.631      35.631
2015    5        5     6  41    3.9503   461.0    4.634      35.607
2015    5        5     6  47    3.9504   460.8    4.638      35.583
2015    5        5     6  53    3.9505   460.7    4.641      35.560
2015    5        5     6  59    3.9506   460.5    4.644      35.537
2015    5        5     7   4    3.9507   460.3    4.647      35.514
2015    5        5     7  10    3.9508   460.1    4.651      35.490
2015    5        5     7  16    3.9510   460.0    4.654      35.468
2015    5        5     7  21    3.9511   459.8    4.657      35.445
2015    5        5     7  27    3.9513   459.7    4.661      35.423
2015    5        5     7  33    3.9515   459.5    4.664      35.401
2015    5        5     7  39    3.9517   459.3    4.668      35.379
2015    5        5     7  44    3.9519   459.2    4.671      35.357
2015    5        5     7  50    3.9521   459.0    4.675      35.336
2015    5        5     7  56    3.9524   458.8    4.679      35.315
2015    5        5     8   2    3.9526   458.7    4.682      35.294
2015    5        5     8   7    3.9529   458.5    4.686      35.273
2015    5        5     8  13    3.9532   458.3    4.690      35.252
2015    5        5     8  19    3.9535   458.2    4.694      35.232
2015    5        5     8  24    3.9538   458.0    4.697      35.212
2015    5        5     8  30    3.9541   457.9    4.701      35.192
2015    5        5     8  36    3.9545   457.7    4.705      35.172
2015    5        5     8  42    3.9548   457.5    4.709      35.152
2015    5        5     8  47    3.9552   457.4    4.713      35.133
2015    5        5     8  53    3.9556   457.2    4.717      35.114
2015    5        5     8  59    3.9560   457.1    4.721      35.095
2015    5        5     9   4    3.9564   456.9    4.725      35.077
2015    5        5     9  10    3.9568   456.7    4.729      35.059
2015    5        5     9  16    3.9572   456.6    4.734      35.041
2015    5        5     9  22    3.9576   456.4    4.738      35.023
2015    5        5     9  27    3.9580   456.3    4.742      35.005
2015    5        5     9  33    3.9584   456.1    4.746      34.987
2015    5        5     9  39    3.9589   456.0    4.750      34.970
2015    5        5     9  44    3.9593   455.8    4.755      34.953
2015    5        5     9  50    3.9597   455.6    4.759      34.936
2015    5        5     9  56    3.9601   455.5    4.763      34.919
2015    5        5    10   2    3.9605   455.3    4.768      34.902
2015    5        5    10   7    3.9609   455.2    4.772      34.885
2015    5        5    10  13    3.9613   455.0    4.776      34.868
2015    5        5    10  19    3.9617   454.9    4.780      34.851
2015    5        5    10  25    3.9621   454.7    4.785      34.835
2015    5        5    10  30    3.9625   454.6    4.789      34.818
2015    5        5    10  36    3.9629   454.4    4.793      34.801
2015    5        5    10  42    3.9633   454.3    4.797      34.784
2015    5        5    10  47    3.9636   454.1    4.801      34.767
2015    5        5    10  53    3.9640   454.0    4.805      34.750
2015    5        5    10  59    3.9644   453.8    4.809      34.733
2015    5        5    11   5    3.9648   453.7    4.813      34.716
2015    5        5    11  10    3.9652   453.5    4.817      34.699
2015    5        5    11  16    3.9656   453.4    4.821      34.681
2015    5        5    11  22    3.9660   453.2    4.825      34.663
2015    5        5    11  27    3.9664   453.0    4.829      34.646
2015    5        5    11  33    3.9668   452.9    4.833      34.628
2015    5        5    11  39    3.9672   452.7    4.837      34.610
2015    5        5    11  45    3.9677   452.6    4.840      34.592
2015    5        5    11  50    3.9681   452.4    4.844      34.573
2015    5        5    11  56    3.9685   452.3    4.848      34.555
2015    5        5    12   2    3.9690   452.1    4.851      34.536
2015    5        5    12   7    3.9695   452.0    4.855      34.518
2015    5        5    12  13    3.9699   451.8    4.859      34.499
2015    5        5    12  19    3.9704   451.7    4.862      34.480
2015    5        5    12  25    3.9709   451.5    4.866      34.462
2015    5        5    12  30    3.9714   451.4    4.869      34.443
2015    5        5    12  36    3.9719   451.2    4.873      34.424
2015    5        5    12  42    3.9725   451.1    4.876      34.404
2015    5        5    12  48    3.9730   450.9    4.880      34.385
2015    5        5    12  53    3.9736   450.8    4.883      34.366
2015    5        5    12  59    3.9741   450.6    4.886      34.347
2015    5        5    13   5    3.9747   450.5    4.890      34.327
2015    5        5    13  10    3.9753   450.3    4.893      34.308
2015    5        5    13  16    3.9759   450.2    4.897      34.288
2015    5        5    13  22    3.9765   450.0    4.900      34.269
2015    5        5    13  28    3.9771   449.9    4.903      34.249
2015    5        5    13  33    3.9778   449.7    4.907      34.229
2015    5        5    13  39    3.9784   449.6    4.910      34.209
2015    5        5    13  45    3.9791   449.4    4.913      34.189
2015    5        5    13  50    3.9798   449.3    4.917      34.169
2015    5        5    13  56    3.9805   449.1    4.920      34.150
2015    5        5    14   2    3.9812   449.0    4.924      34.130
2015    5        5    14   8    3.9819   448.8    4.927      34.110
2015    5        5    14  13    3.9826   448.7    4.930      34.090
2015    5        5    14  19    3.9834   448.5    4.934      34.070
2015    5        5    14  25    3.9842   448.4    4.937      34.050
2015    5        5    14  30    3.9849   448.2    4.941      34.031
2015    5        5    14  36    3.9857   448.1    4.944      34.011
2015    5        5    14  42    3.9865   447.9    4.948      33.992
2015    5        5    14  48    3.9874   447.8    4.952      33.972
2015    5        5    14  53    3.9882   447.6    4.955      33.953
2015    5        5    14  59    3.9891   447.5    4.959      33.934
2015    5        5    15   5    3.9900   447.3    4.963      33.915
2015    5        5    15  11    3.9909   447.2    4.967      33.897
2015    5        5    15  16    3.9918   447.0    4.970      33.879
2015    5        5    15  22    3.9927   446.9    4.974      33.861
2015    5        5    15  28    3.9937   446.7    4.978      33.843
2015    5        5    15  33    3.9947   446.6    4.982      33.825
2015    5        5    15  39    3.9957   446.5    4.987      33.808
2015    5        5    15  45    3.9967   446.3    4.991      33.791
2015    5        5    15  51    3.9978   446.2    4.995      33.775
2015    5        5    15  56    3.9988   446.0    4.999      33.759
2015    5        5    16   2    3.9999   445.9    5.004      33.743
2015    5        5    16   8    4.0010   445.7    5.008      33.728
2015    5        5    16  13    4.0021   445.6    5.012      33.713
2015    5        5    16  19    4.0033   445.5    5.017      33.698
2015    5        5    16  25    4.0045   445.3    5.022      33.684
2015    5        5    16  31    4.0056   445.2    5.026      33.670
2015    5        5    16  36    4.0068   445.0    5.031      33.656
2015    5        5    16  42    4.0080   444.9    5.036      33.643
2015    5        5    16  48    4.0092   444.8    5.040      33.630
2015    5        5    16  53    4.0104   444.6    5.045      33.618
2015    5        5    16  59    4.0117   444.5    5.050      33.606
2015    5        5    17   5    4.0129   444.4    5.055      33.594
2015    5        5    17  11    4.0141   444.2    5.060      33.582
2015    5        5    17  16    4.0153   444.1    5.065      33.571
2015    5        5    17  22    4.0166   444.0    5.070      33.560
2015    5        5    17  28    4.0178   443.8    5.075      33.550
2015    5        5    17  34    4.0190   443.7    5.080      33.539
2015    5        5    17  39    4.0202   443.6    5.085      33.529
2015    5        5    17  45    4.0214   443.4    5.090      33.519
2015    5        5    17  51    4.0227   443.3    5.096      33.509
2015    5        5    17  56    4.0239   443.2    5.101      33.499
2015    5        5    18   2    4.0251   443.0    5.106      33.490
2015    5        5    18   8    4.0263   442.9    5.111      33.480
2015    5        5    18  14    4.0275   442.8    5.116      33.471
2015    5        5    18  19    4.0287   442.6    5.121      33.462
2015    5        5    18  25    4.0299   442.5    5.126      33.452
2015    5        5    18  31    4.0312   442.4    5.131      33.443
2015    5        5    18  36    4.0324   442.2    5.137      33.434
2015    5        5    18  42    4.0336   442.1    5.142      33.425
2015    5        5    18  48    4.0348   442.0    5.147      33.416
2015    5        5    18  54    4.0360   441.9    5.152      33.406
2015    5        5    18  59    4.0373   441.7    5.157      33.397
2015    5        5    19   5    4.0385   441.6    5.162      33.387
2015    5        5    19  11    4.0397   441.5    5.167      33.378
2015    5        5    19  16    4.0410   441.3    5.171      33.368
2015    5        5    19  22    4.0422   441.2    5.176      33.359
2015    5        5    19  28    4.0435   441.1    5.181      33.349
2015    5        5    19  34    4.0447   440.9    5.186      33.339
2015    5        5    19  39    4.0460   440.8    5.191      33.330
2015    5        5    19  45    4.0472   440.7    5.196      33.319
2015    5        5    19  51    4.0485   440.6    5.201      33.309
2015    5        5    19  57    4.0498   440.4    5.205      33.299
2015    5        5    20   2    4.0511   440.3    5.210      33.289
2015    5        5    20   8    4.0523   440.2    5.215      33.279
2015    5        5    20  14    4.0536   440.0    5.220      33.268
2015    5        5    20  19    4.0549   439.9    5.224      33.258
2015    5        5    20  25    4.0563   439.8    5.229      33.247
2015    5        5    20  31    4.0576   439.6    5.234      33.237
2015    5        5    20  37    4.0589   439.5    5.239      33.226
2015    5        5    20  42    4.0602   439.4    5.243      33.215
2015    5        5    20  48    4.0616   439.3    5.248      33.204
2015    5        5    20  54    4.0630   439.1    5.253      33.193
2015    5        5    20  59    4.0644   439.0    5.258      33.182
2015    5        5    21   5    4.0658   438.9    5.263      33.172
2015    5        5    21  11    4.0672   438.7    5.267      33.161
2015    5        5    21  17    4.0686   438.6    5.272      33.150
2015    5        5    21  22    4.0700   438.5    5.277      33.139
2015    5        5    21  28    4.0715   438.4    5.282      33.129
2015    5        5    21  34    4.0730   438.2    5.287      33.118
2015    5        5    21  39    4.0745   438.1    5.292      33.108
2015    5        5    21  45    4.0760   438.0    5.297      33.097
2015    5        5    21  51    4.0775   437.8    5.302      33.087
2015    5        5    21  57    4.0791   437.7    5.307      33.077
2015    5        5    22   2    4.0807   437.6    5.313      33.068
2015    5        5    22   8    4.0823   437.5    5.318      33.058
2015    5        5    22  14    4.0839   437.3    5.323      33.049
2015    5        5    22  20    4.0856   437.2    5.328      33.040
2015    5        5    22  25    4.0873   437.1    5.334      33.032
2015    5        5    22  31    4.0890   437.0    5.339      33.023
2015    5        5    22  37    4.0907   436.8    5.345      33.015
2015    5        5    22  42    4.0924   436.7    5.350      33.007
2015    5        5    22  48    4.0942   436.6    5.356      33.000
2015    5        5    22  54    4.0959   436.5    5.362      32.993
2015    5        5    23   0    4.0977   436.3    5.367      32.986
2015    5        5    23   5    4.0995   436.2    5.373      32.980
2015    5        5    23  11    4.1014   436.1    5.379      32.973
2015    5        5    23  17    4.1032   436.0    5.384      32.967
2015    5        5    23  22    4.1051   435.9    5.390      32.962
2015    5        5    23  28    4.1070   435.8    5.396      32.956
2015    5        5    23  34    4.1089   435.6    5.402      32.951
2015    5        5    23  40    4.1108   435.5    5.408      32.947
2015    5        5    23  45    4.1127   435.4    5.413      32.942
2015    5        5    23  51    4.1146   435.3    5.419      32.938
2015    5        5    23  57    4.1165   435.2    5.425      32.934
2015    5        6     0   2    4.1185   435.1    5.431      32.931
2015    5        6     0   8    4.1204   434.9    5.437      32.927
2015    5        6     0  14    4.1224   434.8    5.443      32.924
2015    5        6     0  20    4.1244   434.7    5.448      32.922
2015    5        6     0  25    4.1264   434.6    5.454      32.919
2015    5        6     0  31    4.1284   434.5    5.460      32.917
2015    5        6     0  37    4.1304   434.4    5.466      32.915
2015    5        6     0  42    4.1324   434.3    5.471      32.913
2015    5        6     0  48    4.1344   434.2    5.477      32.911
2015    5        6     0  54    4.1364   434.1    5.483      32.910
2015    5        6     1   0    4.1385   433.9    5.489      32.908
2015    5        6     1   5    4.1405   433.8    5.494      32.907
2015    5        6     1  11    4.1426   433.7    5.500      32.906
2015    5        6     1  17    4.1447   433.6    5.506      32.905
2015    5        6     1  23    4.1467   433.5    5.511      32.905
2015    5        6     1  28    4.1488   433.4    5.517      32.904
2015    5        6     1  34    4.1509   433.3    5.523      32.904
2015    5        6     1  40    4.1530   433.2    5.529      32.903
2015    5        6     1  45    4.1551   433.1    5.534      32.903
2015    5        6     1  51    4.1572   433.0    5.540      32.903
2015    5        6     1  57    4.1593   432.9    5.546      32.903
2015    5        6     2   3    4.1615   432.8    5.551      32.903
2015    5        6     2   8    4.1636   432.7    5.557      32.903
2015    5        6     2  14    4.1658   432.6    5.563      32.903
2015    5        6     2  20    4.1679   432.5    5.569      32.904
2015    5        6     2  25    4.1701   432.4    5.574      32.904
2015    5        6     2  31    4.1723   432.3    5.580      32.904
2015    5        6     2  37    4.1744   432.2    5.586      32.905
2015    5        6     2  43    4.1766   432.1    5.592      32.906
2015    5        6     2  48    4.1788   432.0    5.598      32.906
2015    5        6     2  54    4.1810   431.9    5.603      32.907
2015    5        6     3   0    4.1832   431.8    5.609      32.908
2015    5        6     3   5    4.1855   431.7    5.615      32.909
2015    5        6     3  11    4.1877   431.6    5.621      32.910
2015    5        6     3  17    4.1899   431.5    5.627      32.911
2015    5        6     3  23    4.1922   431.4    5.633      32.912
2015    5        6     3  28    4.1944   431.3    5.639      32.913
2015    5        6     3  34    4.1967   431.2    5.645      32.914
2015    5        6     3  40    4.1989   431.1    5.651      32.916
2015    5        6     3  46    4.2012   431.1    5.657      32.917
2015    5        6     3  51    4.2035   431.0    5.663      32.918
2015    5        6     3  57    4.2058   430.9    5.669      32.920
2015    5        6     4   3    4.2081   430.8    5.676      32.922
2015    5        6     4   8    4.2104   430.7    5.682      32.923
2015    5        6     4  14    4.2127   430.6    5.688      32.925
2015    5        6     4  20    4.2150   430.5    5.694      32.927
2015    5        6     4  26    4.2173   430.4    5.701      32.929
2015    5        6     4  31    4.2197   430.3    5.707      32.931
2015    5        6     4  37    4.2220   430.2    5.713      32.933
2015    5        6     4  43    4.2244   430.2    5.720      32.935
2015    5        6     4  48    4.2268   430.1    5.726      32.938
2015    5        6     4  54    4.2292   430.0    5.733      32.940
2015    5        6     5   0    4.2316   429.9    5.739      32.943
2015    5        6     5   6    4.2340   429.8    5.746      32.945
2015    5        6     5  11    4.2364   429.7    5.753      32.948
2015    5        6     5  17    4.2389   429.6    5.759      32.952
2015    5        6     5  23    4.2413   429.6    5.766      32.955
2015    5        6     5  28    4.2438   429.5    5.772      32.959
2015    5        6     5  34    4.2463   429.4    5.779      32.962
2015    5        6     5  40    4.2488   429.3    5.785      32.967
2015    5        6     5  46    4.2513   429.2    5.792      32.971
2015    5        6     5  51    4.2538   429.1    5.798      32.976
2015    5        6     5  57    4.2563   429.1    5.805      32.981
2015    5        6     6   3    4.2588   429.0    5.811      32.987
2015    5        6     6   9    4.2614   428.9    5.818      32.992
2015    5        6     6  14    4.2639   428.8    5.824      32.998
2015    5        6     6  20    4.2664   428.8    5.831      33.005
2015    5        6     6  26    4.2690   428.7    5.837      33.011
2015    5        6     6  31    4.2716   428.6    5.843      33.018
2015    5        6     6  37    4.2741   428.5    5.849      33.024
2015    5        6     6  43    4.2767   428.4    5.856      33.031
2015    5        6     6  49    4.2793   428.4    5.862      33.038
2015    5        6     6  54    4.2819   428.3    5.868      33.045
2015    5        6     7   0    4.2846   428.2    5.874      33.052
2015    5        6     7   6    4.2872   428.1    5.880      33.060
2015    5        6     7  11    4.2898   428.1    5.886      33.067
2015    5        6     7  17    4.2924   428.0    5.892      33.074
2015    5        6     7  23    4.2951   427.9    5.898      33.082
2015    5        6     7  29    4.2977   427.8    5.904      33.089
2015    5        6     7  34    4.3004   427.8    5.909      33.097
2015    5        6     7  40    4.3031   427.7    5.915      33.105
2015    5        6     7  46    4.3057   427.6    5.921      33.112
2015    5        6     7  51    4.3084   427.6    5.926      33.120
2015    5        6     7  57    4.3111   427.5    5.932      33.127
2015    5        6     8   3    4.3138   427.4    5.938      33.135
2015    5        6     8   9    4.3165   427.4    5.943      33.142
2015    5        6     8  14    4.3192   427.3    5.949      33.150
2015    5        6     8  20    4.3220   427.2    5.954      33.157
2015    5        6     8  26    4.3247   427.1    5.959      33.164
2015    5        6     8  32    4.3274   427.1    5.965      33.171
2015    5        6     8  37    4.3301   427.0    5.970      33.178
2015    5        6     8  43    4.3329   426.9    5.975      33.185
2015    5        6     8  49    4.3356   426.9    5.981      33.192
2015    5        6     8  54    4.3384   426.8    5.986      33.199
2015    5        6     9   0    4.3412   426.7    5.991      33.206
2015    5        6     9   6    4.3439   426.7    5.996      33.213
2015    5        6     9  12    4.3467   426.6    6.001      33.220
2015    5        6     9  17    4.3495   426.6    6.007      33.227
2015    5        6     9  23    4.3523   426.5    6.012      33.233
2015    5        6     9  29    4.3551   426.4    6.017      33.240
2015    5        6     9  34    4.3579   426.4    6.022      33.247
2015    5        6     9  40    4.3607   426.3    6.027      33.254
2015    5        6     9  46    4.3635   426.2    6.032      33.261
2015    5        6     9  52    4.3663   426.2    6.038      33.268
2015    5        6     9  57    4.3691   426.1    6.043      33.275
2015    5        6    10   3    4.3720   426.1    6.048      33.282
2015    5        6    10   9    4.3748   426.0    6.053      33.289
2015    5        6    10  14    4.3777   425.9    6.058      33.296
2015    5        6    10  20    4.3805   425.9    6.064      33.303
2015    5        6    10  26    4.3834   425.8    6.069      33.311
2015    5        6    10  32    4.3863   425.8    6.074      33.319
2015    5        6    10  37    4.3891   425.7    6.079      33.326
2015    5        6    10  43    4.3920   425.7    6.085      33.334
2015    5        6    10  49    4.3949   425.6    6.090      33.342
2015    5        6    10  54    4.3978   425.6    6.096      33.350
2015    5        6    11   0    4.4008   425.5    6.101      33.358
2015    5        6    11   6    4.4037   425.5    6.107      33.367
2015    5        6    11  12    4.4066   425.4    6.112      33.376
2015    5        6    11  17    4.4095   425.3    6.118      33.384
2015    5        6    11  23    4.4124   425.3    6.123      33.393
2015    5        6    11  29    4.4154   425.3    6.129      33.403
2015    5        6    11  35    4.4183   425.2    6.134      33.412
2015    5        6    11  40    4.4213   425.2    6.140      33.421
2015    5        6    11  46    4.4242   425.1    6.146      33.431
2015    5        6    11  52    4.4272   425.1    6.152      33.441
2015    5        6    11  57    4.4301   425.0    6.157      33.451
2015    5        6    12   3    4.4331   425.0    6.163      33.461
2015    5        6    12   9    4.4361   424.9    6.169      33.471
2015    5        6    12  15    4.4391   424.9    6.175      33.482
2015    5        6    12  20    4.4420   424.8    6.181      33.492
2015    5        6    12  26    4.4450   424.8    6.187      33.503
2015    5        6    12  32    4.4480   424.7    6.193      33.514
2015    5        6    12  37    4.4510   424.7    6.198      33.525
2015    5        6    12  43    4.4540   424.7    6.204      33.537
2015    5        6    12  49    4.4570   424.6    6.210      33.549
2015    5        6    12  55    4.4600   424.6    6.216      33.561
2015    5        6    13   0    4.4630   424.5    6.222      33.573
2015    5        6    13   6    4.4660   424.5    6.228      33.586
2015    5        6    13  12    4.4690   424.5    6.233      33.598
2015    5        6    13  17    4.4721   424.4    6.239      33.611
2015    5        6    13  23    4.4751   424.4    6.245      33.625
2015    5        6    13  29    4.4781   424.3    6.250      33.639
2015    5        6    13  35    4.4811   424.3    6.256      33.652
2015    5        6    13  40    4.4841   424.3    6.262      33.666
2015    5        6    13  46    4.4871   424.2    6.267      33.680
2015    5        6    13  52    4.4901   424.2    6.273      33.695
2015    5        6    13  58    4.4932   424.1    6.278      33.709
2015    5        6    14   3    4.4962   424.1    6.283      33.724
2015    5        6    14   9    4.4992   424.1    6.289      33.738
2015    5        6    14  15    4.5023   424.0    6.294      33.753
2015    5        6    14  20    4.5053   424.0    6.299      33.767
2015    5        6    14  26    4.5084   424.0    6.305      33.782
2015    5        6    14  32    4.5114   423.9    6.310      33.796
2015    5        6    14  38    4.5145   423.9    6.315      33.811
2015    5        6    14  43    4.5175   423.8    6.320      33.825
2015    5        6    14  49    4.5206   423.8    6.325      33.840
2015    5        6    14  55    4.5237   423.8    6.331      33.854
2015    5        6    15   0    4.5267   423.7    6.336      33.869
2015    5        6    15   6    4.5298   423.7    6.341      33.883
2015    5        6    15  12    4.5329   423.7    6.346      33.897
2015    5        6    15  18    4.5360   423.6    6.351      33.911
2015    5        6    15  23    4.5391   423.6    6.356      33.925
2015    5        6    15  29    4.5422   423.6    6.361      33.939
2015    5        6    15  35    4.5453   423.5    6.366      33.953
2015    5        6    15  40    4.5484   423.5    6.371      33.967
2015    5        6    15  46    4.5515   423.5    6.376      33.981
2015    5        6    15  52    4.5546   423.4    6.381      33.995
2015    5        6    15  58    4.5577   423.4    6.385      34.009
2015    5        6    16   3    4.5608   423.4    6.390      34.024
2015    5        6    16   9    4.5639   423.4    6.395      34.038
2015    5        6    16  15    4.5670   423.3    6.400      34.052
2015    5        6    16  21    4.5701   423.3    6.404      34.067
2015    5        6    16  26    4.5732   423.3    6.409      34.081
2015    5        6    16  32    4.5762   423.3    6.414      34.096
2015    5        6    16  38    4.5793   423.2    6.418      34.111
2015    5        6    16  43    4.5824   423.2    6.423      34.126
2015    5        6    16  49    4.5854   423.2    6.427      34.141
2015    5        6    16  55    4.5885   423.2    6.432      34.156
2015    5        6    17   1    4.5916   423.1    6.436      34.171
2015    5        6    17   6    4.5946   423.1    6.440      34.187
2015    5        6    17  12    4.5977   423.1    6.445      34.202
2015    5        6    17  18    4.6007   423.1    6.449      34.217
2015    5        6    17  23    4.6038   423.0    6.453      34.232
2015    5        6    17  29    4.6068   423.0    6.457      34.248
2015    5        6    17  35    4.6099   423.0    6.462      34.263
2015    5        6    17  41    4.6129   423.0    6.466      34.278
2015    5        6    17  46    4.6160   423.0    6.470      34.294
2015    5        6    17  52    4.6190   422.9    6.474      34.309
2015    5        6    17  58    4.6220   422.9    6.479      34.325
2015    5        6    18   3    4.6251   422.9    6.483      34.340
2015    5        6    18   9    4.6281   422.9    6.487      34.355
2015    5        6    18  15    4.6312   422.9    6.491      34.371
2015    5        6    18  21    4.6342   422.8    6.495      34.386
2015    5        6    18  26    4.6372   422.8    6.499      34.402
2015    5        6    18  32    4.6402   422.8    6.504      34.418
2015    5        6    18  38    4.6433   422.8    6.508      34.434
2015    5        6    18  43    4.6463   422.8    6.512      34.450
2015    5        6    18  49    4.6493   422.8    6.516      34.466
2015    5        6    18  55    4.6523   422.8    6.520      34.482
2015    5        6    19   1    4.6554   422.7    6.524      34.499
2015    5        6    19   6    4.6584   422.7    6.528      34.515
2015    5        6    19  12    4.6614   422.7    6.532      34.532
2015    5        6    19  18    4.6644   422.7    6.536      34.549
2015    5        6    19  24    4.6674   422.7    6.540      34.566
2015    5        6    19  29    4.6704   422.7    6.544      34.582
2015    5        6    19  35    4.6733   422.7    6.548      34.599
2015    5        6    19  41    4.6763   422.7    6.551      34.616
2015    5        6    19  46    4.6793   422.7    6.555      34.633
2015    5        6    19  52    4.6823   422.7    6.559      34.650
2015    5        6    19  58    4.6853   422.6    6.563      34.667
2015    5        6    20   4    4.6882   422.6    6.567      34.684
2015    5        6    20   9    4.6912   422.6    6.570      34.702
2015    5        6    20  15    4.6942   422.6    6.574      34.719
2015    5        6    20  21    4.6971   422.6    6.578      34.736
2015    5        6    20  26    4.7001   422.6    6.582      34.754
2015    5        6    20  32    4.7031   422.6    6.585      34.771
2015    5        6    20  38    4.7060   422.6    6.589      34.789
2015    5        6    20  44    4.7090   422.6    6.593      34.806
2015    5        6    20  49    4.7119   422.6    6.596      34.824
2015    5        6    20  55    4.7149   422.6    6.600      34.842
2015    5        6    21   1    4.7179   422.6    6.604      34.860
2015    5        6    21   6    4.7208   422.6    6.608      34.878
2015    5        6    21  12    4.7238   422.6    6.611      34.896
2015    5        6    21  18    4.7268   422.5    6.615      34.914
2015    5        6    21  24    4.7297   422.5    6.619      34.932
2015    5        6    21  29    4.7327   422.5    6.622      34.950
2015    5        6    21  35    4.7356   422.5    6.626      34.969
2015    5        6    21  41    4.7386   422.5    6.629      34.987
2015    5        6    21  47    4.7416   422.5    6.633      35.006
2015    5        6    21  52    4.7445   422.5    6.637      35.025
2015    5        6    21  58    4.7475   422.5    6.640      35.043
2015    5        6    22   4    4.7504   422.5    6.644      35.062
2015    5        6    22   9    4.7534   422.5    6.647      35.081
2015    5        6    22  15    4.7563   422.5    6.651      35.100
2015    5        6    22  21    4.7593   422.5    6.655      35.119
2015    5        6    22  27    4.7622   422.5    6.658      35.138
2015    5        6    22  32    4.7652   422.5    6.662      35.157
2015    5        6    22  38    4.7682   422.5    6.666      35.177
2015    5        6    22  44    4.7711   422.5    6.669      35.196
2015    5        6    22  49    4.7741   422.5    6.673      35.216
2015    5        6    22  55    4.7770   422.5    6.677      35.235
2015    5        6    23   1    4.7800   422.5    6.681      35.255
2015    5        6    23   7    4.7829   422.5    6.684      35.275
2015    5        6    23  12    4.7858   422.5    6.688      35.295
2015    5        6    23  18    4.7888   422.5    6.692      35.316
2015    5        6    23  24    4.7917   422.5    6.696      35.337
2015    5        6    23  29    4.7946   422.6    6.699      35.358
2015    5        6    23  35    4.7975   422.6    6.703      35.379
2015    5        6    23  41    4.8004   422.6    6.707      35.400
2015    5        6    23  47    4.8033   422.6    6.711      35.421
2015    5        6    23  52    4.8062   422.6    6.715      35.443
2015    5        6    23  58    4.8091   422.6    6.718      35.465
2015    5        7     0   4    4.8119   422.6    6.722      35.487
2015    5        7     0  10    4.8148   422.6    6.726      35.509
2015    5        7     0  15    4.8176   422.6    6.730      35.531
2015    5        7     0  21    4.8205   422.6    6.734      35.553
2015    5        7     0  27    4.8233   422.6    6.738      35.576
2015    5        7     0  32    4.8261   422.6    6.742      35.598
2015    5        7     0  38    4.8289   422.7    6.746      35.621
2015    5        7     0  44    4.8317   422.7    6.750      35.644
2015    5        7     0  50    4.8345   422.7    6.754      35.668
2015    5        7     0  55    4.8372   422.7    6.758      35.693
2015    5        7     1   1    4.8399   422.7    6.762      35.718
2015    5        7     1   7    4.8426   422.7    6.766      35.744
2015    5        7     1  12    4.8453   422.8    6.769      35.770
2015    5        7     1  18    4.8480   422.8    6.773      35.797
2015    5        7     1  24    4.8506   422.8    6.777      35.824
2015    5        7     1  30    4.8532   422.8    6.780      35.852
2015    5        7     1  35    4.8558   422.8    6.783      35.879
2015    5        7     1  41    4.8584   422.9    6.786      35.906
2015    5        7     1  47    4.8609   422.9    6.789      35.933
2015    5        7     1  52    4.8634   422.9    6.792      35.959
2015    5        7     1  58    4.8659   422.9    6.795      35.986
2015    5        7     2   4    4.8684   422.9    6.797      36.013
2015    5        7     2  10    4.8708   423.0    6.800      36.039
2015    5        7     2  15    4.8732   423.0    6.802      36.065
2015    5        7     2  21    4.8756   423.0    6.805      36.091
2015    5        7     2  27    4.8780   423.0    6.807      36.117
2015    5        7     2  33    4.8804   423.1    6.809      36.142
2015    5        7     2  38    4.8828   423.1    6.811      36.167
2015    5        7     2  44    4.8851   423.1    6.813      36.191
2015    5        7     2  50    4.8874   423.1    6.814      36.215
2015    5        7     2  55    4.8897   423.1    6.816      36.239
2015    5        7     3   1    4.8920   423.2    6.818      36.263
2015    5        7     3   7    4.8943   423.2    6.819      36.287
2015    5        7     3  13    4.8966   423.2    6.820      36.310
2015    5        7     3  18    4.8989   423.2    6.822      36.333
2015    5        7     3  24    4.9011   423.3    6.823      36.355
2015    5        7     3  30    4.9034   423.3    6.824      36.378
2015    5        7     3  35    4.9056   423.3    6.826      36.400
2015    5        7     3  41    4.9079   423.3    6.827      36.422
2015    5        7     3  47    4.9101   423.4    6.828      36.444
2015    5        7     3  53    4.9123   423.4    6.829      36.466
2015    5        7     3  58    4.9146   423.4    6.830      36.488
2015    5        7     4   4    4.9168   423.4    6.831      36.509
2015    5        7     4  10    4.9190   423.5    6.832      36.531
2015    5        7     4  15    4.9212   423.5    6.832      36.552
2015    5        7     4  21    4.9234   423.5    6.833      36.573
2015    5        7     4  27    4.9255   423.5    6.834      36.594
2015    5        7     4  33    4.9277   423.6    6.835      36.615
2015    5        7     4  38    4.9299   423.6    6.836      36.636
2015    5        7     4  44    4.9321   423.6    6.836      36.656
2015    5        7     4  50    4.9342   423.6    6.837      36.677
2015    5        7     4  55    4.9364   423.7    6.838      36.698
2015    5        7     5   1    4.9386   423.7    6.839      36.718
2015    5        7     5   7    4.9407   423.7    6.839      36.739
2015    5        7     5  13    4.9429   423.7    6.840      36.760
2015    5        7     5  18    4.9450   423.8    6.841      36.780
2015    5        7     5  24    4.9472   423.8    6.841      36.801
2015    5        7     5  30    4.9493   423.8    6.842      36.821
2015    5        7     5  36    4.9514   423.8    6.843      36.842
2015    5        7     5  41    4.9536   423.9    6.843      36.862
2015    5        7     5  47    4.9557   423.9    6.844      36.883
2015    5        7     5  53    4.9578   423.9    6.845      36.904
2015    5        7     5  58    4.9599   424.0    6.845      36.925
2015    5        7     6   4    4.9620   424.0    6.846      36.945
2015    5        7     6  10    4.9642   424.0    6.847      36.966
2015    5        7     6  16    4.9663   424.0    6.848      36.987
2015    5        7     6  21    4.9684   424.1    6.849      37.008
2015    5        7     6  27    4.9705   424.1    6.850      37.029
2015    5        7     6  33    4.9726   424.1    6.850      37.050
2015    5        7     6  38    4.9747   424.2    6.851      37.072
2015    5        7     6  44    4.9768   424.2    6.852      37.093
2015    5        7     6  50    4.9789   424.2    6.854      37.114
2015    5        7     6  56    4.9810   424.3    6.855      37.136
2015    5        7     7   1    4.9831   424.3    6.856      37.157
2015    5        7     7   7    4.9852   424.3    6.857      37.179
2015    5        7     7  13    4.9873   424.4    6.859      37.201
2015    5        7     7  18    4.9894   424.4    6.860      37.222
2015    5        7     7  24    4.9915   424.4    6.862      37.244
2015    5        7     7  30    4.9935   424.4    6.864      37.266
2015    5        7     7  36    4.9955   424.5    6.865      37.288
2015    5        7     7  41    4.9976   424.5    6.867      37.310
2015    5        7     7  47    4.9996   424.6    6.869      37.332
2015    5        7     7  53    5.0016   424.6    6.872      37.355
2015    5        7     7  59    5.0036   424.6    6.874      37.377
2015    5        7     8   4    5.0055   424.7    6.876      37.401
2015    5        7     8  10    5.0075   424.7    6.878      37.426
2015    5        7     8  16    5.0094   424.7    6.881      37.451
2015    5        7     8  21    5.0113   424.8    6.883      37.477
2015    5        7     8  27    5.0131   424.8    6.885      37.503
2015    5        7     8  33    5.0149   424.9    6.887      37.530
2015    5        7     8  39    5.0167   424.9    6.890      37.558
2015    5        7     8  44    5.0185   424.9    6.892      37.585
2015    5        7     8  50    5.0202   425.0    6.894      37.613
2015    5        7     8  56    5.0219   425.0    6.897      37.640
2015    5        7     9   1    5.0236   425.1    6.899      37.668
2015    5        7     9   7    5.0252   425.1    6.901      37.696
2015    5        7     9  13    5.0268   425.1    6.904      37.724
2015    5        7     9  19    5.0284   425.2    6.906      37.752
2015    5        7     9  24    5.0299   425.2    6.908      37.781
2015    5        7     9  30    5.0314   425.3    6.910      37.810
2015    5        7     9  36    5.0329   425.3    6.912      37.840
2015    5        7     9  41    5.0344   425.4    6.913      37.870
2015    5        7     9  47    5.0358   425.4    6.915      37.900
2015    5        7     9  53    5.0372   425.4    6.916      37.930
2015    5        7     9  59    5.0386   425.5    6.918      37.960
2015    5        7    10   4    5.0400   425.5    6.919      37.989
2015    5        7    10  10    5.0413   425.6    6.920      38.018
2015    5        7    10  16    5.0426   425.6    6.921      38.047
2015    5        7    10  21    5.0439   425.7    6.921      38.075
2015    5        7    10  27    5.0452   425.7    6.922      38.102
2015    5        7    10  33    5.0464   425.8    6.922      38.129
2015    5        7    10  39    5.0477   425.8    6.922      38.156
2015    5        7    10  44    5.0489   425.8    6.922      38.182
2015    5        7    10  50    5.0501   425.9    6.922      38.207
2015    5        7    10  56    5.0512   425.9    6.922      38.232
2015    5        7    11   2    5.0524   426.0    6.922      38.257
2015    5        7    11   7    5.0535   426.0    6.922      38.281
2015    5        7    11  13    5.0547   426.1    6.921      38.304
2015    5        7    11  19    5.0558   426.1    6.921      38.328
2015    5        7    11  24    5.0569   426.2    6.920      38.350
2015    5        7    11  30    5.0580   426.2    6.919      38.373
2015    5        7    11  36    5.0591   426.3    6.918      38.395
2015    5        7    11  42    5.0601   426.3    6.917      38.416
2015    5        7    11  47    5.0612   426.4    6.917      38.437
2015    5        7    11  53    5.0622   426.4    6.915      38.458
2015    5        7    11  59    5.0633   426.5    6.914      38.478
2015    5        7    12   4    5.0643   426.5    6.913      38.498
2015    5        7    12  10    5.0653   426.6    6.912      38.518
2015    5        7    12  16    5.0663   426.6    6.911      38.537
2015    5        7    12  22    5.0673   426.7    6.910      38.556
2015    5        7    12  27    5.0683   426.7    6.908      38.575
2015    5        7    12  33    5.0693   426.8    6.907      38.593
2015    5        7    12  39    5.0702   426.8    6.905      38.612
2015    5        7    12  44    5.0712   426.8    6.904      38.630
2015    5        7    12  50    5.0721   426.9    6.903      38.647
2015    5        7    12  56    5.0731   426.9    6.901      38.665
2015    5        7    13   2    5.0740   427.0    6.900      38.682
2015    5        7    13   7    5.0750   427.0    6.898      38.699
2015    5        7    13  13    5.0759   427.1    6.897      38.716
2015    5        7    13  19    5.0768   427.1    6.895      38.733
2015    5        7    13  25    5.0778   427.2    6.894      38.749
2015    5        7    13  30    5.0787   427.2    6.892      38.766
2015    5        7    13  36    5.0796   427.3    6.891      38.782
2015    5        7    13  42    5.0805   427.3    6.889      38.798
2015    5        7    13  47    5.0815   427.4    6.888      38.815
2015    5        7    13  53    5.0824   427.4    6.886      38.831
2015    5        7    13  59    5.0833   427.5    6.885      38.847
2015    5        7    14   5    5.0842   427.5    6.883      38.863
2015    5        7    14  10    5.0852   427.6    6.882      38.880
2015    5        7    14  16    5.0861   427.6    6.881      38.896
2015    5        7    14  22    5.0870   427.7    6.880      38.913
2015    5        7    14  27    5.0880   427.7    6.879      38.929
2015    5        7    14  33    5.0889   427.8    6.877      38.946
2015    5        7    14  39    5.0898   427.8    6.876      38.962
2015    5        7    14  45    5.0907   427.9    6.876      38.980
2015    5        7    14  50    5.0917   427.9    6.875      38.997
2015    5        7    14  56    5.0926   428.0    6.874      39.014
2015    5        7    15   2    5.0935   428.0    6.874      39.031
2015    5        7    15   7    5.0944   428.1    6.873      39.049
2015    5        7    15  13    5.0953   428.2    6.873      39.067
2015    5        7    15  19    5.0962   428.2    6.873      39.086
2015    5        7    15  25    5.0970   428.3    6.873      39.104
2015    5        7    15  30    5.0979   428.3    6.873      39.123
2015    5        7    15  36    5.0987   428.4    6.873      39.142
2015    5        7    15  42    5.0995   428.4    6.873      39.162
2015    5        7    15  47    5.1003   428.5    6.874      39.182
2015    5        7    15  53    5.1011   428.5    6.875      39.203
2015    5        7    15  59    5.1018   428.6    6.875      39.224
2015    5        7    16   5    5.1026   428.6    6.876      39.246
2015    5        7    16  10    5.1033   428.7    6.877      39.268
2015    5        7    16  16    5.1040   428.8    6.878      39.291
2015    5        7    16  22    5.1046   428.8    6.880      39.314
2015    5        7    16  28    5.1053   428.9    6.881      39.338
2015    5        7    16  33    5.1059   428.9    6.882      39.363
2015    5        7    16  39    5.1065   429.0    6.883      39.388
2015    5        7    16  45    5.1071   429.1    6.884      39.414
2015    5        7    16  50    5.1076   429.1    6.885      39.441
2015    5        7    16  56    5.1081   429.2    6.886      39.468
2015    5        7    17   2    5.1086   429.2    6.887      39.495
2015    5        7    17   8    5.1091   429.3    6.887      39.521
2015    5        7    17  13    5.1095   429.4    6.888      39.548
2015    5        7    17  19    5.1100   429.4    6.888      39.574
2015    5        7    17  25    5.1104   429.5    6.888      39.600
2015    5        7    17  30    5.1108   429.6    6.888      39.625
2015    5        7    17  36    5.1112   429.6    6.887      39.650
2015    5        7    17  42    5.1115   429.7    6.887      39.673
2015    5        7    17  48    5.1118   429.8    6.886      39.697
2015    5        7    17  53    5.1121   429.8    6.885      39.719
2015    5        7    17  59    5.1124   429.9    6.884      39.742
2015    5        7    18   5    5.1127   430.0    6.883      39.763
2015    5        7    18  10    5.1130   430.0    6.881      39.784
2015    5        7    18  16    5.1132   430.1    6.880      39.804
2015    5        7    18  22    5.1135   430.2    6.878      39.824
2015    5        7    18  28    5.1137   430.2    6.876      39.843
2015    5        7    18  33    5.1139   430.3    6.874      39.862
2015    5        7    18  39    5.1141   430.4    6.872      39.880
2015    5        7    18  45    5.1143   430.5    6.870      39.898
2015    5        7    18  51    5.1145   430.5    6.868      39.915
2015    5        7    18  56    5.1146   430.6    6.865      39.931
2015    5        7    19   2    5.1148   430.7    6.863      39.948
2015    5        7    19   8    5.1149   430.7    6.860      39.964
2015    5        7    19  13    5.1150   430.8    6.858      39.979
2015    5        7    19  19    5.1151   430.9    6.855      39.994
2015    5        7    19  25    5.1151   431.0    6.852      40.008
2015    5        7    19  31    5.1152   431.0    6.849      40.022
2015    5        7    19  36    5.1153   431.1    6.846      40.036
2015    5        7    19  42    5.1153   431.2    6.843      40.049
2015    5        7    19  48    5.1153   431.3    6.840      40.062
2015    5        7    19  53    5.1153   431.3    6.836      40.075
2015    5        7    19  59    5.1153   431.4    6.833      40.087
2015    5        7    20   5    5.1153   431.5    6.830      40.099
2015    5        7    20  11    5.1153   431.5    6.826      40.111
2015    5        7    20  16    5.1152   431.6    6.823      40.123
2015    5        7    20  22    5.1152   431.7    6.820      40.134
2015    5        7    20  28    5.1151   431.8    6.816      40.145
2015    5        7    20  33    5.1151   431.8    6.812      40.156
2015    5        7    20  39    5.1150   431.9    6.809      40.166
2015    5        7    20  45    5.1149   432.0    6.805      40.177
2015    5        7    20  51    5.1148   432.1    6.802      40.187
2015    5        7    20  56    5.1148   432.1    6.798      40.197
2015    5        7    21   2    5.1147   432.2    6.795      40.207
2015    5        7    21   8    5.1146   432.3    6.791      40.217
2015    5        7    21  14    5.1145   432.4    6.787      40.227
2015    5        7    21  19    5.1143   432.4    6.784      40.236
2015    5        7    21  25    5.1142   432.5    6.780      40.246
2015    5        7    21  31    5.1141   432.6    6.777      40.256
2015    5        7    21  36    5.1140   432.7    6.773      40.265
2015    5        7    21  42    5.1139   432.7    6.770      40.275
2015    5        7    21  48    5.1138   432.8    6.766      40.285
2015    5        7    21  54    5.1136   432.9    6.763      40.294
2015    5        7    21  59    5.1135   433.0    6.759      40.304
2015    5        7    22   5    5.1134   433.0    6.756      40.314
2015    5        7    22  11    5.1132   433.1    6.753      40.324
2015    5        7    22  16    5.1131   433.2    6.750      40.334
2015    5        7    22  22    5.1129   433.3    6.747      40.345
2015    5        7    22  28    5.1127   433.3    6.744      40.355
2015    5        7    22  34    5.1125   433.4    6.741      40.365
2015    5        7    22  39    5.1123   433.5    6.738      40.376
2015    5        7    22  45    5.1121   433.6    6.735      40.386
2015    5        7    22  51    5.1119   433.6    6.732      40.397
2015    5        7    22  56    5.1116   433.7    6.729      40.407
2015    5        7    23   2    5.1114   433.8    6.727      40.418
2015    5        7    23   8    5.1111   433.9    6.724      40.429
2015    5        7    23  14    5.1109   433.9    6.722      40.441
2015    5        7    23  19    5.1106   434.0    6.720      40.453
2015    5        7    23  25    5.1103   434.1    6.717      40.465
2015    5        7    23  31    5.1099   434.2    6.715      40.478
2015    5        7    23  36    5.1096   434.2    6.713      40.490
2015    5        7    23  42    5.1092   434.3    6.711      40.503
2015    5        7    23  48    5.1088   434.4    6.708      40.515
2015    5        7    23  54    5.1084   434.5    6.706      40.528
2015    5        7    23  59    5.1079   434.5    6.704      40.542
2015    5        8     0   5    5.1074   434.6    6.702      40.556
2015    5        8     0  11    5.1069   434.7    6.700      40.569
2015    5        8     0  17    5.1063   434.8    6.697      40.584
2015    5        8     0  22    5.1057   434.9    6.695      40.598
2015    5        8     0  28    5.1050   434.9    6.692      40.612
2015    5        8     0  34    5.1043   435.0    6.690      40.626
2015    5        8     0  39    5.1036   435.1    6.687      40.639
2015    5        8     0  45    5.1028   435.2    6.684      40.651
2015    5        8     0  51    5.1020   435.2    6.681      40.663
2015    5        8     0  57    5.1011   435.3    6.678      40.674
2015    5        8     1   2    5.1002   435.4    6.675      40.684
2015    5        8     1   8    5.0993   435.5    6.672      40.694
2015    5        8     1  14    5.0983   435.5    6.669      40.703
2015    5        8     1  19    5.0973   435.6    6.665      40.711
2015    5        8     1  25    5.0963   435.7    6.662      40.719
2015    5        8     1  31    5.0953   435.8    6.658      40.726
2015    5        8     1  37    5.0942   435.8    6.655      40.733
2015    5        8     1  42    5.0931   435.9    6.651      40.739
2015    5        8     1  48    5.0919   436.0    6.647      40.744
2015    5        8     1  54    5.0908   436.0    6.643      40.749
2015    5        8     1  59    5.0896   436.1    6.639      40.753
2015    5        8     2   5    5.0884   436.2    6.635      40.757
2015    5        8     2  11    5.0872   436.2    6.630      40.760
2015    5        8     2  17    5.0859   436.3    6.626      40.763
2015    5        8     2  22    5.0846   436.4    6.622      40.766
2015    5        8     2  28    5.0833   436.4    6.617      40.767
2015    5        8     2  34    5.0819   436.5    6.613      40.769
2015    5        8     2  40    5.0806   436.6    6.608      40.770
2015    5        8     2  45    5.0792   436.6    6.603      40.770
2015    5        8     2  51    5.0777   436.7    6.598      40.770
2015    5        8     2  57    5.0763   436.8    6.594      40.770
2015    5        8     3   2    5.0748   436.8    6.589      40.769
2015    5        8     3   8    5.0733   436.9    6.584      40.768
2015    5        8     3  14    5.0718   437.0    6.579      40.766
2015    5        8     3  20    5.0702   437.0    6.573      40.764
2015    5        8     3  25    5.0686   437.1    6.568      40.762
2015    5        8     3  31    5.0670   437.1    6.563      40.759
2015    5        8     3  37    5.0653   437.2    6.558      40.756
2015    5        8     3  42    5.0637   437.3    6.552      40.752
2015    5        8     3  48    5.0620   437.3    6.547      40.748
2015    5        8     3  54    5.0603   437.4    6.542      40.744
2015    5        8     4   0    5.0586   437.4    6.536      40.739
2015    5        8     4   5    5.0568   437.5    6.531      40.734
2015    5        8     4  11    5.0550   437.5    6.525      40.728
2015    5        8     4  17    5.0532   437.6    6.520      40.722
2015    5        8     4  22    5.0514   437.7    6.514      40.716
2015    5        8     4  28    5.0495   437.7    6.508      40.710
2015    5        8     4  34    5.0476   437.8    6.503      40.703
2015    5        8     4  40    5.0457   437.8    6.497      40.696
2015    5        8     4  45    5.0438   437.9    6.491      40.688
2015    5        8     4  51    5.0418   437.9    6.486      40.681
2015    5        8     4  57    5.0398   438.0    6.480      40.672
2015    5        8     5   3    5.0378   438.0    6.474      40.664
2015    5        8     5   8    5.0358   438.1    6.468      40.655
2015    5        8     5  14    5.0338   438.1    6.463      40.646
2015    5        8     5  20    5.0317   438.2    6.457      40.637
2015    5        8     5  25    5.0296   438.2    6.451      40.627
2015    5        8     5  31    5.0275   438.3    6.445      40.617
2015    5        8     5  37    5.0253   438.3    6.439      40.607
2015    5        8     5  43    5.0232   438.3    6.434      40.596
2015    5        8     5  48    5.0210   438.4    6.428      40.585
2015    5        8     5  54    5.0188   438.4    6.422      40.574
2015    5        8     6   0    5.0165   438.5    6.416      40.562
2015    5        8     6   5    5.0143   438.5    6.410      40.550
2015    5        8     6  11    5.0120   438.5    6.404      40.538
2015    5        8     6  17    5.0097   438.6    6.398      40.526
2015    5        8     6  23    5.0074   438.6    6.393      40.513
2015    5        8     6  28    5.0051   438.7    6.387      40.500
2015    5        8     6  34    5.0027   438.7    6.381      40.486
2015    5        8     6  40    5.0004   438.7    6.375      40.473
2015    5        8     6  45    4.9980   438.8    6.369      40.459
2015    5        8     6  51    4.9956   438.8    6.363      40.445
2015    5        8     6  57    4.9932   438.8    6.358      40.430
2015    5        8     7   3    4.9908   438.9    6.352      40.416
2015    5        8     7   8    4.9884   438.9    6.346      40.401
2015    5        8     7  14    4.9859   438.9    6.340      40.385
2015    5        8     7  20    4.9835   439.0    6.335      40.370
2015    5        8     7  25    4.9810   439.0    6.329      40.354
2015    5        8     7  31    4.9786   439.0    6.323      40.338
2015    5        8     7  37    4.9761   439.0    6.318      40.322
2015    5        8     7  43    4.9736   439.1    6.312      40.306
2015    5        8     7  48    4.9711   439.1    6.307      40.289
2015    5        8     7  54    4.9686   439.1    6.301      40.272
2015    5        8     8   0    4.9661   439.1    6.296      40.255
2015    5        8     8   6    4.9636   439.2    6.290      40.238
2015    5        8     8  11    4.9611   439.2    6.285      40.220
2015    5        8     8  17    4.9586   439.2    6.280      40.203
2015    5        8     8  23    4.9561   439.2    6.275      40.185
2015    5        8     8  28    4.9536   439.2    6.270      40.167
2015    5        8     8  34    4.9511   439.2    6.265      40.149
2015    5        8     8  40    4.9486   439.3    6.260      40.130
2015    5        8     8  46    4.9461   439.3    6.255      40.112
2015    5        8     8  51    4.9436   439.3    6.251      40.094
2015    5        8     8  57    4.9411   439.3    6.246      40.075
2015    5        8     9   3    4.9386   439.3    6.242      40.057
2015    5        8     9   8    4.9361   439.3    6.237      40.038
2015    5        8     9  14    4.9336   439.3    6.233      40.020
2015    5        8     9  20    4.9312   439.3    6.229      40.001
2015    5        8     9  26    4.9287   439.4    6.225      39.983
2015    5        8     9  31    4.9263   439.4    6.221      39.964
2015    5        8     9  37    4.9238   439.4    6.218      39.945
2015    5        8     9  43    4.9214   439.4    6.214      39.927
2015    5        8     9  48    4.9189   439.4    6.210      39.908
2015    5        8     9  54    4.9165   439.4    6.207      39.890
2015    5        8    10   0    4.9141   439.4    6.204      39.871
2015    5        8    10   6    4.9117   439.4    6.201      39.853
2015    5        8    10  11    4.9094   439.4    6.198      39.835
2015    5        8    10  17    4.9070   439.4    6.195      39.816
2015    5        8    10  23    4.9046   439.4    6.192      39.798
2015    5        8    10  29    4.9023   439.4    6.189      39.781
2015    5        8    10  34    4.8999   439.4    6.186      39.763
2015    5        8    10  40    4.8976   439.4    6.184      39.745
2015    5        8    10  46    4.8953   439.4    6.181      39.728
2015    5        8    10  51    4.8930   439.4    6.179      39.711
2015    5        8    10  57    4.8907   439.4    6.177      39.694
2015    5        8    11   3    4.8884   439.4    6.175      39.677
2015    5        8    11   9    4.8862   439.4    6.173      39.661
2015    5        8    11  14    4.8839   439.4    6.171      39.645
2015    5        8    11  20    4.8817   439.3    6.169      39.629
2015    5        8    11  26    4.8795   439.3    6.167      39.613
2015    5        8    11  31    4.8772   439.3    6.165      39.598
2015    5        8    11  37    4.8750   439.3    6.164      39.583
2015    5        8    11  43    4.8729   439.3    6.162      39.569
2015    5        8    11  49    4.8707   439.3    6.160      39.555
2015    5        8    11  54    4.8685   439.3    6.159      39.542
2015    5        8    12   0    4.8664   439.3    6.157      39.529
2015    5        8    12   6    4.8643   439.2    6.156      39.516
2015    5        8    12  11    4.8622   439.2    6.154      39.504
2015    5        8    12  17    4.8601   439.2    6.153      39.491
2015    5        8    12  23    4.8581   439.2    6.151      39.479
2015    5        8    12  29    4.8560   439.2    6.150      39.467
2015    5        8    12  34    4.8540   439.2    6.148      39.456
2015    5        8    12  40    4.8521   439.1    6.147      39.444
2015    5        8    12  46    4.8501   439.1    6.146      39.434
2015    5        8    12  51    4.8481   439.1    6.144      39.423
2015    5        8    12  57    4.8462   439.1    6.143      39.413
2015    5        8    13   3    4.8443   439.1    6.141      39.403
2015    5        8    13   9    4.8424   439.0    6.139      39.394
2015    5        8    13  14    4.8405   439.0    6.138      39.384
2015    5        8    13  20    4.8387   439.0    6.136      39.375
2015    5        8    13  26    4.8368   439.0    6.134      39.365
2015    5        8    13  32    4.8350   438.9    6.132      39.355
2015    5        8    13  37    4.8332   438.9    6.130      39.345
2015    5        8    13  43    4.8314   438.9    6.129      39.334
2015    5        8    13  49    4.8296   438.9    6.127      39.323
2015    5        8    13  54    4.8279   438.8    6.125      39.312
2015    5        8    14   0    4.8261   438.8    6.123      39.300
2015    5        8    14   6    4.8244   438.8    6.120      39.288
2015    5        8    14  12    4.8227   438.8    6.118      39.276
2015    5        8    14  17    4.8209   438.7    6.116      39.263
2015    5        8    14  23    4.8192   438.7    6.114      39.249
2015    5        8    14  29    4.8175   438.7    6.112      39.235
2015    5        8    14  34    4.8158   438.7    6.110      39.221
2015    5        8    14  40    4.8141   438.6    6.107      39.207
2015    5        8    14  46    4.8125   438.6    6.105      39.192
2015    5        8    14  52    4.8108   438.6    6.103      39.176
2015    5        8    14  57    4.8091   438.6    6.100      39.161
2015    5        8    15   3    4.8074   438.5    6.098      39.145
2015    5        8    15   9    4.8057   438.5    6.096      39.129
2015    5        8    15  14    4.8041   438.5    6.093      39.112
2015    5        8    15  20    4.8024   438.4    6.091      39.095
2015    5        8    15  26    4.8008   438.4    6.089      39.078
2015    5        8    15  32    4.7991   438.4    6.087      39.061
2015    5        8    15  37    4.7975   438.4    6.084      39.043
2015    5        8    15  43    4.7958   438.3    6.082      39.025
2015    5        8    15  49    4.7942   438.3    6.080      39.007
2015    5        8    15  55    4.7926   438.3    6.078      38.988
2015    5        8    16   0    4.7910   438.2    6.075      38.969
2015    5        8    16   6    4.7894   438.2    6.073      38.950
2015    5        8    16  12    4.7878   438.2    6.071      38.931
2015    5        8    16  17    4.7862   438.1    6.069      38.912
2015    5        8    16  23    4.7846   438.1    6.067      38.892
2015    5        8    16  29    4.7831   438.1    6.065      38.873
2015    5        8    16  35    4.7815   438.0    6.063      38.853
2015    5        8    16  40    4.7800   438.0    6.061      38.833
2015    5        8    16  46    4.7785   438.0    6.059      38.813
2015    5        8    16  52    4.7770   437.9    6.058      38.793
2015    5        8    16  57    4.7754   437.9    6.056      38.773
2015    5        8    17   3    4.7740   437.9    6.054      38.754
2015    5        8    17   9    4.7725   437.8    6.053      38.734
2015    5        8    17  15    4.7710   437.8    6.052      38.714
2015    5        8    17  20    4.7695   437.7    6.050      38.694
2015    5        8    17  26    4.7681   437.7    6.049      38.674
2015    5        8    17  32    4.7667   437.7    6.048      38.654
2015    5        8    17  37    4.7653   437.6    6.047      38.635
2015    5        8    17  43    4.7639   437.6    6.046      38.615
2015    5        8    17  49    4.7625   437.6    6.045      38.596
2015    5        8    17  55    4.7611   437.5    6.045      38.576
2015    5        8    18   0    4.7597   437.5    6.044      38.557
2015    5        8    18   6    4.7584   437.4    6.044      38.538
2015    5        8    18  12    4.7570   437.4    6.043      38.519
2015    5        8    18  18    4.7557   437.3    6.043      38.500
2015    5        8    18  23    4.7544   437.3    6.043      38.481
2015    5        8    18  29    4.7531   437.3    6.043      38.463
2015    5        8    18  35    4.7518   437.2    6.043      38.445
2015    5        8    18  40    4.7505   437.2    6.043      38.427
2015    5        8    18  46    4.7493   437.1    6.044      38.409
2015    5        8    18  52    4.7480   437.1    6.044      38.392
2015    5        8    18  58    4.7468   437.0    6.045      38.374
2015    5        8    19   3    4.7455   437.0    6.045      38.357
2015    5        8    19   9    4.7443   436.9    6.046      38.341
2015    5        8    19  15    4.7431   436.9    6.047      38.325
2015    5        8    19  20    4.7420   436.9    6.048      38.309
2015    5        8    19  26    4.7408   436.8    6.049      38.294
2015    5        8    19  32    4.7397   436.8    6.050      38.279
2015    5        8    19  38    4.7385   436.7    6.051      38.265
2015    5        8    19  43    4.7374   436.7    6.052      38.251
2015    5        8    19  49    4.7363   436.6    6.054      38.237
2015    5        8    19  55    4.7352   436.6    6.055      38.223
2015    5        8    20   0    4.7342   436.5    6.057      38.210
2015    5        8    20   6    4.7331   436.4    6.058      38.197
2015    5        8    20  12    4.7321   436.4    6.059      38.185
2015    5        8    20  18    4.7311   436.3    6.061      38.174
2015    5        8    20  23    4.7301   436.3    6.062      38.163
2015    5        8    20  29    4.7291   436.2    6.064      38.152
2015    5        8    20  35    4.7282   436.2    6.065      38.142
2015    5        8    20  40    4.7273   436.1    6.067      38.132
2015    5        8    20  46    4.7264   436.1    6.069      38.122
2015    5        8    20  52    4.7255   436.0    6.070      38.112
2015    5        8    20  58    4.7246   436.0    6.072      38.102
2015    5        8    21   3    4.7238   435.9    6.073      38.092
2015    5        8    21   9    4.7230   435.9    6.075      38.083
2015    5        8    21  15    4.7222   435.8    6.077      38.073
2015    5        8    21  21    4.7214   435.7    6.078      38.063
2015    5        8    21  26    4.7207   435.7    6.080      38.053
2015    5        8    21  32    4.7200   435.6    6.081      38.043
2015    5        8    21  38    4.7193   435.6    6.083      38.033
2015    5        8    21  43    4.7186   435.5    6.085      38.022
2015    5        8    21  49    4.7180   435.5    6.086      38.012
2015    5        8    21  55    4.7173   435.4    6.088      38.002
2015    5        8    22   1    4.7167   435.3    6.089      37.991
2015    5        8    22   6    4.7161   435.3    6.091      37.980
2015    5        8    22  12    4.7156   435.2    6.093      37.970
2015    5        8    22  18    4.7150   435.2    6.094      37.959
2015    5        8    22  23    4.7145   435.1    6.096      37.948
2015    5        8    22  29    4.7139   435.1    6.097      37.937
2015    5        8    22  35    4.7134   435.0    6.098      37.926
2015    5        8    22  41    4.7130   434.9    6.100      37.915
2015    5        8    22  46    4.7125   434.9    6.101      37.904
2015    5        8    22  52    4.7121   434.8    6.103      37.892
2015    5        8    22  58    4.7117   434.8    6.104      37.881
2015    5        8    23   3    4.7113   434.7    6.105      37.869
2015    5        8    23   9    4.7109   434.6    6.107      37.858
2015    5        8    23  15    4.7105   434.6    6.108      37.846
2015    5        8    23  21    4.7102   434.5    6.109      37.834
2015    5        8    23  26    4.7099   434.5    6.110      37.822
2015    5        8    23  32    4.7096   434.4    6.111      37.810
2015    5        8    23  38    4.7094   434.3    6.112      37.798
2015    5        8    23  44    4.7092   434.3    6.113      37.786
2015    5        8    23  49    4.7090   434.2    6.114      37.774
2015    5        8    23  55    4.7088   434.1    6.115      37.761
2015    5        9     0   1    4.7087   434.1    6.116      37.749
2015    5        9     0   6    4.7086   434.0    6.117      37.736
2015    5        9     0  12    4.7085   434.0    6.118      37.724
2015    5        9     0  18    4.7084   433.9    6.119      37.711
2015    5        9     0  24    4.7084   433.8    6.120      37.698
2015    5        9     0  29    4.7084   433.8    6.121      37.685
2015    5        9     0  35    4.7084   433.7    6.121      37.672
2015    5        9     0  41    4.7084   433.6    6.122      37.659
2015    5        9     0  46    4.7085   433.6    6.123      37.646
2015    5        9     0  52    4.7086   433.5    6.124      37.633
2015    5        9     0  58    4.7087   433.4    6.124      37.619
2015    5        9     1   4    4.7088   433.4    6.125      37.606
2015    5        9     1   9    4.7090   433.3    6.126      37.592
2015    5        9     1  15    4.7092   433.2    6.126      37.579
2015    5        9     1  21    4.7093   433.2    6.127      37.565
2015    5        9     1  26    4.7096   433.1    6.128      37.551
2015    5        9     1  32    4.7098   433.0    6.128      37.537
2015    5        9     1  38    4.7101   433.0    6.129      37.523
2015    5        9     1  44    4.7103   432.9    6.129      37.509
2015    5        9     1  49    4.7107   432.8    6.130      37.495
2015    5        9     1  55    4.7110   432.8    6.131      37.481
2015    5        9     2   1    4.7113   432.7    6.131      37.467
2015    5        9     2   6    4.7116   432.6    6.132      37.452
2015    5        9     2  12    4.7120   432.6    6.132      37.438
2015    5        9     2  18    4.7123   432.5    6.133      37.423
2015    5        9     2  24    4.7127   432.4    6.134      37.409
2015    5        9     2  29    4.7131   432.4    6.135      37.394
2015    5        9     2  35    4.7136   432.3    6.135      37.379
2015    5        9     2  41    4.7140   432.2    6.136      37.365
2015    5        9     2  47    4.7145   432.1    6.137      37.350
2015    5        9     2  52    4.7150   432.1    6.138      37.336
2015    5        9     2  58    4.7155   432.0    6.139      37.321
2015    5        9     3   4    4.7160   431.9    6.140      37.307
2015    5        9     3   9    4.7166   431.8    6.141      37.293
2015    5        9     3  15    4.7171   431.8    6.143      37.279
2015    5        9     3  21    4.7177   431.7    6.144      37.265
2015    5        9     3  27    4.7183   431.6    6.146      37.251
2015    5        9     3  32    4.7190   431.5    6.147      37.237
2015    5        9     3  38    4.7196   431.5    6.149      37.224
2015    5        9     3  44    4.7203   431.4    6.150      37.211
2015    5        9     3  49    4.7210   431.3    6.152      37.198
2015    5        9     3  55    4.7218   431.2    6.154      37.186
2015    5        9     4   1    4.7226   431.2    6.156      37.173
2015    5        9     4   7    4.7233   431.1    6.159      37.161
2015    5        9     4  12    4.7241   431.0    6.161      37.150
2015    5        9     4  18    4.7250   430.9    6.163      37.138
2015    5        9     4  24    4.7259   430.9    6.166      37.127
2015    5        9     4  29    4.7268   430.8    6.168      37.117
2015    5        9     4  35    4.7277   430.7    6.171      37.106
2015    5        9     4  41    4.7286   430.6    6.174      37.096
2015    5        9     4  47    4.7296   430.6    6.177      37.086
2015    5        9     4  52    4.7306   430.5    6.180      37.077
2015    5        9     4  58    4.7316   430.4    6.183      37.068
2015    5        9     5   4    4.7327   430.3    6.186      37.059
2015    5        9     5  10    4.7338   430.2    6.190      37.050
2015    5        9     5  15    4.7349   430.2    6.193      37.042
2015    5        9     5  21    4.7360   430.1    6.197      37.034
2015    5        9     5  27    4.7372   430.0    6.200      37.027
2015    5        9     5  32    4.7384   429.9    6.204      37.019
2015    5        9     5  38    4.7396   429.9    6.207      37.012
2015    5        9     5  44    4.7409   429.8    6.211      37.005
2015    5        9     5  50    4.7422   429.7    6.215      36.999
2015    5        9     5  55    4.7435   429.6    6.219      36.992
2015    5        9     6   1    4.7448   429.5    6.223      36.986
2015    5        9     6   7    4.7462   429.4    6.227      36.980
2015    5        9     6  12    4.7476   429.4    6.231      36.974
2015    5        9     6  18    4.7491   429.3    6.235      36.968
2015    5        9     6  24    4.7506   429.2    6.239      36.962
2015    5        9     6  30    4.7521   429.1    6.243      36.957
2015    5        9     6  35    4.7537   429.0    6.248      36.952
2015    5        9     6  41    4.7552   428.9    6.252      36.946
2015    5        9     6  47    4.7569   428.8    6.256      36.941
2015    5        9     6  52    4.7586   428.8    6.260      36.936
2015    5        9     6  58    4.7603   428.7    6.265      36.931
2015    5        9     7   4    4.7621   428.6    6.269      36.926
2015    5        9     7  10    4.7639   428.5    6.274      36.921
2015    5        9     7  15    4.7658   428.4    6.278      36.916
2015    5        9     7  21    4.7678   428.3    6.283      36.911
2015    5        9     7  27    4.7697   428.2    6.288      36.907
2015    5        9     7  32    4.7718   428.1    6.293      36.902
2015    5        9     7  38    4.7739   428.0    6.298      36.898
2015    5        9     7  44    4.7761   427.9    6.303      36.894
2015    5        9     7  50    4.7784   427.8    6.308      36.890
2015    5        9     7  55    4.7807   427.7    6.313      36.887
2015    5        9     8   1    4.7832   427.6    6.319      36.883
2015    5        9     8   7    4.7857   427.5    6.324      36.881
2015    5        9     8  13    4.7883   427.4    6.330      36.878
2015    5        9     8  18    4.7910   427.3    6.336      36.877
2015    5        9     8  24    4.7938   427.2    6.342      36.875
2015    5        9     8  30    4.7968   427.1    6.349      36.874
2015    5        9     8  35    4.7998   427.0    6.356      36.873
2015    5        9     8  41    4.8031   426.9    6.363      36.874
2015    5        9     8  47    4.8064   426.8    6.371      36.876
2015    5        9     8  53    4.8098   426.7    6.378      36.880
2015    5        9     8  58    4.8134   426.6    6.386      36.883
2015    5        9     9   4    4.8172   426.5    6.394      36.888
2015    5        9     9  10    4.8210   426.4    6.402      36.894
2015    5        9     9  15    4.8250   426.3    6.411      36.901
2015    5        9     9  21    4.8289   426.2    6.419      36.910
2015    5        9     9  27    4.8330   426.2    6.428      36.919
2015    5        9     9  33    4.8371   426.1    6.436      36.930
2015    5        9     9  38    4.8412   426.0    6.445      36.941
2015    5        9     9  44    4.8453   425.9    6.453      36.953
2015    5        9     9  50    4.8495   425.9    6.461      36.966
2015    5        9     9  55    4.8535   425.8    6.469      36.979
2015    5        9    10   1    4.8576   425.7    6.477      36.991
2015    5        9    10   7    4.8616   425.7    6.484      37.003
2015    5        9    10  13    4.8656   425.6    6.491      37.015
2015    5        9    10  18    4.8696   425.5    6.499      37.026
2015    5        9    10  24    4.8735   425.5    6.506      37.037
2015    5        9    10  30    4.8775   425.4    6.512      37.048
2015    5        9    10  36    4.8814   425.3    6.519      37.058
2015    5        9    10  41    4.8852   425.3    6.526      37.068
2015    5        9    10  47    4.8891   425.2    6.532      37.077
2015    5        9    10  53    4.8929   425.1    6.538      37.086
2015    5        9    10  58    4.8967   425.1    6.545      37.095
2015    5        9    11   4    4.9005   425.0    6.551      37.104
2015    5        9    11  10    4.9043   425.0    6.557      37.112
2015    5        9    11  16    4.9081   424.9    6.563      37.120
2015    5        9    11  21    4.9119   424.9    6.569      37.127
2015    5        9    11  27    4.9157   424.8    6.574      37.135
2015    5        9    11  33    4.9195   424.7    6.580      37.142
2015    5        9    11  38    4.9232   424.7    6.586      37.150
2015    5        9    11  44    4.9270   424.6    6.592      37.157
2015    5        9    11  50    4.9308   424.6    6.598      37.163
2015    5        9    11  56    4.9346   424.5    6.603      37.170
2015    5        9    12   1    4.9384   424.5    6.609      37.177
2015    5        9    12   7    4.9422   424.4    6.615      37.183
2015    5        9    12  13    4.9460   424.4    6.621      37.189
2015    5        9    12  18    4.9499   424.3    6.626      37.196
2015    5        9    12  24    4.9538   424.2    6.632      37.202
2015    5        9    12  30    4.9577   424.2    6.638      37.208
2015    5        9    12  36    4.9616   424.1    6.644      37.214
2015    5        9    12  41    4.9656   424.1    6.650      37.220
2015    5        9    12  47    4.9696   424.0    6.656      37.226
2015    5        9    12  53    4.9736   424.0    6.662      37.233
2015    5        9    12  58    4.9776   423.9    6.668      37.239
2015    5        9    13   4    4.9818   423.9    6.674      37.245
2015    5        9    13  10    4.9859   423.8    6.680      37.252
2015    5        9    13  16    4.9901   423.8    6.687      37.259
2015    5        9    13  21    4.9943   423.7    6.693      37.266
2015    5        9    13  27    4.9986   423.7    6.700      37.273
2015    5        9    13  33    5.0029   423.6    6.706      37.281
2015    5        9    13  39    5.0073   423.6    6.713      37.289
2015    5        9    13  44    5.0118   423.5    6.720      37.297
2015    5        9    13  50    5.0163   423.5    6.728      37.306
2015    5        9    13  56    5.0209   423.4    6.735      37.316
2015    5        9    14   1    5.0255   423.4    6.743      37.327
2015    5        9    14   7    5.0302   423.3    6.751      37.338
2015    5        9    14  13    5.0350   423.3    6.759      37.350
2015    5        9    14  19    5.0399   423.2    6.768      37.363
2015    5        9    14  24    5.0449   423.2    6.777      37.377
2015    5        9    14  30    5.0499   423.1    6.786      37.392
2015    5        9    14  36    5.0550   423.1    6.796      37.407
2015    5        9    14  41    5.0602   423.0    6.806      37.424
2015    5        9    14  47    5.0655   423.0    6.816      37.442
2015    5        9    14  53    5.0709   423.0    6.827      37.462
2015    5        9    14  59    5.0765   422.9    6.839      37.482
2015    5        9    15   4    5.0821   422.9    6.851      37.504
2015    5        9    15  10    5.0879   422.8    6.863      37.528
2015    5        9    15  16    5.0938   422.8    6.876      37.553
2015    5        9    15  21    5.0998   422.8    6.890      37.579
2015    5        9    15  27    5.1060   422.7    6.904      37.607
2015    5        9    15  33    5.1124   422.7    6.919      37.638
2015    5        9    15  39    5.1190   422.7    6.935      37.672
2015    5        9    15  44    5.1257   422.7    6.951      37.708
2015    5        9    15  50    5.1325   422.6    6.968      37.747
2015    5        9    15  56    5.1395   422.6    6.985      37.788
2015    5        9    16   2    5.1466   422.6    7.002      37.832
2015    5        9    16   7    5.1538   422.6    7.020      37.878
2015    5        9    16  13    5.1612   422.6    7.038      37.927
2015    5        9    16  19    5.1686   422.6    7.056      37.978
2015    5        9    16  24    5.1760   422.6    7.075      38.031
2015    5        9    16  30    5.1835   422.6    7.093      38.087
2015    5        9    16  36    5.1910   422.6    7.111      38.145
2015    5        9    16  42    5.1985   422.6    7.128      38.205
2015    5        9    16  47    5.2060   422.7    7.145      38.267
2015    5        9    16  53    5.2134   422.7    7.162      38.328
2015    5        9    16  59    5.2207   422.7    7.178      38.390
2015    5        9    17   4    5.2280   422.7    7.194      38.451
2015    5        9    17  10    5.2352   422.8    7.209      38.512
2015    5        9    17  16    5.2423   422.8    7.224      38.571
2015    5        9    17  22    5.2493   422.8    7.238      38.629
2015    5        9    17  27    5.2563   422.9    7.252      38.685
2015    5        9    17  33    5.2631   422.9    7.265      38.741
2015    5        9    17  39    5.2700   422.9    7.278      38.795
2015    5        9    17  44    5.2768   423.0    7.290      38.847
2015    5        9    17  50    5.2835   423.0    7.302      38.899
2015    5        9    17  56    5.2902   423.0    7.313      38.950
2015    5        9    18   2    5.2969   423.1    7.325      38.999
2015    5        9    18   7    5.3035   423.1    7.335      39.047
2015    5        9    18  13    5.3101   423.1    7.346      39.094
2015    5        9    18  19    5.3167   423.2    7.356      39.141
2015    5        9    18  24    5.3232   423.2    7.366      39.186
2015    5        9    18  30    5.3298   423.2    7.376      39.231
2015    5        9    18  36    5.3363   423.3    7.385      39.275
2015    5        9    18  42    5.3429   423.3    7.395      39.318
2015    5        9    18  47    5.3494   423.3    7.404      39.361
2015    5        9    18  53    5.3559   423.4    7.413      39.403
2015    5        9    18  59    5.3625   423.4    7.422      39.444
2015    5        9    19   5    5.3691   423.4    7.431      39.486
2015    5        9    19  10    5.3757   423.5    7.439      39.526
2015    5        9    19  16    5.3822   423.5    7.448      39.566
2015    5        9    19  22    5.3888   423.5    7.456      39.606
2015    5        9    19  27    5.3955   423.6    7.464      39.646
2015    5        9    19  33    5.4021   423.6    7.473      39.686
2015    5        9    19  39    5.4088   423.6    7.481      39.725
2015    5        9    19  45    5.4154   423.7    7.489      39.764
2015    5        9    19  50    5.4222   423.7    7.497      39.803
2015    5        9    19  56    5.4289   423.7    7.505      39.842
2015    5        9    20   2    5.4356   423.8    7.513      39.881
2015    5        9    20   7    5.4424   423.8    7.521      39.920
2015    5        9    20  13    5.4493   423.9    7.529      39.959
2015    5        9    20  19    5.4561   423.9    7.537      39.998
2015    5        9    20  25    5.4630   423.9    7.545      40.038
2015    5        9    20  30    5.4699   424.0    7.553      40.078
2015    5        9    20  36    5.4768   424.0    7.561      40.118
2015    5        9    20  42    5.4838   424.1    7.569      40.158
2015    5        9    20  47    5.4908   424.1    7.577      40.199
2015    5        9    20  53    5.4979   424.2    7.586      40.241
2015    5        9    20  59    5.5050   424.2    7.594      40.283
2015    5        9    21   5    5.5121   424.3    7.602      40.326
2015    5        9    21  10    5.5193   424.3    7.611      40.370
2015    5        9    21  16    5.5266   424.4    7.619      40.415
2015    5        9    21  22    5.5338   424.5    7.628      40.460
2015    5        9    21  28    5.5411   424.5    7.637      40.507
2015    5        9    21  33    5.5485   424.6    7.646      40.554
2015    5        9    21  39    5.5559   424.7    7.656      40.602
2015    5        9    21  45    5.5633   424.7    7.665      40.652
2015    5        9    21  50    5.5708   424.8    7.675      40.702
2015    5        9    21  56    5.5784   424.9    7.685      40.753
2015    5        9    22   2    5.5859   425.0    7.695      40.805
2015    5        9    22   8    5.5936   425.1    7.705      40.858
2015    5        9    22  13    5.6013   425.1    7.716      40.913
2015    5        9    22  19    5.6090   425.2    7.727      40.968
2015    5        9    22  25    5.6169   425.3    7.738      41.025
2015    5        9    22  30    5.6247   425.4    7.750      41.082
2015    5        9    22  36    5.6327   425.5    7.762      41.140
2015    5        9    22  42    5.6407   425.6    7.774      41.200
2015    5        9    22  48    5.6488   425.7    7.787      41.261
2015    5        9    22  53    5.6570   425.8    7.800      41.325
2015    5        9    22  59    5.6653   425.9    7.813      41.390
2015    5        9    23   5    5.6736   426.0    7.826      41.457
2015    5        9    23  10    5.6819   426.1    7.840      41.526
2015    5        9    23  16    5.6903   426.2    7.854      41.596
2015    5        9    23  22    5.6988   426.3    7.869      41.668
2015    5        9    23  28    5.7073   426.4    7.883      41.741
2015    5        9    23  33    5.7159   426.6    7.898      41.816
2015    5        9    23  39    5.7245   426.7    7.913      41.893
2015    5        9    23  45    5.7331   426.8    7.928      41.973
2015    5        9    23  51    5.7417   426.9    7.943      42.054
2015    5        9    23  56    5.7503   427.1    7.957      42.138
2015    5       10     0   2    5.7589   427.2    7.972      42.223
2015    5       10     0   8    5.7674   427.4    7.986      42.310
2015    5       10     0  13    5.7759   427.5    8.000      42.398
2015    5       10     0  19    5.7843   427.7    8.014      42.486
2015    5       10     0  25    5.7927   427.8    8.028      42.573
2015    5       10     0  31    5.8011   428.0    8.042      42.660
2015    5       10     0  36    5.8094   428.1    8.056      42.748
2015    5       10     0  42    5.8177   428.3    8.070      42.835
2015    5       10     0  48    5.8259   428.4    8.083      42.922
2015    5       10     0  53    5.8342   428.6    8.097      43.009
2015    5       10     0  59    5.8424   428.7    8.110      43.096
2015    5       10     1   5    5.8506   428.9    8.124      43.183
2015    5       10     1  11    5.8589   429.0    8.138      43.270
2015    5       10     1  16    5.8672   429.2    8.152      43.356
2015    5       10     1  22    5.8755   429.3    8.165      43.445
2015    5       10     1  28    5.8838   429.5    8.179      43.535
2015    5       10     1  33    5.8921   429.7    8.193      43.627
2015    5       10     1  39    5.9004   429.8    8.206      43.719
2015    5       10     1  45    5.9086   430.0    8.219      43.812
2015    5       10     1  51    5.9168   430.2    8.232      43.906
2015    5       10     1  56    5.9249   430.3    8.244      44.001
2015    5       10     2   2    5.9329   430.5    8.256      44.095
2015    5       10     2   8    5.9409   430.7    8.267      44.187
2015    5       10     2  13    5.9488   430.9    8.278      44.278
2015    5       10     2  19    5.9567   431.0    8.288      44.367
2015    5       10     2  25    5.9644   431.2    8.298      44.456
2015    5       10     2  31    5.9721   431.4    8.307      44.542
2015    5       10     2  36    5.9797   431.5    8.316      44.627
2015    5       10     2  42    5.9872   431.7    8.324      44.711
2015    5       10     2  48    5.9946   431.9    8.332      44.794
2015    5       10     2  54    6.0019   432.1    8.339      44.874
2015    5       10     2  59    6.0092   432.3    8.345      44.953
2015    5       10     3   5    6.0164   432.4    8.351      45.031
2015    5       10     3  11    6.0236   432.6    8.357      45.107
2015    5       10     3  16    6.0306   432.8    8.362      45.181
2015    5       10     3  22    6.0376   433.0    8.366      45.255
2015    5       10     3  28    6.0446   433.1    8.370      45.327
2015    5       10     3  34    6.0514   433.3    8.374      45.397
2015    5       10     3  39    6.0582   433.5    8.378      45.467
2015    5       10     3  45    6.0650   433.7    8.380      45.535
2015    5       10     3  51    6.0717   433.9    8.383      45.602
2015    5       10     3  56    6.0783   434.1    8.385      45.667
2015    5       10     4   2    6.0849   434.3    8.387      45.732
2015    5       10     4   8    6.0915   434.4    8.388      45.796
2015    5       10     4  14    6.0980   434.6    8.390      45.859
2015    5       10     4  19    6.1045   434.8    8.390      45.920
2015    5       10     4  25    6.1109   435.0    8.391      45.981
2015    5       10     4  31    6.1174   435.2    8.392      46.041
2015    5       10     4  36    6.1238   435.4    8.392      46.101
2015    5       10     4  42    6.1302   435.6    8.392      46.160
2015    5       10     4  48    6.1366   435.8    8.392      46.218
2015    5       10     4  54    6.1431   436.0    8.391      46.276
2015    5       10     4  59    6.1495   436.2    8.391      46.333
2015    5       10     5   5    6.1559   436.3    8.391      46.390
2015    5       10     5  11    6.1624   436.5    8.390      46.447
2015    5       10     5  17    6.1689   436.7    8.389      46.504
2015    5       10     5  22    6.1754   436.9    8.389      46.561
2015    5       10     5  28    6.1819   437.1    8.388      46.617
2015    5       10     5  34    6.1885   437.3    8.388      46.675
2015    5       10     5  39    6.1951   437.5    8.387      46.732
2015    5       10     5  45    6.2017   437.7    8.386      46.789
2015    5       10     5  51    6.2084   437.9    8.386      46.847
2015    5       10     5  57    6.2151   438.1    8.385      46.906
2015    5       10     6   2    6.2219   438.3    8.385      46.965
2015    5       10     6   8    6.2287   438.5    8.385      47.025
2015    5       10     6  14    6.2355   438.7    8.385      47.085
2015    5       10     6  19    6.2424   438.9    8.384      47.146
2015    5       10     6  25    6.2494   439.1    8.385      47.208
2015    5       10     6  31    6.2563   439.3    8.385      47.271
2015    5       10     6  37    6.2634   439.5    8.385      47.334
2015    5       10     6  42    6.2704   439.7    8.386      47.399
2015    5       10     6  48    6.2775   440.0    8.386      47.464
2015    5       10     6  54    6.2847   440.2    8.387      47.531
2015    5       10     6  59    6.2919   440.4    8.388      47.598
2015    5       10     7   5    6.2992   440.6    8.390      47.666
2015    5       10     7  11    6.3065   440.8    8.391      47.736
2015    5       10     7  17    6.3139   441.0    8.393      47.806
2015    5       10     7  22    6.3213   441.3    8.395      47.879
2015    5       10     7  28    6.3288   441.5    8.398      47.952
2015    5       10     7  34    6.3363   441.7    8.401      48.026
2015    5       10     7  39    6.3439   441.9    8.404      48.102
2015    5       10     7  45    6.3515   442.2    8.408      48.179
2015    5       10     7  51    6.3592   442.4    8.412      48.258
2015    5       10     7  57    6.3669   442.6    8.417      48.338
2015    5       10     8   2    6.3747   442.8    8.423      48.419
2015    5       10     8   8    6.3824   443.1    8.429      48.502
2015    5       10     8  14    6.3903   443.3    8.435      48.587
2015    5       10     8  20    6.3982   443.5    8.442      48.674
2015    5       10     8  25    6.4061   443.7    8.450      48.762
2015    5       10     8  31    6.4141   444.0    8.459      48.851
2015    5       10     8  37    6.4221   444.2    8.468      48.944
2015    5       10     8  42    6.4300   444.4    8.478      49.041
2015    5       10     8  48    6.4380   444.7    8.488      49.140
2015    5       10     8  54    6.4460   444.9    8.498      49.242
2015    5       10     9   0    6.4539   445.2    8.509      49.347
2015    5       10     9   5    6.4617   445.4    8.520      49.454
2015    5       10     9  11    6.4695   445.7    8.531      49.564
2015    5       10     9  17    6.4772   445.9    8.543      49.674
2015    5       10     9  22    6.4848   446.2    8.555      49.787
2015    5       10     9  28    6.4923   446.4    8.566      49.902
2015    5       10     9  34    6.4997   446.7    8.578      50.018
2015    5       10     9  40    6.5070   446.9    8.590      50.135
2015    5       10     9  45    6.5143   447.1    8.602      50.253
2015    5       10     9  51    6.5214   447.4    8.613      50.371
2015    5       10     9  57    6.5285   447.7    8.625      50.492
2015    5       10    10   2    6.5355   447.9    8.636      50.615
2015    5       10    10   8    6.5424   448.2    8.647      50.739
2015    5       10    10  14    6.5493   448.4    8.657      50.864
2015    5       10    10  20    6.5560   448.7    8.667      50.989
2015    5       10    10  25    6.5627   449.0    8.676      51.116
2015    5       10    10  31    6.5694   449.2    8.685      51.243
2015    5       10    10  37    6.5759   449.5    8.692      51.369
2015    5       10    10  43    6.5823   449.8    8.699      51.492
2015    5       10    10  48    6.5887   450.1    8.704      51.613
2015    5       10    10  54    6.5949   450.3    8.709      51.730
2015    5       10    11   0    6.6010   450.6    8.713      51.845
2015    5       10    11   5    6.6071   450.9    8.717      51.958
2015    5       10    11  11    6.6130   451.2    8.719      52.067
2015    5       10    11  17    6.6189   451.5    8.721      52.175
2015    5       10    11  23    6.6246   451.8    8.721      52.279
2015    5       10    11  28    6.6303   452.1    8.721      52.381
2015    5       10    11  34    6.6360   452.4    8.721      52.480
2015    5       10    11  40    6.6416   452.6    8.720      52.576
2015    5       10    11  45    6.6472   452.9    8.718      52.670
2015    5       10    11  51    6.6527   453.2    8.715      52.762
2015    5       10    11  57    6.6582   453.5    8.712      52.852
2015    5       10    12   3    6.6636   453.9    8.709      52.939
2015    5       10    12   8    6.6691   454.2    8.705      53.025
2015    5       10    12  14    6.6746   454.5    8.700      53.109
2015    5       10    12  20    6.6800   454.8    8.696      53.192
2015    5       10    12  25    6.6855   455.1    8.691      53.273
2015    5       10    12  31    6.6909   455.4    8.685      53.353
2015    5       10    12  37    6.6964   455.7    8.680      53.431
2015    5       10    12  43    6.7019   456.0    8.674      53.509
2015    5       10    12  48    6.7074   456.4    8.668      53.586
2015    5       10    12  54    6.7130   456.7    8.662      53.662
2015    5       10    13   0    6.7185   457.0    8.656      53.737
2015    5       10    13   5    6.7241   457.3    8.650      53.813
2015    5       10    13  11    6.7297   457.6    8.644      53.887
2015    5       10    13  17    6.7354   458.0    8.638      53.962
2015    5       10    13  23    6.7411   458.3    8.632      54.036
2015    5       10    13  28    6.7468   458.6    8.626      54.111
2015    5       10    13  34    6.7526   458.9    8.620      54.185
2015    5       10    13  40    6.7585   459.2    8.614      54.260
2015    5       10    13  46    6.7645   459.6    8.608      54.335
2015    5       10    13  51    6.7706   459.9    8.603      54.410
2015    5       10    13  57    6.7768   460.2    8.598      54.487
2015    5       10    14   3    6.7831   460.6    8.593      54.564
2015    5       10    14   8    6.7896   460.9    8.589      54.642
2015    5       10    14  14    6.7964   461.2    8.585      54.722
2015    5       10    14  20    6.8034   461.5    8.582      54.805
2015    5       10    14  26    6.8107   461.9    8.580      54.889
2015    5       10    14  31    6.8183   462.2    8.579      54.975
2015    5       10    14  37    6.8260   462.5    8.578      55.066
2015    5       10    14  43    6.8339   462.9    8.579      55.164
2015    5       10    14  48    6.8419   463.3    8.580      55.270
2015    5       10    14  54    6.8498   463.7    8.582      55.385
2015    5       10    15   0    6.8577   464.1    8.583      55.508
2015    5       10    15   6    6.8655   464.5    8.585      55.638
2015    5       10    15  11    6.8731   464.9    8.586      55.772
2015    5       10    15  17    6.8806   465.4    8.587      55.908
2015    5       10    15  23    6.8878   465.8    8.587      56.042
2015    5       10    15  28    6.8947   466.2    8.587      56.175
2015    5       10    15  34    6.9014   466.7    8.586      56.306
2015    5       10    15  40    6.9077   467.1    8.585      56.434
2015    5       10    15  46    6.9138   467.5    8.583      56.559
2015    5       10    15  51    6.9196   468.0    8.580      56.682
2015    5       10    15  57    6.9252   468.4    8.577      56.802
2015    5       10    16   3    6.9306   468.8    8.574      56.919
2015    5       10    16   9    6.9359   469.2    8.571      57.035
2015    5       10    16  14    6.9409   469.6    8.568      57.148
2015    5       10    16  20    6.9459   470.0    8.565      57.260
2015    5       10    16  26    6.9508   470.4    8.562      57.370
2015    5       10    16  31    6.9555   470.8    8.559      57.480
2015    5       10    16  37    6.9602   471.1    8.557      57.590
2015    5       10    16  43    6.9648   471.5    8.555      57.701
2015    5       10    16  49    6.9694   471.9    8.554      57.813
2015    5       10    16  54    6.9740   472.2    8.553      57.926
2015    5       10    17   0    6.9785   472.6    8.552      58.040
2015    5       10    17   6    6.9831   472.9    8.551      58.155
2015    5       10    17  11    6.9877   473.3    8.551      58.271
2015    5       10    17  17    6.9922   473.6    8.551      58.390
2015    5       10    17  23    6.9968   474.0    8.551      58.512
2015    5       10    17  29    7.0014   474.4    8.550      58.636
2015    5       10    17  34    7.0061   474.7    8.550      58.761
2015    5       10    17  40    7.0107   475.1    8.549      58.887
2015    5       10    17  46    7.0154   475.4    8.548      59.016
2015    5       10    17  51    7.0200   475.8    8.546      59.146
2015    5       10    17  57    7.0246   476.2    8.544      59.273
2015    5       10    18   3    7.0292   476.6    8.542      59.399
2015    5       10    18   9    7.0338   476.9    8.538      59.522
2015    5       10    18  14    7.0383   477.3    8.535      59.644
2015    5       10    18  20    7.0428   477.7    8.530      59.763
2015    5       10    18  26    7.0472   478.1    8.526      59.880
2015    5       10    18  31    7.0516   478.5    8.520      59.995
2015    5       10    18  37    7.0559   478.9    8.514      60.107
2015    5       10    18  43    7.0602   479.3    8.508      60.217
2015    5       10    18  49    7.0645   479.7    8.501      60.325
2015    5       10    18  54    7.0687   480.1    8.494      60.429
2015    5       10    19   0    7.0730   480.5    8.486      60.531
2015    5       10    19   6    7.0771   480.9    8.478      60.631
2015    5       10    19  12    7.0813   481.4    8.469      60.729
2015    5       10    19  17    7.0854   481.8    8.460      60.825
2015    5       10    19  23    7.0895   482.2    8.450      60.918
2015    5       10    19  29    7.0935   482.7    8.440      61.010
2015    5       10    19  34    7.0975   483.1    8.430      61.102
2015    5       10    19  40    7.1013   483.6    8.419      61.194
2015    5       10    19  46    7.1051   484.0    8.407      61.283
2015    5       10    19  52    7.1087   484.5    8.396      61.370
2015    5       10    19  57    7.1123   485.0    8.384      61.455
2015    5       10    20   3    7.1158   485.4    8.372      61.539
2015    5       10    20   9    7.1192   485.9    8.359      61.620
2015    5       10    20  14    7.1226   486.3    8.347      61.698
2015    5       10    20  20    7.1260   486.8    8.335      61.775
2015    5       10    20  26    7.1295   487.2    8.324      61.853
2015    5       10    20  32    7.1331   487.7    8.312      61.930
2015    5       10    20  37    7.1367   488.1    8.301      62.007
2015    5       10    20  43    7.1403   488.5    8.290      62.084
2015    5       10    20  49    7.1440   489.0    8.279      62.163
2015    5       10    20  54    7.1477   489.4    8.269      62.244
2015    5       10    21   0    7.1516   489.8    8.259      62.328
2015    5       10    21   6    7.1555   490.3    8.249      62.414
2015    5       10    21  12    7.1595   490.8    8.240      62.505
2015    5       10    21  17    7.1637   491.2    8.231      62.602
2015    5       10    21  23    7.1680   491.7    8.222      62.704
2015    5       10    21  29    7.1724   492.2    8.214      62.810
2015    5       10    21  35    7.1769   492.7    8.207      62.920
2015    5       10    21  40    7.1814   493.3    8.200      63.034
2015    5       10    21  46    7.1861   493.8    8.193      63.150
2015    5       10    21  52    7.1907   494.3    8.187      63.266
2015    5       10    21  57    7.1955   494.7    8.182      63.381
2015    5       10    22   3    7.2001   495.3    8.177      63.500
2015    5       10    22   9    7.2048   495.8    8.173      63.626
2015    5       10    22  15    7.2093   496.3    8.168      63.759
2015    5       10    22  20    7.2137   496.8    8.164      63.899
2015    5       10    22  26    7.2178   497.4    8.159      64.047
2015    5       10    22  32    7.2218   498.0    8.154      64.202
2015    5       10    22  37    7.2256   498.5    8.148      64.360
2015    5       10    22  43    7.2291   499.1    8.142      64.517
2015    5       10    22  49    7.2324   499.7    8.135      64.673
2015    5       10    22  55    7.2355   500.3    8.127      64.826
2015    5       10    23   0    7.2382   500.9    8.117      64.977
2015    5       10    23   6    7.2407   501.5    8.107      65.125
2015    5       10    23  12    7.2430   502.1    8.096      65.270
2015    5       10    23  17    7.2450   502.7    8.085      65.412
2015    5       10    23  23    7.2469   503.3    8.072      65.549
2015    5       10    23  29    7.2487   503.9    8.059      65.682
2015    5       10    23  35    7.2503   504.5    8.045      65.811
2015    5       10    23  40    7.2518   505.1    8.030      65.936
2015    5       10    23  46    7.2532   505.7    8.016      66.059
2015    5       10    23  52    7.2545   506.2    8.001      66.178
2015    5       10    23  58    7.2557   506.8    7.985      66.293
2015    5       11     0   3    7.2569   507.4    7.969      66.404
2015    5       11     0   9    7.2581   508.0    7.954      66.513
2015    5       11     0  15    7.2592   508.6    7.937      66.620
2015    5       11     0  20    7.2603   509.2    7.921      66.726
2015    5       11     0  26    7.2613   509.8    7.904      66.831
2015    5       11     0  32    7.2623   510.4    7.887      66.934
2015    5       11     0  38    7.2631   511.0    7.870      67.040
2015    5       11     0  43    7.2639   511.6    7.852      67.147
2015    5       11     0  49    7.2645   512.3    7.833      67.257
2015    5       11     0  55    7.2649   512.9    7.813      67.367
2015    5       11     1   0    7.2651   513.6    7.793      67.476
2015    5       11     1   6    7.2649   514.3    7.772      67.583
2015    5       11     1  12    7.2644   514.9    7.749      67.688
2015    5       11     1  18    7.2633   515.6    7.726      67.789
2015    5       11     1  23    7.2617   516.3    7.700      67.884
2015    5       11     1  29    7.2594   517.0    7.673      67.971
2015    5       11     1  35    7.2566   517.6    7.645      68.043
2015    5       11     1  40    7.2532   518.2    7.615      68.106
2015    5       11     1  46    7.2494   518.8    7.586      68.159
2015    5       11     1  52    7.2453   519.4    7.556      68.204
2015    5       11     1  58    7.2411   520.0    7.526      68.244
2015    5       11     2   3    7.2367   520.6    7.497      68.279
2015    5       11     2   9    7.2324   521.1    7.468      68.311
2015    5       11     2  15    7.2281   521.7    7.440      68.346
2015    5       11     2  20    7.2239   522.2    7.413      68.382
2015    5       11     2  26    7.2198   522.8    7.386      68.418
2015    5       11     2  32    7.2157   523.3    7.359      68.456
2015    5       11     2  38    7.2116   523.9    7.332      68.495
2015    5       11     2  43    7.2076   524.5    7.306      68.533
2015    5       11     2  49    7.2035   525.0    7.281      68.571
2015    5       11     2  55    7.1996   525.6    7.255      68.612
2015    5       11     3   1    7.1955   526.2    7.230      68.655
2015    5       11     3   6    7.1914   526.8    7.205      68.699
2015    5       11     3  12    7.1872   527.4    7.180      68.743
2015    5       11     3  18    7.1830   528.0    7.155      68.785
2015    5       11     3  23    7.1787   528.6    7.130      68.827
2015    5       11     3  29    7.1743   529.2    7.106      68.868
2015    5       11     3  35    7.1699   529.7    7.082      68.907
2015    5       11     3  41    7.1655   530.3    7.058      68.944
2015    5       11     3  46    7.1612   530.8    7.035      68.981
2015    5       11     3  52    7.1570   531.4    7.013      69.019
2015    5       11     3  58    7.1528   531.9    6.991      69.056
2015    5       11     4   3    7.1487   532.5    6.970      69.094
2015    5       11     4   9    7.1447   533.0    6.949      69.133
2015    5       11     4  15    7.1408   533.5    6.929      69.175
2015    5       11     4  21    7.1369   534.0    6.910      69.221
2015    5       11     4  26    7.1332   534.5    6.891      69.270
2015    5       11     4  32    7.1296   535.1    6.872      69.324
2015    5       11     4  38    7.1261   535.6    6.855      69.383
2015    5       11     4  43    7.1226   536.2    6.838      69.450
2015    5       11     4  49    7.1193   536.7    6.821      69.522
2015    5       11     4  55    7.1160   537.3    6.805      69.600
2015    5       11     5   1    7.1127   537.9    6.789      69.683
2015    5       11     5   6    7.1093   538.5    6.773      69.769
2015    5       11     5  12    7.1059   539.1    6.758      69.860
2015    5       11     5  18    7.1024   539.6    6.742      69.950
2015    5       11     5  24    7.0987   540.2    6.727      70.041
2015    5       11     5  29    7.0950   540.8    6.711      70.132
2015    5       11     5  35    7.0912   541.4    6.696      70.222
2015    5       11     5  41    7.0872   541.9    6.680      70.313
2015    5       11     5  46    7.0832   542.5    6.665      70.403
2015    5       11     5  52    7.0790   543.1    6.650      70.494
2015    5       11     5  58    7.0749   543.7    6.634      70.584
2015    5       11     6   4    7.0706   544.2    6.619      70.675
2015    5       11     6   9    7.0663   544.8    6.603      70.767
2015    5       11     6  15    7.0619   545.4    6.587      70.859
2015    5       11     6  21    7.0575   546.0    6.571      70.950
2015    5       11     6  26    7.0530   546.6    6.555      71.039
2015    5       11     6  32    7.0484   547.2    6.539      71.126
2015    5       11     6  38    7.0438   547.8    6.522      71.211
2015    5       11     6  44    7.0391   548.4    6.506      71.292
2015    5       11     6  49    7.0342   549.0    6.489      71.369
2015    5       11     6  55    7.0293   549.6    6.472      71.443
2015    5       11     7   1    7.0242   550.2    6.454      71.514
2015    5       11     7   6    7.0190   550.8    6.437      71.584
2015    5       11     7  12    7.0137   551.4    6.419      71.648
2015    5       11     7  18    7.0083   552.0    6.400      71.709
2015    5       11     7  24    7.0027   552.6    6.382      71.764
2015    5       11     7  29    6.9970   553.2    6.363      71.818
2015    5       11     7  35    6.9910   553.9    6.343      71.870
2015    5       11     7  41    6.9848   554.5    6.322      71.911
2015    5       11     7  46    6.9781   555.2    6.300      71.946
2015    5       11     7  52    6.9713   555.8    6.278      71.979
2015    5       11     7  58    6.9642   556.5    6.256      72.009
2015    5       11     8   4    6.9569   557.1    6.233      72.037
2015    5       11     8   9    6.9493   557.8    6.210      72.063
2015    5       11     8  15    6.9415   558.5    6.186      72.090
2015    5       11     8  21    6.9334   559.2    6.161      72.116
2015    5       11     8  27    6.9251   559.9    6.136      72.142
2015    5       11     8  32    6.9164   560.6    6.109      72.164
2015    5       11     8  38    6.9073   561.3    6.082      72.183
2015    5       11     8  44    6.8976   562.0    6.053      72.188
2015    5       11     8  49    6.8876   562.7    6.023      72.182
2015    5       11     8  55    6.8773   563.4    5.994      72.166
2015    5       11     9   1    6.8667   564.0    5.964      72.140
2015    5       11     9   7    6.8561   564.7    5.935      72.106
2015    5       11     9  12    6.8455   565.2    5.906      72.069
2015    5       11     9  18    6.8349   565.8    5.878      72.027
2015    5       11     9  24    6.8245   566.3    5.852      71.986
2015    5       11     9  29    6.8143   566.9    5.826      71.949
2015    5       11     9  35    6.8044   567.4    5.801      71.916
2015    5       11     9  41    6.7946   567.9    5.777      71.887
2015    5       11     9  47    6.7850   568.4    5.754      71.863
2015    5       11     9  52    6.7755   568.9    5.731      71.844
2015    5       11     9  58    6.7662   569.5    5.709      71.830
2015    5       11    10   4    6.7570   570.0    5.688      71.826
2015    5       11    10   9    6.7479   570.6    5.667      71.831
2015    5       11    10  15    6.7389   571.1    5.647      71.841
2015    5       11    10  21    6.7301   571.7    5.627      71.857
2015    5       11    10  27    6.7213   572.3    5.608      71.876
2015    5       11    10  32    6.7125   572.9    5.589      71.897
2015    5       11    10  38    6.7038   573.4    5.570      71.915
2015    5       11    10  44    6.6951   573.9    5.552      71.931
2015    5       11    10  50    6.6863   574.5    5.534      71.944
2015    5       11    10  55    6.6776   575.0    5.515      71.956
2015    5       11    11   1    6.6688   575.5    5.498      71.966
2015    5       11    11   7    6.6600   576.0    5.480      71.976
2015    5       11    11  12    6.6513   576.4    5.463      71.984
2015    5       11    11  18    6.6426   576.9    5.446      71.991
2015    5       11    11  24    6.6339   577.4    5.429      71.999
2015    5       11    11  30    6.6253   577.9    5.413      72.007
2015    5       11    11  35    6.6167   578.3    5.397      72.016
2015    5       11    11  41    6.6081   578.8    5.381      72.025
2015    5       11    11  47    6.5995   579.3    5.365      72.039
2015    5       11    11  52    6.5909   579.8    5.349      72.058
2015    5       11    11  58    6.5822   580.3    5.334      72.079
2015    5       11    12   4    6.5735   580.9    5.318      72.099
2015    5       11    12  10    6.5647   581.4    5.302      72.120
2015    5       11    12  15    6.5559   581.9    5.287      72.141
2015    5       11    12  21    6.5472   582.4    5.271      72.160
2015    5       11    12  27    6.5385   582.9    5.256      72.175
2015    5       11    12  32    6.5298   583.4    5.241      72.188
2015    5       11    12  38    6.5212   583.8    5.226      72.200
2015    5       11    12  44    6.5126   584.3    5.212      72.213
2015    5       11    12  50    6.5041   584.7    5.197      72.225
2015    5       11    12  55    6.4957   585.2    5.183      72.236
2015    5       11    13   1    6.4873   585.6    5.170      72.247
2015    5       11    13   7    6.4788   586.1    5.156      72.259
2015    5       11    13  12    6.4704   586.5    5.142      72.272
2015    5       11    13  18    6.4619   587.0    5.129      72.290
2015    5       11    13  24    6.4534   587.5    5.115      72.312
2015    5       11    13  30    6.4448   588.0    5.101      72.338
2015    5       11    13  35    6.4361   588.5    5.087      72.363
2015    5       11    13  41    6.4274   589.0    5.073      72.387
2015    5       11    13  47    6.4186   589.5    5.058      72.410
2015    5       11    13  53    6.4097   590.0    5.044      72.431
2015    5       11    13  58    6.4007   590.5    5.029      72.445
2015    5       11    14   4    6.3917   591.0    5.015      72.452
2015    5       11    14  10    6.3825   591.4    5.000      72.454
2015    5       11    14  15    6.3731   591.9    4.984      72.456
2015    5       11    14  21    6.3635   592.4    4.968      72.456
2015    5       11    14  27    6.3537   592.9    4.951      72.446
2015    5       11    14  33    6.3436   593.4    4.934      72.427
2015    5       11    14  38    6.3333   593.9    4.917      72.402
2015    5       11    14  44    6.3230   594.4    4.900      72.370
2015    5       11    14  50    6.3127   594.8    4.883      72.329
2015    5       11    14  55    6.3024   595.1    4.867      72.282
2015    5       11    15   1    6.2923   595.5    4.851      72.236
2015    5       11    15   7    6.2823   595.9    4.836      72.192
2015    5       11    15  13    6.2725   596.2    4.821      72.152
2015    5       11    15  18    6.2629   596.6    4.807      72.118
2015    5       11    15  24    6.2533   596.9    4.793      72.088
2015    5       11    15  30    6.2440   597.3    4.779      72.067
2015    5       11    15  35    6.2348   597.7    4.766      72.052
2015    5       11    15  41    6.2257   598.1    4.754      72.042
2015    5       11    15  47    6.2168   598.6    4.741      72.038
2015    5       11    15  53    6.2080   599.0    4.729      72.035
2015    5       11    15  58    6.1992   599.4    4.718      72.028
2015    5       11    16   4    6.1905   599.7    4.706      72.019
2015    5       11    16  10    6.1818   600.1    4.694      72.010
2015    5       11    16  16    6.1730   600.5    4.683      72.000
2015    5       11    16  21    6.1643   600.8    4.671      71.989
2015    5       11    16  27    6.1555   601.2    4.660      71.978
2015    5       11    16  33    6.1468   601.5    4.648      71.966
2015    5       11    16  38    6.1381   601.9    4.637      71.953
2015    5       11    16  44    6.1295   602.2    4.626      71.939
2015    5       11    16  50    6.1210   602.5    4.615      71.925
2015    5       11    16  56    6.1126   602.8    4.604      71.911
2015    5       11    17   1    6.1042   603.1    4.594      71.897
2015    5       11    17   7    6.0960   603.4    4.583      71.884
2015    5       11    17  13    6.0878   603.7    4.573      71.876
2015    5       11    17  18    6.0798   604.0    4.563      71.873
2015    5       11    17  24    6.0718   604.3    4.553      71.873
2015    5       11    17  30    6.0640   604.7    4.543      71.876
2015    5       11    17  36    6.0561   605.0    4.533      71.881
2015    5       11    17  41    6.0485   605.4    4.524      71.891
2015    5       11    17  47    6.0408   605.7    4.514      71.902
2015    5       11    17  53    6.0333   606.1    4.505      71.915
2015    5       11    17  58    6.0257   606.5    4.496      71.930
2015    5       11    18   4    6.0183   606.9    4.487      71.944
2015    5       11    18  10    6.0108   607.2    4.477      71.956
2015    5       11    18  16    6.0033   607.6    4.468      71.965
2015    5       11    18  21    5.9958   608.0    4.458      71.972
2015    5       11    18  27    5.9882   608.4    4.448      71.978
2015    5       11    18  33    5.9807   608.7    4.439      71.980
2015    5       11    18  38    5.9731   609.1    4.429      71.978
2015    5       11    18  44    5.9656   609.5    4.419      71.974
2015    5       11    18  50    5.9581   609.8    4.409      71.968
2015    5       11    18  56    5.9506   610.2    4.399      71.961
2015    5       11    19   1    5.9432   610.6    4.389      71.955
2015    5       11    19   7    5.9357   611.0    4.378      71.951
2015    5       11    19  13    5.9281   611.4    4.368      71.949
2015    5       11    19  19    5.9206   611.8    4.357      71.944
2015    5       11    19  24    5.9130   612.2    4.347      71.938
2015    5       11    19  30    5.9054   612.7    4.336      71.931
2015    5       11    19  36    5.8978   613.1    4.325      71.919
2015    5       11    19  41    5.8902   613.4    4.315      71.902
2015    5       11    19  47    5.8828   613.8    4.305      71.880
2015    5       11    19  53    5.8754   614.1    4.295      71.858
2015    5       11    19  59    5.8681   614.4    4.285      71.837
2015    5       11    20   4    5.8609   614.7    4.275      71.814
2015    5       11    20  10    5.8537   615.0    4.266      71.791
2015    5       11    20  16    5.8467   615.3    4.257      71.769
2015    5       11    20  21    5.8397   615.6    4.248      71.749
2015    5       11    20  27    5.8327   615.8    4.240      71.730
2015    5       11    20  33    5.8258   616.1    4.231      71.719
2015    5       11    20  39    5.8189   616.5    4.223      71.713
2015    5       11    20  44    5.8120   616.8    4.214      71.712
2015    5       11    20  50    5.8051   617.1    4.206      71.712
2015    5       11    20  56    5.7982   617.5    4.198      71.714
2015    5       11    21   1    5.7914   617.8    4.190      71.717
2015    5       11    21   7    5.7846   618.2    4.181      71.717
2015    5       11    21  13    5.7778   618.5    4.173      71.713
2015    5       11    21  19    5.7710   618.8    4.165      71.706
2015    5       11    21  24    5.7642   619.0    4.156      71.697
2015    5       11    21  30    5.7573   619.3    4.148      71.686
2015    5       11    21  36    5.7504   619.6    4.139      71.674
2015    5       11    21  42    5.7434   620.0    4.130      71.664
2015    5       11    21  47    5.7364   620.3    4.121      71.653
2015    5       11    21  53    5.7294   620.6    4.112      71.643
2015    5       11    21  59    5.7223   621.0    4.103      71.631
2015    5       11    22   4    5.7153   621.3    4.094      71.617
2015    5       11    22  10    5.7084   621.6    4.085      71.599
2015    5       11    22  16    5.7016   621.8    4.077      71.578
2015    5       11    22  22    5.6949   622.1    4.068      71.557
2015    5       11    22  27    5.6883   622.3    4.060      71.535
2015    5       11    22  33    5.6817   622.6    4.052      71.517
2015    5       11    22  39    5.6753   622.8    4.044      71.501
2015    5       11    22  44    5.6689   623.1    4.036      71.489
2015    5       11    22  50    5.6627   623.4    4.029      71.485
2015    5       11    22  56    5.6564   623.7    4.021      71.487
2015    5       11    23   2    5.6503   624.0    4.014      71.493
2015    5       11    23   7    5.6441   624.3    4.007      71.503
2015    5       11    23  13    5.6380   624.7    4.000      71.514
2015    5       11    23  19    5.6320   625.0    3.993      71.523
2015    5       11    23  24    5.6259   625.3    3.986      71.528
2015    5       11    23  30    5.6197   625.6    3.978      71.531
2015    5       11    23  36    5.6135   625.9    3.971      71.532
2015    5       11    23  42    5.6073   626.2    3.964      71.532
2015    5       11    23  47    5.6010   626.5    3.957      71.531
2015    5       11    23  53    5.5946   626.9    3.950      71.531
2015    5       11    23  59    5.5882   627.2    3.942      71.529
2015    5       12     0   4    5.5817   627.5    3.935      71.526
2015    5       12     0  10    5.5753   627.8    3.928      71.521
2015    5       12     0  16    5.5688   628.1    3.921      71.514
2015    5       12     0  22    5.5624   628.4    3.913      71.505
2015    5       12     0  27    5.5560   628.6    3.906      71.494
2015    5       12     0  33    5.5496   628.9    3.899      71.481
2015    5       12     0  39    5.5432   629.1    3.893      71.466
2015    5       12     0  45    5.5370   629.4    3.886      71.452
2015    5       12     0  50    5.5307   629.6    3.879      71.437
2015    5       12     0  56    5.5245   629.9    3.872      71.423
2015    5       12     1   2    5.5183   630.2    3.865      71.410
2015    5       12     1   7    5.5122   630.4    3.859      71.399
2015    5       12     1  13    5.5060   630.7    3.852      71.389
2015    5       12     1  19    5.4999   631.0    3.845      71.381
2015    5       12     1  25    5.4939   631.3    3.839      71.372
2015    5       12     1  30    5.4878   631.5    3.832      71.362
2015    5       12     1  36    5.4818   631.8    3.826      71.349
2015    5       12     1  42    5.4757   632.1    3.819      71.335
2015    5       12     1  47    5.4696   632.3    3.812      71.320
2015    5       12     1  53    5.4636   632.6    3.806      71.303
2015    5       12     1  59    5.4575   632.9    3.799      71.286
2015    5       12     2   5    5.4515   633.1    3.792      71.267
2015    5       12     2  10    5.4454   633.4    3.786      71.247
2015    5       12     2  16    5.4394   633.6    3.779      71.226
2015    5       12     2  22    5.4334   633.9    3.772      71.205
2015    5       12     2  27    5.4275   634.1    3.766      71.182
2015    5       12     2  33    5.4215   634.4    3.759      71.159
2015    5       12     2  39    5.4156   634.6    3.752      71.136
2015    5       12     2  45    5.4098   634.8    3.746      71.112
2015    5       12     2  50    5.4040   635.1    3.739      71.089
2015    5       12     2  56    5.3982   635.3    3.733      71.066
2015    5       12     3   2    5.3924   635.5    3.726      71.043
2015    5       12     3   8    5.3867   635.8    3.720      71.020
2015    5       12     3  13    5.3811   636.0    3.714      70.997
2015    5       12     3  19    5.3754   636.2    3.707      70.975
2015    5       12     3  25    5.3698   636.5    3.701      70.954
2015    5       12     3  30    5.3643   636.7    3.695      70.933
2015    5       12     3  36    5.3587   636.9    3.689      70.913
2015    5       12     3  42    5.3532   637.1    3.683      70.893
2015    5       12     3  48    5.3477   637.3    3.678      70.874
2015    5       12     3  53    5.3423   637.5    3.672      70.856
2015    5       12     3  59    5.3369   637.8    3.666      70.838
2015    5       12     4   5    5.3315   638.0    3.661      70.822
2015    5       12     4  10    5.3261   638.2    3.655      70.806
2015    5       12     4  16    5.3207   638.4    3.649      70.790
2015    5       12     4  22    5.3154   638.6    3.644      70.776
2015    5       12     4  28    5.3101   638.8    3.638      70.762
2015    5       12     4  33    5.3048   639.0    3.633      70.748
2015    5       12     4  39    5.2995   639.2    3.628      70.735
2015    5       12     4  45    5.2943   639.4    3.622      70.723
2015    5       12     4  50    5.2891   639.6    3.617      70.710
2015    5       12     4  56    5.2839   639.8    3.612      70.698
2015    5       12     5   2    5.2787   640.0    3.606      70.686
2015    5       12     5   8    5.2736   640.2    3.601      70.675
2015    5       12     5  13    5.2686   640.4    3.596      70.664
2015    5       12     5  19    5.2635   640.6    3.591      70.653
2015    5       12     5  25    5.2585   640.8    3.586      70.642
2015    5       12     5  30    5.2535   641.0    3.580      70.632
2015    5       12     5  36    5.2486   641.2    3.575      70.622
2015    5       12     5  42    5.2437   641.4    3.570      70.612
2015    5       12     5  48    5.2388   641.6    3.565      70.603
2015    5       12     5  53    5.2339   641.8    3.560      70.594
2015    5       12     5  59    5.2291   642.0    3.556      70.585
2015    5       12     6   5    5.2242   642.2    3.551      70.576
2015    5       12     6  11    5.2194   642.4    3.546      70.568
2015    5       12     6  16    5.2146   642.6    3.541      70.560
2015    5       12     6  22    5.2099   642.8    3.537      70.553
2015    5       12     6  28    5.2051   643.0    3.532      70.546
2015    5       12     6  33    5.2003   643.2    3.527      70.539
2015    5       12     6  39    5.1955   643.4    3.523      70.533
2015    5       12     6  45    5.1907   643.6    3.519      70.527
2015    5       12     6  51    5.1860   643.8    3.514      70.522
2015    5       12     6  56    5.1811   643.9    3.510      70.516
2015    5       12     7   2    5.1764   644.1    3.506      70.510
2015    5       12     7   8    5.1715   644.3    3.502      70.504
2015    5       12     7  13    5.1667   644.5    3.497      70.498
2015    5       12     7  19    5.1619   644.7    3.493      70.490
2015    5       12     7  25    5.1571   644.9    3.489      70.481
2015    5       12     7  31    5.1523   645.1    3.485      70.471
2015    5       12     7  36    5.1474   645.3    3.481      70.459
2015    5       12     7  42    5.1426   645.4    3.477      70.446
2015    5       12     7  48    5.1378   645.6    3.473      70.432
2015    5       12     7  53    5.1330   645.8    3.468      70.417
2015    5       12     7  59    5.1282   646.0    3.464      70.400
2015    5       12     8   5    5.1234   646.1    3.460      70.382
2015    5       12     8  11    5.1186   646.3    3.456      70.364
2015    5       12     8  16    5.1138   646.5    3.452      70.344
2015    5       12     8  22    5.1090   646.6    3.447      70.324
2015    5       12     8  28    5.1043   646.8    3.443      70.303
2015    5       12     8  33    5.0996   646.9    3.439      70.281
2015    5       12     8  39    5.0949   647.1    3.435      70.258
2015    5       12     8  45    5.0902   647.2    3.430      70.235
2015    5       12     8  51    5.0855   647.4    3.426      70.212
2015    5       12     8  56    5.0808   647.6    3.422      70.187
2015    5       12     9   2    5.0762   647.7    3.418      70.163
2015    5       12     9   8    5.0716   647.9    3.413      70.138
2015    5       12     9  14    5.0670   648.0    3.409      70.112
2015    5       12     9  19    5.0624   648.2    3.405      70.087
2015    5       12     9  25    5.0578   648.3    3.400      70.061
2015    5       12     9  31    5.0533   648.4    3.396      70.034
2015    5       12     9  36    5.0488   648.6    3.392      70.008
2015    5       12     9  42    5.0443   648.7    3.388      69.982
2015    5       12     9  48    5.0398   648.9    3.383      69.955
2015    5       12     9  54    5.0354   649.0    3.379      69.928
2015    5       12     9  59    5.0309   649.2    3.375      69.902
2015    5       12    10   5    5.0265   649.3    3.371      69.876
2015    5       12    10  11    5.0221   649.4    3.367      69.849
2015    5       12    10  16    5.0178   649.6    3.362      69.823
2015    5       12    10  22    5.0134   649.7    3.358      69.797
2015    5       12    10  28    5.0091   649.8    3.354      69.771
2015    5       12    10  34    5.0047   650.0    3.350      69.745
2015    5       12    10  39    5.0005   650.1    3.346      69.720
2015    5       12    10  45    4.9962   650.2    3.342      69.695
2015    5       12    10  51    4.9919   650.3    3.338      69.671
2015    5       12    10  56    4.9877   650.5    3.334      69.647
2015    5       12    11   2    4.9835   650.6    3.330      69.623
2015    5       12    11   8    4.9793   650.7    3.326      69.600
2015    5       12    11  14    4.9751   650.8    3.322      69.578
2015    5       12    11  19    4.9710   651.0    3.318      69.556
2015    5       12    11  25    4.9668   651.1    3.315      69.535
2015    5       12    11  31    4.9627   651.2    3.311      69.515
2015    5       12    11  37    4.9586   651.3    3.307      69.496
2015    5       12    11  42    4.9546   651.5    3.304      69.477
2015    5       12    11  48    4.9505   651.6    3.300      69.459
2015    5       12    11  54    4.9465   651.7    3.297      69.442
2015    5       12    11  59    4.9425   651.8    3.294      69.426
2015    5       12    12   5    4.9385   651.9    3.290      69.410
2015    5       12    12  11    4.9345   652.0    3.287      69.395
2015    5       12    12  17    4.9306   652.2    3.284      69.380
2015    5       12    12  22    4.9267   652.3    3.280      69.367
2015    5       12    12  28    4.9228   652.4    3.277      69.353
2015    5       12    12  34    4.9189   652.5    3.274      69.341
2015    5       12    12  39    4.9150   652.6    3.271      69.328
2015    5       12    12  45    4.9112   652.7    3.268      69.316
2015    5       12    12  51    4.9074   652.8    3.265      69.305
2015    5       12    12  57    4.9036   653.0    3.262      69.293
2015    5       12    13   2    4.8998   653.1    3.259      69.282
2015    5       12    13   8    4.8961   653.2    3.256      69.271
2015    5       12    13  14    4.8923   653.3    3.254      69.260
2015    5       12    13  19    4.8886   653.4    3.251      69.249
2015    5       12    13  25    4.8848   653.5    3.248      69.238
2015    5       12    13  31    4.8811   653.6    3.245      69.227
2015    5       12    13  37    4.8774   653.7    3.242      69.216
2015    5       12    13  42    4.8737   653.8    3.239      69.205
2015    5       12    13  48    4.8699   654.0    3.237      69.194
2015    5       12    13  54    4.8662   654.1    3.234      69.182
2015    5       12    13  59    4.8625   654.2    3.231      69.170
2015    5       12    14   5    4.8588   654.3    3.228      69.157
2015    5       12    14  11    4.8550   654.4    3.226      69.144
2015    5       12    14  17    4.8513   654.5    3.223      69.130
2015    5       12    14  22    4.8476   654.6    3.220      69.115
2015    5       12    14  28    4.8438   654.7    3.217      69.100
2015    5       12    14  34    4.8401   654.8    3.215      69.084
2015    5       12    14  40    4.8364   654.9    3.212      69.067
2015    5       12    14  45    4.8327   655.0    3.209      69.050
2015    5       12    14  51    4.8289   655.1    3.207      69.032
2015    5       12    14  57    4.8252   655.2    3.204      69.013
2015    5       12    15   2    4.8215   655.3    3.201      68.994
2015    5       12    15   8    4.8178   655.4    3.198      68.975
2015    5       12    15  14    4.8141   655.5    3.196      68.954
2015    5       12    15  20    4.8104   655.6    3.193      68.933
2015    5       12    15  25    4.8067   655.7    3.190      68.911
2015    5       12    15  31    4.8030   655.8    3.187      68.889
2015    5       12    15  37    4.7993   655.8    3.185      68.866
2015    5       12    15  42    4.7956   655.9    3.182      68.843
2015    5       12    15  48    4.7919   656.0    3.179      68.819
2015    5       12    15  54    4.7883   656.1    3.176      68.795
2015    5       12    16   0    4.7846   656.2    3.174      68.771
2015    5       12    16   5    4.7810   656.2    3.171      68.746
2015    5       12    16  11    4.7774   656.3    3.168      68.721
2015    5       12    16  17    4.7737   656.4    3.166      68.696
2015    5       12    16  22    4.7701   656.5    3.163      68.671
2015    5       12    16  28    4.7665   656.5    3.160      68.645
2015    5       12    16  34    4.7630   656.6    3.158      68.619
2015    5       12    16  40    4.7594   656.7    3.155      68.594
2015    5       12    16  45    4.7558   656.7    3.153      68.568
2015    5       12    16  51    4.7523   656.8    3.150      68.541
2015    5       12    16  57    4.7488   656.9    3.147      68.515
2015    5       12    17   2    4.7452   656.9    3.145      68.489
2015    5       12    17   8    4.7417   657.0    3.142      68.463
2015    5       12    17  14    4.7382   657.1    3.140      68.437
2015    5       12    17  20    4.7348   657.1    3.137      68.410
2015    5       12    17  25    4.7313   657.2    3.135      68.384
2015    5       12    17  31    4.7278   657.2    3.132      68.358
2015    5       12    17  37    4.7244   657.3    3.130      68.332
2015    5       12    17  43    4.7210   657.4    3.127      68.305
2015    5       12    17  48    4.7175   657.4    3.125      68.279
2015    5       12    17  54    4.7141   657.5    3.122      68.253
2015    5       12    18   0    4.7108   657.5    3.120      68.227
2015    5       12    18   5    4.7074   657.6    3.117      68.201
2015    5       12    18  11    4.7040   657.6    3.115      68.176
2015    5       12    18  17    4.7007   657.7    3.113      68.150
2015    5       12    18  23    4.6974   657.7    3.110      68.125
2015    5       12    18  28    4.6941   657.8    3.108      68.099
2015    5       12    18  34    4.6908   657.8    3.105      68.074
2015    5       12    18  40    4.6875   657.9    3.103      68.049
2015    5       12    18  45    4.6843   657.9    3.101      68.025
2015    5       12    18  51    4.6810   658.0    3.098      68.000
2015    5       12    18  57    4.6778   658.0    3.096      67.976
2015    5       12    19   3    4.6746   658.1    3.094      67.952
2015    5       12    19   8    4.6714   658.1    3.091      67.928
2015    5       12    19  14    4.6682   658.1    3.089      67.905
2015    5       12    19  20    4.6650   658.2    3.087      67.881
2015    5       12    19  25    4.6619   658.2    3.084      67.858
2015    5       12    19  31    4.6588   658.3    3.082      67.835
2015    5       12    19  37    4.6556   658.3    3.080      67.813
2015    5       12    19  43    4.6525   658.4    3.078      67.790
2015    5       12    19  48    4.6494   658.4    3.075      67.768
2015    5       12    19  54    4.6463   658.4    3.073      67.746
2015    5       12    20   0    4.6432   658.5    3.071      67.724
2015    5       12    20   6    4.6402   658.5    3.069      67.702
2015    5       12    20  11    4.6371   658.6    3.067      67.680
2015    5       12    20  17    4.6341   658.6    3.065      67.659
2015    5       12    20  23    4.6310   658.6    3.062      67.638
2015    5       12    20  28    4.6280   658.7    3.060      67.616
2015    5       12    20  34    4.6250   658.7    3.058      67.595
2015    5       12    20  40    4.6220   658.8    3.056      67.574
2015    5       12    20  46    4.6190   658.8    3.054      67.554
2015    5       12    20  51    4.6160   658.8    3.052      67.533
2015    5       12    20  57    4.6130   658.9    3.050      67.512
2015    5       12    21   3    4.6101   658.9    3.048      67.492
2015    5       12    21   8    4.6071   658.9    3.046      67.471
2015    5       12    21  14    4.6041   659.0    3.044      67.451
2015    5       12    21  20    4.6012   659.0    3.042      67.431
2015    5       12    21  26    4.5983   659.0    3.040      67.411
2015    5       12    21  31    4.5954   659.1    3.039      67.391
2015    5       12    21  37    4.5924   659.1    3.037      67.371
2015    5       12    21  43    4.5895   659.1    3.035      67.351
2015    5       12    21  48    4.5866   659.2    3.033      67.332
2015    5       12    21  54    4.5837   659.2    3.031      67.312
2015    5       12    22   0    4.5808   659.2    3.030      67.293
2015    5       12    22   6    4.5779   659.2    3.028      67.273
2015    5       12    22  11    4.5750   659.3    3.026      67.254
2015    5       12    22  17    4.5721   659.3    3.025      67.234
2015    5       12    22  23    4.5692   659.3    3.023      67.214
2015    5       12    22  28    4.5663   659.3    3.021      67.195
2015    5       12    22  34    4.5634   659.4    3.020      67.175
2015    5       12    22  40    4.5605   659.4    3.018      67.155
2015    5       12    22  46    4.5576   659.4    3.017      67.135
2015    5       12    22  51    4.5547   659.4    3.015      67.115
2015    5       12    22  57    4.5518   659.5    3.013      67.094
2015    5       12    23   3    4.5489   659.5    3.012      67.074
2015    5       12    23   9    4.5460   659.5    3.011      67.053
2015    5       12    23  14    4.5431   659.5    3.009      67.033
2015    5       12    23  20    4.5402   659.5    3.008      67.012
2015    5       12    23  26    4.5373   659.5    3.006      66.991
2015    5       12    23  31    4.5344   659.6    3.005      66.969
2015    5       12    23  37    4.5315   659.6    3.003      66.948
2015    5       12    23  43    4.5286   659.6    3.002      66.926
2015    5       12    23  49    4.5258   659.6    3.000      66.903
2015    5       12    23  54    4.5229   659.6    2.999      66.881
2015    5       13     0   0    4.5200   659.6    2.998      66.858
