year    month   day   hour  minute  B_enl V_enl   n_enl       T_enl
[year] [month] [day] [hour][minute] [nT]  [km/s]  [cm-3]      [kK]
2015    5        2     0   2    4.5520   495.7    4.709      44.214
2015    5        2     0   7    4.5504   495.6    4.709      44.203
2015    5        2     0  13    4.5488   495.6    4.708      44.191
2015    5        2     0  19    4.5472   495.6    4.708      44.180
2015    5        2     0  25    4.5456   495.5    4.707      44.169
2015    5        2     0  31    4.5440   495.5    4.707      44.158
2015    5        2     0  36    4.5424   495.4    4.706      44.147
2015    5        2     0  42    4.5408   495.4    4.706      44.136
2015    5        2     0  48    4.5392   495.3    4.705      44.125
2015    5        2     0  54    4.5377   495.3    4.705      44.114
2015    5        2     1   0    4.5361   495.2    4.704      44.102
2015    5        2     1   5    4.5345   495.2    4.704      44.091
2015    5        2     1  11    4.5329   495.1    4.704      44.080
2015    5        2     1  17    4.5313   495.1    4.703      44.069
2015    5        2     1  23    4.5297   495.0    4.703      44.058
2015    5        2     1  28    4.5281   495.0    4.702      44.046
2015    5        2     1  34    4.5266   494.9    4.702      44.035
2015    5        2     1  40    4.5250   494.9    4.701      44.024
2015    5        2     1  46    4.5234   494.8    4.700      44.012
2015    5        2     1  52    4.5218   494.8    4.700      44.001
2015    5        2     1  57    4.5203   494.7    4.699      43.989
2015    5        2     2   3    4.5187   494.7    4.699      43.978
2015    5        2     2   9    4.5171   494.6    4.698      43.966
2015    5        2     2  15    4.5156   494.6    4.697      43.954
2015    5        2     2  21    4.5140   494.5    4.696      43.942
2015    5        2     2  26    4.5124   494.5    4.696      43.930
2015    5        2     2  32    4.5108   494.4    4.695      43.918
2015    5        2     2  38    4.5093   494.4    4.694      43.905
2015    5        2     2  44    4.5077   494.3    4.693      43.893
2015    5        2     2  50    4.5061   494.3    4.692      43.880
2015    5        2     2  55    4.5045   494.2    4.691      43.867
2015    5        2     3   1    4.5030   494.1    4.691      43.854
2015    5        2     3   7    4.5014   494.1    4.690      43.840
2015    5        2     3  13    4.4998   494.0    4.689      43.827
2015    5        2     3  19    4.4982   494.0    4.688      43.813
2015    5        2     3  24    4.4966   493.9    4.687      43.799
2015    5        2     3  30    4.4950   493.9    4.686      43.785
2015    5        2     3  36    4.4934   493.8    4.684      43.771
2015    5        2     3  42    4.4918   493.8    4.683      43.757
2015    5        2     3  48    4.4902   493.7    4.682      43.742
2015    5        2     3  53    4.4886   493.6    4.681      43.727
2015    5        2     3  59    4.4870   493.6    4.680      43.712
2015    5        2     4   5    4.4854   493.5    4.679      43.697
2015    5        2     4  11    4.4838   493.5    4.678      43.682
2015    5        2     4  16    4.4822   493.4    4.677      43.666
2015    5        2     4  22    4.4806   493.4    4.675      43.651
2015    5        2     4  28    4.4790   493.3    4.674      43.635
2015    5        2     4  34    4.4774   493.2    4.673      43.619
2015    5        2     4  40    4.4758   493.2    4.672      43.603
2015    5        2     4  45    4.4741   493.1    4.671      43.587
2015    5        2     4  51    4.4725   493.1    4.669      43.571
2015    5        2     4  57    4.4709   493.0    4.668      43.554
2015    5        2     5   3    4.4693   492.9    4.667      43.538
2015    5        2     5   9    4.4676   492.9    4.666      43.521
2015    5        2     5  14    4.4660   492.8    4.665      43.504
2015    5        2     5  20    4.4644   492.7    4.664      43.488
2015    5        2     5  26    4.4628   492.7    4.663      43.471
2015    5        2     5  32    4.4612   492.6    4.662      43.454
2015    5        2     5  38    4.4595   492.5    4.661      43.437
2015    5        2     5  43    4.4579   492.5    4.660      43.421
2015    5        2     5  49    4.4563   492.4    4.659      43.404
2015    5        2     5  55    4.4547   492.3    4.658      43.387
2015    5        2     6   1    4.4531   492.3    4.657      43.371
2015    5        2     6   7    4.4515   492.2    4.656      43.354
2015    5        2     6  12    4.4499   492.1    4.655      43.338
2015    5        2     6  18    4.4483   492.1    4.654      43.321
2015    5        2     6  24    4.4467   492.0    4.654      43.305
2015    5        2     6  30    4.4451   491.9    4.653      43.289
2015    5        2     6  36    4.4436   491.9    4.652      43.273
2015    5        2     6  41    4.4420   491.8    4.652      43.257
2015    5        2     6  47    4.4404   491.7    4.651      43.240
2015    5        2     6  53    4.4389   491.7    4.651      43.225
2015    5        2     6  59    4.4373   491.6    4.650      43.209
2015    5        2     7   5    4.4357   491.5    4.650      43.193
2015    5        2     7  10    4.4342   491.4    4.649      43.177
2015    5        2     7  16    4.4326   491.4    4.649      43.161
2015    5        2     7  22    4.4310   491.3    4.648      43.145
2015    5        2     7  28    4.4294   491.2    4.648      43.129
2015    5        2     7  33    4.4279   491.2    4.647      43.114
2015    5        2     7  39    4.4263   491.1    4.647      43.098
2015    5        2     7  45    4.4247   491.0    4.647      43.082
2015    5        2     7  51    4.4231   490.9    4.646      43.066
2015    5        2     7  57    4.4215   490.9    4.646      43.050
2015    5        2     8   2    4.4199   490.8    4.646      43.034
2015    5        2     8   8    4.4183   490.7    4.645      43.018
2015    5        2     8  14    4.4167   490.6    4.645      43.002
2015    5        2     8  20    4.4151   490.6    4.645      42.986
2015    5        2     8  26    4.4135   490.5    4.645      42.971
2015    5        2     8  31    4.4120   490.4    4.644      42.955
2015    5        2     8  37    4.4104   490.3    4.644      42.939
2015    5        2     8  43    4.4088   490.3    4.644      42.923
2015    5        2     8  49    4.4073   490.2    4.644      42.908
2015    5        2     8  55    4.4057   490.1    4.644      42.892
2015    5        2     9   0    4.4042   490.0    4.643      42.877
2015    5        2     9   6    4.4026   490.0    4.643      42.861
2015    5        2     9  12    4.4011   489.9    4.643      42.846
2015    5        2     9  18    4.3996   489.8    4.643      42.831
2015    5        2     9  24    4.3981   489.7    4.643      42.816
2015    5        2     9  29    4.3966   489.6    4.643      42.801
2015    5        2     9  35    4.3951   489.6    4.643      42.787
2015    5        2     9  41    4.3937   489.5    4.643      42.772
2015    5        2     9  47    4.3922   489.4    4.644      42.758
2015    5        2     9  53    4.3908   489.3    4.644      42.745
2015    5        2     9  58    4.3894   489.3    4.644      42.731
2015    5        2    10   4    4.3879   489.2    4.644      42.718
2015    5        2    10  10    4.3865   489.1    4.644      42.705
2015    5        2    10  16    4.3851   489.0    4.644      42.693
2015    5        2    10  21    4.3837   488.9    4.644      42.680
2015    5        2    10  27    4.3823   488.9    4.644      42.667
2015    5        2    10  33    4.3808   488.8    4.644      42.654
2015    5        2    10  39    4.3795   488.7    4.644      42.641
2015    5        2    10  45    4.3780   488.6    4.644      42.628
2015    5        2    10  50    4.3767   488.5    4.644      42.614
2015    5        2    10  56    4.3753   488.5    4.644      42.601
2015    5        2    11   2    4.3739   488.4    4.644      42.588
2015    5        2    11   8    4.3725   488.3    4.644      42.575
2015    5        2    11  14    4.3711   488.2    4.644      42.562
2015    5        2    11  19    4.3697   488.1    4.644      42.549
2015    5        2    11  25    4.3684   488.1    4.643      42.535
2015    5        2    11  31    4.3670   488.0    4.643      42.522
2015    5        2    11  37    4.3655   487.9    4.643      42.509
2015    5        2    11  43    4.3641   487.8    4.642      42.495
2015    5        2    11  48    4.3627   487.7    4.642      42.481
2015    5        2    11  54    4.3613   487.7    4.642      42.467
2015    5        2    12   0    4.3598   487.6    4.641      42.452
2015    5        2    12   6    4.3584   487.5    4.640      42.437
2015    5        2    12  12    4.3569   487.4    4.640      42.421
2015    5        2    12  17    4.3555   487.3    4.639      42.406
2015    5        2    12  23    4.3540   487.2    4.639      42.390
2015    5        2    12  29    4.3526   487.2    4.638      42.373
2015    5        2    12  35    4.3511   487.1    4.637      42.357
2015    5        2    12  41    4.3496   487.0    4.637      42.340
2015    5        2    12  46    4.3481   486.9    4.636      42.322
2015    5        2    12  52    4.3466   486.8    4.635      42.305
2015    5        2    12  58    4.3452   486.7    4.634      42.287
2015    5        2    13   4    4.3437   486.7    4.634      42.269
2015    5        2    13   9    4.3422   486.6    4.633      42.251
2015    5        2    13  15    4.3407   486.5    4.632      42.232
2015    5        2    13  21    4.3392   486.4    4.631      42.214
2015    5        2    13  27    4.3377   486.3    4.630      42.195
2015    5        2    13  33    4.3362   486.2    4.629      42.175
2015    5        2    13  38    4.3347   486.2    4.629      42.156
2015    5        2    13  44    4.3332   486.1    4.628      42.137
2015    5        2    13  50    4.3317   486.0    4.627      42.117
2015    5        2    13  56    4.3302   485.9    4.626      42.097
2015    5        2    14   2    4.3287   485.8    4.625      42.077
2015    5        2    14   7    4.3272   485.7    4.624      42.056
2015    5        2    14  13    4.3257   485.6    4.623      42.036
2015    5        2    14  19    4.3241   485.5    4.623      42.015
2015    5        2    14  25    4.3226   485.5    4.622      41.994
2015    5        2    14  31    4.3211   485.4    4.621      41.973
2015    5        2    14  36    4.3196   485.3    4.620      41.952
2015    5        2    14  42    4.3180   485.2    4.619      41.931
2015    5        2    14  48    4.3165   485.1    4.618      41.909
2015    5        2    14  54    4.3150   485.0    4.617      41.888
2015    5        2    15   0    4.3134   484.9    4.617      41.866
2015    5        2    15   5    4.3119   484.8    4.616      41.844
2015    5        2    15  11    4.3104   484.7    4.615      41.822
2015    5        2    15  17    4.3089   484.6    4.614      41.800
2015    5        2    15  23    4.3073   484.6    4.614      41.778
2015    5        2    15  29    4.3058   484.5    4.613      41.756
2015    5        2    15  34    4.3043   484.4    4.612      41.734
2015    5        2    15  40    4.3028   484.3    4.612      41.712
2015    5        2    15  46    4.3013   484.2    4.611      41.690
2015    5        2    15  52    4.2998   484.1    4.610      41.668
2015    5        2    15  58    4.2984   484.0    4.610      41.647
2015    5        2    16   3    4.2969   483.9    4.609      41.625
2015    5        2    16   9    4.2954   483.8    4.609      41.604
2015    5        2    16  15    4.2940   483.7    4.609      41.583
2015    5        2    16  21    4.2925   483.6    4.608      41.562
2015    5        2    16  26    4.2911   483.5    4.608      41.541
2015    5        2    16  32    4.2897   483.4    4.608      41.521
2015    5        2    16  38    4.2883   483.3    4.608      41.501
2015    5        2    16  44    4.2869   483.2    4.608      41.481
2015    5        2    16  50    4.2855   483.1    4.608      41.463
2015    5        2    16  55    4.2841   483.0    4.608      41.444
2015    5        2    17   1    4.2827   482.9    4.608      41.427
2015    5        2    17   7    4.2813   482.9    4.608      41.409
2015    5        2    17  13    4.2800   482.8    4.609      41.393
2015    5        2    17  19    4.2786   482.7    4.609      41.376
2015    5        2    17  24    4.2773   482.6    4.609      41.359
2015    5        2    17  30    4.2759   482.5    4.609      41.343
2015    5        2    17  36    4.2746   482.4    4.610      41.327
2015    5        2    17  42    4.2732   482.3    4.610      41.310
2015    5        2    17  48    4.2719   482.2    4.610      41.294
2015    5        2    17  53    4.2706   482.1    4.611      41.279
2015    5        2    17  59    4.2692   482.0    4.611      41.263
2015    5        2    18   5    4.2679   481.9    4.612      41.248
2015    5        2    18  11    4.2666   481.8    4.612      41.233
2015    5        2    18  17    4.2653   481.7    4.612      41.219
2015    5        2    18  22    4.2640   481.6    4.613      41.205
2015    5        2    18  28    4.2626   481.5    4.613      41.190
2015    5        2    18  34    4.2613   481.4    4.614      41.176
2015    5        2    18  40    4.2600   481.3    4.614      41.161
2015    5        2    18  46    4.2587   481.2    4.614      41.147
2015    5        2    18  51    4.2573   481.1    4.615      41.132
2015    5        2    18  57    4.2560   481.0    4.615      41.118
2015    5        2    19   3    4.2547   480.9    4.616      41.103
2015    5        2    19   9    4.2534   480.8    4.616      41.089
2015    5        2    19  14    4.2521   480.7    4.617      41.074
2015    5        2    19  20    4.2508   480.6    4.617      41.059
2015    5        2    19  26    4.2495   480.4    4.618      41.045
2015    5        2    19  32    4.2482   480.3    4.618      41.030
2015    5        2    19  38    4.2469   480.2    4.619      41.016
2015    5        2    19  43    4.2457   480.1    4.620      41.002
2015    5        2    19  49    4.2445   480.0    4.621      40.988
2015    5        2    19  55    4.2433   479.9    4.621      40.974
2015    5        2    20   1    4.2421   479.8    4.622      40.961
2015    5        2    20   7    4.2409   479.7    4.623      40.949
2015    5        2    20  12    4.2398   479.6    4.624      40.936
2015    5        2    20  18    4.2387   479.5    4.625      40.924
2015    5        2    20  24    4.2375   479.4    4.626      40.913
2015    5        2    20  30    4.2364   479.3    4.626      40.901
2015    5        2    20  36    4.2353   479.2    4.627      40.889
2015    5        2    20  41    4.2341   479.1    4.628      40.876
2015    5        2    20  47    4.2330   479.0    4.628      40.863
2015    5        2    20  53    4.2318   478.9    4.629      40.850
2015    5        2    20  59    4.2307   478.8    4.629      40.836
2015    5        2    21   5    4.2295   478.7    4.630      40.822
2015    5        2    21  10    4.2284   478.6    4.630      40.808
2015    5        2    21  16    4.2272   478.5    4.630      40.793
2015    5        2    21  22    4.2260   478.4    4.630      40.778
2015    5        2    21  28    4.2249   478.3    4.631      40.763
2015    5        2    21  34    4.2237   478.1    4.631      40.747
2015    5        2    21  39    4.2226   478.0    4.631      40.732
2015    5        2    21  45    4.2214   477.9    4.631      40.715
2015    5        2    21  51    4.2203   477.8    4.631      40.699
2015    5        2    21  57    4.2191   477.7    4.632      40.683
2015    5        2    22   2    4.2180   477.6    4.632      40.667
2015    5        2    22   8    4.2168   477.5    4.632      40.651
2015    5        2    22  14    4.2157   477.4    4.632      40.634
2015    5        2    22  20    4.2145   477.4    4.632      40.618
2015    5        2    22  26    4.2133   477.3    4.632      40.601
2015    5        2    22  31    4.2121   477.2    4.632      40.584
2015    5        2    22  37    4.2109   477.1    4.631      40.566
2015    5        2    22  43    4.2096   477.0    4.631      40.548
2015    5        2    22  49    4.2084   476.9    4.631      40.530
2015    5        2    22  55    4.2071   476.8    4.630      40.511
2015    5        2    23   0    4.2059   476.7    4.630      40.492
2015    5        2    23   6    4.2046   476.6    4.629      40.472
2015    5        2    23  12    4.2033   476.5    4.629      40.452
2015    5        2    23  18    4.2020   476.4    4.628      40.431
2015    5        2    23  24    4.2007   476.3    4.627      40.410
2015    5        2    23  29    4.1994   476.2    4.627      40.389
2015    5        2    23  35    4.1981   476.1    4.626      40.367
2015    5        2    23  41    4.1968   476.0    4.625      40.346
2015    5        2    23  47    4.1955   475.9    4.625      40.324
2015    5        2    23  53    4.1942   475.8    4.624      40.302
2015    5        2    23  58    4.1928   475.7    4.623      40.279
2015    5        3     0   4    4.1915   475.6    4.623      40.257
2015    5        3     0  10    4.1902   475.5    4.622      40.234
2015    5        3     0  16    4.1889   475.4    4.621      40.212
2015    5        3     0  22    4.1876   475.3    4.620      40.189
2015    5        3     0  27    4.1863   475.2    4.620      40.166
2015    5        3     0  33    4.1849   475.1    4.619      40.143
2015    5        3     0  39    4.1836   475.0    4.618      40.120
2015    5        3     0  45    4.1823   474.9    4.618      40.097
2015    5        3     0  51    4.1810   474.8    4.617      40.073
2015    5        3     0  56    4.1796   474.7    4.616      40.050
2015    5        3     1   2    4.1783   474.5    4.616      40.027
2015    5        3     1   8    4.1770   474.4    4.615      40.003
2015    5        3     1  14    4.1757   474.3    4.614      39.980
2015    5        3     1  19    4.1743   474.2    4.614      39.956
2015    5        3     1  25    4.1730   474.1    4.613      39.933
2015    5        3     1  31    4.1717   474.0    4.613      39.910
2015    5        3     1  37    4.1704   473.9    4.612      39.887
2015    5        3     1  43    4.1691   473.8    4.612      39.864
2015    5        3     1  48    4.1678   473.7    4.612      39.841
2015    5        3     1  54    4.1666   473.5    4.611      39.818
2015    5        3     2   0    4.1653   473.4    4.611      39.796
2015    5        3     2   6    4.1640   473.3    4.611      39.774
2015    5        3     2  12    4.1628   473.2    4.611      39.752
2015    5        3     2  17    4.1616   473.1    4.611      39.730
2015    5        3     2  23    4.1603   473.0    4.611      39.709
2015    5        3     2  29    4.1591   472.8    4.611      39.688
2015    5        3     2  35    4.1580   472.7    4.611      39.667
2015    5        3     2  41    4.1568   472.6    4.611      39.647
2015    5        3     2  46    4.1557   472.5    4.611      39.628
2015    5        3     2  52    4.1546   472.3    4.612      39.608
2015    5        3     2  58    4.1535   472.2    4.613      39.590
2015    5        3     3   4    4.1525   472.1    4.613      39.572
2015    5        3     3  10    4.1514   472.0    4.614      39.555
2015    5        3     3  15    4.1505   471.9    4.615      39.539
2015    5        3     3  21    4.1495   471.7    4.616      39.524
2015    5        3     3  27    4.1486   471.6    4.617      39.509
2015    5        3     3  33    4.1477   471.5    4.618      39.495
2015    5        3     3  39    4.1468   471.4    4.619      39.481
2015    5        3     3  44    4.1459   471.2    4.620      39.468
2015    5        3     3  50    4.1450   471.1    4.622      39.454
2015    5        3     3  56    4.1441   471.0    4.623      39.440
2015    5        3     4   2    4.1432   470.9    4.624      39.426
2015    5        3     4   7    4.1424   470.8    4.625      39.413
2015    5        3     4  13    4.1415   470.6    4.626      39.400
2015    5        3     4  19    4.1407   470.5    4.628      39.386
2015    5        3     4  25    4.1398   470.4    4.629      39.373
2015    5        3     4  31    4.1390   470.3    4.631      39.360
2015    5        3     4  36    4.1382   470.1    4.632      39.347
2015    5        3     4  42    4.1374   470.0    4.634      39.335
2015    5        3     4  48    4.1366   469.9    4.635      39.322
2015    5        3     4  54    4.1359   469.8    4.637      39.310
2015    5        3     5   0    4.1351   469.7    4.639      39.298
2015    5        3     5   5    4.1344   469.5    4.641      39.287
2015    5        3     5  11    4.1336   469.4    4.643      39.277
2015    5        3     5  17    4.1329   469.3    4.645      39.267
2015    5        3     5  23    4.1322   469.2    4.647      39.257
2015    5        3     5  29    4.1314   469.1    4.649      39.247
2015    5        3     5  34    4.1307   469.0    4.651      39.238
2015    5        3     5  40    4.1299   468.9    4.653      39.229
2015    5        3     5  46    4.1291   468.7    4.655      39.220
2015    5        3     5  52    4.1283   468.6    4.657      39.211
2015    5        3     5  58    4.1275   468.5    4.659      39.202
2015    5        3     6   3    4.1268   468.4    4.661      39.193
2015    5        3     6   9    4.1260   468.3    4.663      39.185
2015    5        3     6  15    4.1252   468.2    4.665      39.176
2015    5        3     6  21    4.1244   468.0    4.667      39.167
2015    5        3     6  27    4.1236   467.9    4.669      39.158
2015    5        3     6  32    4.1228   467.8    4.671      39.149
2015    5        3     6  38    4.1220   467.7    4.672      39.140
2015    5        3     6  44    4.1212   467.6    4.674      39.130
2015    5        3     6  50    4.1204   467.5    4.676      39.120
2015    5        3     6  55    4.1196   467.4    4.677      39.109
2015    5        3     7   1    4.1188   467.2    4.679      39.099
2015    5        3     7   7    4.1180   467.1    4.681      39.088
2015    5        3     7  13    4.1172   467.0    4.682      39.078
2015    5        3     7  19    4.1164   466.9    4.684      39.067
2015    5        3     7  24    4.1156   466.8    4.685      39.056
2015    5        3     7  30    4.1148   466.7    4.686      39.046
2015    5        3     7  36    4.1139   466.6    4.688      39.035
2015    5        3     7  42    4.1131   466.5    4.689      39.023
2015    5        3     7  48    4.1122   466.3    4.690      39.011
2015    5        3     7  53    4.1113   466.2    4.690      38.998
2015    5        3     7  59    4.1104   466.1    4.691      38.985
2015    5        3     8   5    4.1095   466.0    4.692      38.971
2015    5        3     8  11    4.1086   465.9    4.692      38.957
2015    5        3     8  17    4.1076   465.8    4.693      38.942
2015    5        3     8  22    4.1067   465.7    4.693      38.927
2015    5        3     8  28    4.1058   465.6    4.693      38.911
2015    5        3     8  34    4.1048   465.5    4.694      38.895
2015    5        3     8  40    4.1039   465.4    4.694      38.878
2015    5        3     8  46    4.1029   465.3    4.694      38.860
2015    5        3     8  51    4.1019   465.1    4.694      38.842
2015    5        3     8  57    4.1010   465.0    4.693      38.824
2015    5        3     9   3    4.1000   464.9    4.693      38.805
2015    5        3     9   9    4.0990   464.8    4.693      38.786
2015    5        3     9  15    4.0980   464.7    4.693      38.766
2015    5        3     9  20    4.0970   464.6    4.692      38.746
2015    5        3     9  26    4.0960   464.5    4.692      38.725
2015    5        3     9  32    4.0950   464.4    4.692      38.704
2015    5        3     9  38    4.0940   464.2    4.691      38.683
2015    5        3     9  43    4.0930   464.1    4.691      38.662
2015    5        3     9  49    4.0921   464.0    4.690      38.640
2015    5        3     9  55    4.0911   463.9    4.690      38.618
2015    5        3    10   1    4.0901   463.8    4.689      38.596
2015    5        3    10   7    4.0891   463.7    4.689      38.574
2015    5        3    10  12    4.0881   463.6    4.688      38.551
2015    5        3    10  18    4.0871   463.4    4.688      38.528
2015    5        3    10  24    4.0862   463.3    4.687      38.505
2015    5        3    10  30    4.0852   463.2    4.687      38.483
2015    5        3    10  36    4.0843   463.1    4.686      38.460
2015    5        3    10  41    4.0833   463.0    4.686      38.437
2015    5        3    10  47    4.0824   462.8    4.686      38.414
2015    5        3    10  53    4.0815   462.7    4.685      38.391
2015    5        3    10  59    4.0805   462.6    4.685      38.368
2015    5        3    11   5    4.0796   462.5    4.685      38.346
2015    5        3    11  10    4.0788   462.4    4.685      38.323
2015    5        3    11  16    4.0779   462.2    4.685      38.301
2015    5        3    11  22    4.0770   462.1    4.685      38.278
2015    5        3    11  28    4.0762   462.0    4.685      38.256
2015    5        3    11  34    4.0753   461.9    4.685      38.234
2015    5        3    11  39    4.0745   461.7    4.685      38.213
2015    5        3    11  45    4.0737   461.6    4.685      38.191
2015    5        3    11  51    4.0729   461.5    4.686      38.170
2015    5        3    11  57    4.0721   461.4    4.686      38.149
2015    5        3    12   2    4.0713   461.2    4.687      38.128
2015    5        3    12   8    4.0705   461.1    4.687      38.108
2015    5        3    12  14    4.0698   461.0    4.688      38.087
2015    5        3    12  20    4.0690   460.9    4.689      38.067
2015    5        3    12  26    4.0683   460.7    4.690      38.048
2015    5        3    12  31    4.0675   460.6    4.691      38.029
2015    5        3    12  37    4.0668   460.5    4.692      38.009
2015    5        3    12  43    4.0661   460.4    4.693      37.991
2015    5        3    12  49    4.0654   460.2    4.694      37.972
2015    5        3    12  55    4.0647   460.1    4.696      37.954
2015    5        3    13   0    4.0640   460.0    4.697      37.937
2015    5        3    13   6    4.0633   459.8    4.699      37.920
2015    5        3    13  12    4.0627   459.7    4.701      37.904
2015    5        3    13  18    4.0621   459.6    4.702      37.888
2015    5        3    13  24    4.0614   459.4    4.704      37.873
2015    5        3    13  29    4.0608   459.3    4.706      37.859
2015    5        3    13  35    4.0602   459.2    4.708      37.845
2015    5        3    13  41    4.0597   459.0    4.710      37.832
2015    5        3    13  47    4.0591   458.9    4.713      37.819
2015    5        3    13  53    4.0586   458.8    4.715      37.807
2015    5        3    13  58    4.0581   458.6    4.717      37.794
2015    5        3    14   4    4.0576   458.5    4.720      37.782
2015    5        3    14  10    4.0571   458.3    4.723      37.771
2015    5        3    14  16    4.0567   458.2    4.725      37.760
2015    5        3    14  22    4.0562   458.1    4.728      37.750
2015    5        3    14  28    4.0558   457.9    4.731      37.741
2015    5        3    14  33    4.0554   457.8    4.734      37.732
2015    5        3    14  39    4.0549   457.7    4.737      37.723
2015    5        3    14  45    4.0545   457.6    4.740      37.715
2015    5        3    14  51    4.0541   457.4    4.743      37.708
2015    5        3    14  57    4.0538   457.3    4.746      37.700
2015    5        3    15   3    4.0534   457.2    4.749      37.693
2015    5        3    15   8    4.0530   457.0    4.752      37.685
2015    5        3    15  14    4.0526   456.9    4.755      37.677
2015    5        3    15  20    4.0522   456.8    4.758      37.670
2015    5        3    15  26    4.0519   456.7    4.761      37.663
2015    5        3    15  32    4.0515   456.5    4.764      37.656
2015    5        3    15  38    4.0512   456.4    4.767      37.649
2015    5        3    15  43    4.0508   456.3    4.770      37.642
2015    5        3    15  49    4.0504   456.2    4.773      37.635
2015    5        3    15  55    4.0501   456.0    4.775      37.628
2015    5        3    16   1    4.0497   455.9    4.778      37.621
2015    5        3    16   7    4.0494   455.8    4.781      37.613
2015    5        3    16  13    4.0490   455.7    4.783      37.605
2015    5        3    16  18    4.0486   455.5    4.786      37.596
2015    5        3    16  24    4.0482   455.4    4.788      37.587
2015    5        3    16  30    4.0478   455.3    4.790      37.578
2015    5        3    16  36    4.0474   455.2    4.793      37.568
2015    5        3    16  42    4.0470   455.1    4.795      37.558
2015    5        3    16  48    4.0465   454.9    4.797      37.548
2015    5        3    16  53    4.0461   454.8    4.799      37.537
2015    5        3    16  59    4.0457   454.7    4.801      37.526
2015    5        3    17   5    4.0452   454.6    4.803      37.514
2015    5        3    17  11    4.0447   454.5    4.804      37.503
2015    5        3    17  17    4.0442   454.3    4.806      37.491
2015    5        3    17  23    4.0438   454.2    4.808      37.479
2015    5        3    17  28    4.0433   454.1    4.809      37.467
2015    5        3    17  34    4.0428   454.0    4.811      37.454
2015    5        3    17  40    4.0423   453.9    4.812      37.441
2015    5        3    17  46    4.0418   453.7    4.814      37.428
2015    5        3    17  52    4.0413   453.6    4.815      37.414
2015    5        3    17  58    4.0408   453.5    4.816      37.401
2015    5        3    18   3    4.0403   453.4    4.817      37.386
2015    5        3    18   9    4.0398   453.3    4.818      37.372
2015    5        3    18  15    4.0393   453.1    4.820      37.357
2015    5        3    18  21    4.0388   453.0    4.821      37.342
2015    5        3    18  27    4.0383   452.9    4.822      37.326
2015    5        3    18  33    4.0378   452.8    4.823      37.310
2015    5        3    18  38    4.0373   452.7    4.823      37.294
2015    5        3    18  44    4.0368   452.5    4.824      37.277
2015    5        3    18  50    4.0362   452.4    4.825      37.261
2015    5        3    18  56    4.0357   452.3    4.826      37.243
2015    5        3    19   2    4.0352   452.2    4.827      37.226
2015    5        3    19   8    4.0347   452.1    4.827      37.208
2015    5        3    19  13    4.0341   451.9    4.828      37.190
2015    5        3    19  19    4.0336   451.8    4.829      37.172
2015    5        3    19  25    4.0331   451.7    4.830      37.154
2015    5        3    19  31    4.0325   451.6    4.830      37.135
2015    5        3    19  37    4.0320   451.4    4.831      37.116
2015    5        3    19  42    4.0314   451.3    4.831      37.097
2015    5        3    19  48    4.0309   451.2    4.832      37.077
2015    5        3    19  54    4.0303   451.1    4.832      37.058
2015    5        3    20   0    4.0298   451.0    4.833      37.038
2015    5        3    20   6    4.0292   450.8    4.834      37.017
2015    5        3    20  12    4.0286   450.7    4.834      36.997
2015    5        3    20  17    4.0281   450.6    4.835      36.977
2015    5        3    20  23    4.0275   450.5    4.835      36.956
2015    5        3    20  29    4.0270   450.3    4.836      36.935
2015    5        3    20  35    4.0264   450.2    4.836      36.914
2015    5        3    20  41    4.0258   450.1    4.837      36.893
2015    5        3    20  47    4.0253   450.0    4.838      36.872
2015    5        3    20  52    4.0247   449.8    4.838      36.850
2015    5        3    20  58    4.0242   449.7    4.839      36.829
2015    5        3    21   4    4.0236   449.6    4.840      36.808
2015    5        3    21  10    4.0231   449.4    4.841      36.787
2015    5        3    21  16    4.0226   449.3    4.842      36.766
2015    5        3    21  22    4.0221   449.2    4.843      36.745
2015    5        3    21  27    4.0216   449.0    4.844      36.725
2015    5        3    21  33    4.0211   448.9    4.845      36.704
2015    5        3    21  39    4.0207   448.8    4.846      36.684
2015    5        3    21  45    4.0202   448.6    4.847      36.664
2015    5        3    21  51    4.0198   448.5    4.849      36.645
2015    5        3    21  57    4.0194   448.4    4.850      36.626
2015    5        3    22   2    4.0190   448.2    4.852      36.607
2015    5        3    22   8    4.0187   448.1    4.854      36.588
2015    5        3    22  14    4.0183   448.0    4.856      36.570
2015    5        3    22  20    4.0180   447.8    4.858      36.552
2015    5        3    22  26    4.0177   447.7    4.860      36.535
2015    5        3    22  32    4.0174   447.6    4.862      36.517
2015    5        3    22  37    4.0171   447.4    4.864      36.501
2015    5        3    22  43    4.0168   447.3    4.866      36.484
2015    5        3    22  49    4.0166   447.2    4.869      36.468
2015    5        3    22  55    4.0164   447.0    4.871      36.453
2015    5        3    23   1    4.0162   446.9    4.874      36.438
2015    5        3    23   6    4.0160   446.8    4.877      36.424
2015    5        3    23  12    4.0158   446.6    4.880      36.410
2015    5        3    23  18    4.0156   446.5    4.882      36.396
2015    5        3    23  24    4.0155   446.4    4.885      36.383
2015    5        3    23  30    4.0154   446.2    4.888      36.370
2015    5        3    23  35    4.0153   446.1    4.891      36.357
2015    5        3    23  41    4.0152   446.0    4.894      36.344
2015    5        3    23  47    4.0151   445.8    4.897      36.332
2015    5        3    23  53    4.0150   445.7    4.900      36.319
2015    5        3    23  59    4.0149   445.6    4.903      36.307
2015    5        4     0   5    4.0149   445.4    4.906      36.295
2015    5        4     0  10    4.0148   445.3    4.909      36.283
2015    5        4     0  16    4.0148   445.1    4.913      36.272
2015    5        4     0  22    4.0148   445.0    4.916      36.260
2015    5        4     0  28    4.0147   444.9    4.919      36.249
2015    5        4     0  34    4.0147   444.7    4.922      36.238
2015    5        4     0  39    4.0147   444.6    4.925      36.227
2015    5        4     0  45    4.0147   444.5    4.928      36.217
2015    5        4     0  51    4.0148   444.3    4.932      36.206
2015    5        4     0  57    4.0148   444.2    4.935      36.196
2015    5        4     1   3    4.0148   444.1    4.938      36.185
2015    5        4     1   8    4.0149   443.9    4.941      36.175
2015    5        4     1  14    4.0149   443.8    4.944      36.164
2015    5        4     1  20    4.0150   443.7    4.947      36.154
2015    5        4     1  26    4.0150   443.5    4.950      36.144
2015    5        4     1  32    4.0151   443.4    4.953      36.133
2015    5        4     1  37    4.0152   443.3    4.956      36.123
2015    5        4     1  43    4.0152   443.2    4.959      36.113
2015    5        4     1  49    4.0153   443.0    4.962      36.102
2015    5        4     1  55    4.0153   442.9    4.965      36.092
2015    5        4     2   1    4.0154   442.8    4.968      36.081
2015    5        4     2   6    4.0154   442.6    4.970      36.071
2015    5        4     2  12    4.0155   442.5    4.973      36.059
2015    5        4     2  18    4.0155   442.4    4.976      36.048
2015    5        4     2  24    4.0155   442.2    4.978      36.037
2015    5        4     2  30    4.0156   442.1    4.981      36.025
2015    5        4     2  35    4.0156   442.0    4.983      36.013
2015    5        4     2  41    4.0156   441.9    4.986      36.001
2015    5        4     2  47    4.0156   441.7    4.988      35.989
2015    5        4     2  53    4.0157   441.6    4.991      35.977
2015    5        4     2  59    4.0157   441.5    4.993      35.964
2015    5        4     3   4    4.0157   441.3    4.995      35.951
2015    5        4     3  10    4.0157   441.2    4.998      35.938
2015    5        4     3  16    4.0157   441.1    5.000      35.925
2015    5        4     3  22    4.0157   441.0    5.002      35.911
2015    5        4     3  28    4.0157   440.8    5.004      35.898
2015    5        4     3  33    4.0157   440.7    5.007      35.884
2015    5        4     3  39    4.0157   440.6    5.009      35.870
2015    5        4     3  45    4.0157   440.5    5.011      35.856
2015    5        4     3  51    4.0157   440.3    5.013      35.842
2015    5        4     3  57    4.0157   440.2    5.015      35.828
2015    5        4     4   3    4.0157   440.1    5.017      35.813
2015    5        4     4   8    4.0156   440.0    5.019      35.798
2015    5        4     4  14    4.0156   439.8    5.021      35.783
2015    5        4     4  20    4.0156   439.7    5.023      35.768
2015    5        4     4  26    4.0156   439.6    5.025      35.753
2015    5        4     4  32    4.0156   439.5    5.027      35.737
2015    5        4     4  37    4.0156   439.3    5.029      35.721
2015    5        4     4  43    4.0155   439.2    5.031      35.705
2015    5        4     4  49    4.0155   439.1    5.033      35.689
2015    5        4     4  55    4.0155   439.0    5.035      35.673
2015    5        4     5   1    4.0154   438.8    5.037      35.656
2015    5        4     5   6    4.0154   438.7    5.039      35.639
2015    5        4     5  12    4.0153   438.6    5.041      35.623
2015    5        4     5  18    4.0153   438.5    5.043      35.605
2015    5        4     5  24    4.0152   438.3    5.045      35.588
2015    5        4     5  30    4.0152   438.2    5.047      35.571
2015    5        4     5  35    4.0152   438.1    5.049      35.553
2015    5        4     5  41    4.0151   438.0    5.051      35.535
2015    5        4     5  47    4.0150   437.8    5.053      35.518
2015    5        4     5  53    4.0150   437.7    5.056      35.500
2015    5        4     5  59    4.0149   437.6    5.058      35.482
2015    5        4     6   5    4.0149   437.4    5.060      35.464
2015    5        4     6  10    4.0149   437.3    5.062      35.446
2015    5        4     6  16    4.0148   437.2    5.065      35.428
2015    5        4     6  22    4.0148   437.1    5.067      35.410
2015    5        4     6  28    4.0148   436.9    5.069      35.392
2015    5        4     6  33    4.0148   436.8    5.072      35.375
2015    5        4     6  39    4.0147   436.7    5.074      35.357
2015    5        4     6  45    4.0147   436.5    5.077      35.339
2015    5        4     6  51    4.0148   436.4    5.079      35.322
2015    5        4     6  57    4.0148   436.3    5.082      35.304
2015    5        4     7   2    4.0148   436.1    5.085      35.287
2015    5        4     7   8    4.0149   436.0    5.087      35.270
2015    5        4     7  14    4.0149   435.9    5.090      35.253
2015    5        4     7  20    4.0150   435.7    5.093      35.236
2015    5        4     7  25    4.0151   435.6    5.096      35.220
2015    5        4     7  31    4.0153   435.5    5.099      35.204
2015    5        4     7  37    4.0154   435.3    5.102      35.188
2015    5        4     7  43    4.0156   435.2    5.105      35.172
2015    5        4     7  49    4.0157   435.1    5.108      35.156
2015    5        4     7  54    4.0159   435.0    5.111      35.141
2015    5        4     8   0    4.0161   434.8    5.114      35.126
2015    5        4     8   6    4.0164   434.7    5.117      35.111
2015    5        4     8  12    4.0166   434.6    5.120      35.096
2015    5        4     8  17    4.0168   434.4    5.123      35.081
2015    5        4     8  23    4.0171   434.3    5.126      35.067
2015    5        4     8  29    4.0174   434.2    5.130      35.053
2015    5        4     8  35    4.0177   434.0    5.133      35.039
2015    5        4     8  40    4.0180   433.9    5.136      35.025
2015    5        4     8  46    4.0184   433.8    5.139      35.012
2015    5        4     8  52    4.0187   433.6    5.142      34.999
2015    5        4     8  58    4.0191   433.5    5.146      34.986
2015    5        4     9   3    4.0194   433.4    5.149      34.973
2015    5        4     9   9    4.0198   433.3    5.152      34.960
2015    5        4     9  15    4.0202   433.1    5.155      34.948
2015    5        4     9  21    4.0206   433.0    5.158      34.935
2015    5        4     9  26    4.0210   432.9    5.161      34.923
2015    5        4     9  32    4.0214   432.7    5.164      34.911
2015    5        4     9  38    4.0218   432.6    5.167      34.899
2015    5        4     9  44    4.0222   432.5    5.170      34.887
2015    5        4     9  49    4.0226   432.3    5.173      34.875
2015    5        4     9  55    4.0231   432.2    5.177      34.863
2015    5        4    10   1    4.0235   432.1    5.180      34.851
2015    5        4    10   7    4.0240   432.0    5.183      34.839
2015    5        4    10  12    4.0244   431.8    5.186      34.827
2015    5        4    10  18    4.0249   431.7    5.189      34.815
2015    5        4    10  24    4.0254   431.6    5.192      34.803
2015    5        4    10  30    4.0259   431.4    5.195      34.792
2015    5        4    10  35    4.0263   431.3    5.198      34.780
2015    5        4    10  41    4.0269   431.2    5.201      34.768
2015    5        4    10  47    4.0274   431.1    5.204      34.756
2015    5        4    10  53    4.0279   430.9    5.207      34.744
2015    5        4    10  58    4.0284   430.8    5.211      34.732
2015    5        4    11   4    4.0289   430.7    5.214      34.720
2015    5        4    11  10    4.0294   430.6    5.217      34.708
2015    5        4    11  15    4.0300   430.4    5.220      34.696
2015    5        4    11  21    4.0305   430.3    5.223      34.684
2015    5        4    11  27    4.0310   430.2    5.227      34.671
2015    5        4    11  33    4.0315   430.1    5.230      34.659
2015    5        4    11  38    4.0320   429.9    5.233      34.647
2015    5        4    11  44    4.0326   429.8    5.237      34.634
2015    5        4    11  50    4.0331   429.7    5.240      34.622
2015    5        4    11  56    4.0336   429.5    5.243      34.609
2015    5        4    12   1    4.0341   429.4    5.247      34.596
2015    5        4    12   7    4.0346   429.3    5.250      34.584
2015    5        4    12  13    4.0351   429.2    5.254      34.571
2015    5        4    12  18    4.0356   429.0    5.257      34.558
2015    5        4    12  24    4.0361   428.9    5.261      34.545
2015    5        4    12  30    4.0366   428.8    5.265      34.532
2015    5        4    12  36    4.0371   428.7    5.268      34.519
2015    5        4    12  41    4.0376   428.6    5.272      34.505
2015    5        4    12  47    4.0381   428.4    5.276      34.492
2015    5        4    12  53    4.0386   428.3    5.279      34.479
2015    5        4    12  59    4.0391   428.2    5.283      34.465
2015    5        4    13   4    4.0396   428.1    5.287      34.452
2015    5        4    13  10    4.0401   427.9    5.291      34.438
2015    5        4    13  16    4.0406   427.8    5.295      34.425
2015    5        4    13  21    4.0411   427.7    5.299      34.411
2015    5        4    13  27    4.0416   427.6    5.303      34.397
2015    5        4    13  33    4.0421   427.4    5.306      34.383
2015    5        4    13  39    4.0426   427.3    5.310      34.369
2015    5        4    13  44    4.0431   427.2    5.314      34.355
2015    5        4    13  50    4.0436   427.1    5.318      34.342
2015    5        4    13  56    4.0441   427.0    5.322      34.328
2015    5        4    14   1    4.0446   426.8    5.326      34.313
2015    5        4    14   7    4.0451   426.7    5.330      34.300
2015    5        4    14  13    4.0456   426.6    5.334      34.285
2015    5        4    14  19    4.0461   426.5    5.338      34.271
2015    5        4    14  24    4.0466   426.3    5.342      34.257
2015    5        4    14  30    4.0471   426.2    5.346      34.243
2015    5        4    14  36    4.0476   426.1    5.350      34.229
2015    5        4    14  41    4.0481   426.0    5.354      34.215
2015    5        4    14  47    4.0486   425.9    5.358      34.201
2015    5        4    14  53    4.0491   425.7    5.362      34.187
2015    5        4    14  59    4.0496   425.6    5.366      34.173
2015    5        4    15   4    4.0502   425.5    5.370      34.158
2015    5        4    15  10    4.0507   425.4    5.374      34.144
2015    5        4    15  16    4.0513   425.2    5.378      34.130
2015    5        4    15  21    4.0518   425.1    5.382      34.116
2015    5        4    15  27    4.0524   425.0    5.385      34.102
2015    5        4    15  33    4.0529   424.9    5.389      34.088
2015    5        4    15  39    4.0535   424.8    5.393      34.074
2015    5        4    15  44    4.0541   424.6    5.397      34.060
2015    5        4    15  50    4.0547   424.5    5.401      34.046
2015    5        4    15  56    4.0553   424.4    5.405      34.032
2015    5        4    16   2    4.0560   424.3    5.408      34.019
2015    5        4    16   7    4.0566   424.2    5.412      34.005
2015    5        4    16  13    4.0572   424.0    5.416      33.991
2015    5        4    16  19    4.0579   423.9    5.420      33.978
2015    5        4    16  24    4.0586   423.8    5.424      33.964
2015    5        4    16  30    4.0593   423.7    5.427      33.951
2015    5        4    16  36    4.0600   423.5    5.431      33.938
2015    5        4    16  42    4.0607   423.4    5.435      33.924
2015    5        4    16  47    4.0615   423.3    5.439      33.911
2015    5        4    16  53    4.0622   423.2    5.443      33.898
2015    5        4    16  59    4.0630   423.1    5.446      33.885
2015    5        4    17   5    4.0638   422.9    5.450      33.873
2015    5        4    17  10    4.0646   422.8    5.454      33.860
2015    5        4    17  16    4.0654   422.7    5.458      33.847
2015    5        4    17  22    4.0663   422.6    5.462      33.835
2015    5        4    17  28    4.0671   422.5    5.466      33.823
2015    5        4    17  33    4.0680   422.3    5.470      33.810
2015    5        4    17  39    4.0689   422.2    5.474      33.798
2015    5        4    17  45    4.0698   422.1    5.478      33.786
2015    5        4    17  50    4.0707   422.0    5.482      33.774
2015    5        4    17  56    4.0716   421.9    5.486      33.762
2015    5        4    18   2    4.0726   421.7    5.490      33.751
2015    5        4    18   8    4.0735   421.6    5.494      33.739
2015    5        4    18  13    4.0745   421.5    5.498      33.727
2015    5        4    18  19    4.0755   421.4    5.503      33.716
2015    5        4    18  25    4.0765   421.3    5.507      33.704
2015    5        4    18  31    4.0775   421.1    5.511      33.693
2015    5        4    18  37    4.0785   421.0    5.515      33.681
2015    5        4    18  42    4.0795   420.9    5.520      33.670
2015    5        4    18  48    4.0805   420.8    5.524      33.659
2015    5        4    18  54    4.0815   420.7    5.529      33.647
2015    5        4    19   0    4.0826   420.5    5.533      33.636
2015    5        4    19   5    4.0836   420.4    5.538      33.625
2015    5        4    19  11    4.0846   420.3    5.543      33.614
2015    5        4    19  17    4.0857   420.2    5.547      33.603
2015    5        4    19  23    4.0868   420.1    5.552      33.592
2015    5        4    19  28    4.0879   420.0    5.557      33.581
2015    5        4    19  34    4.0889   419.8    5.562      33.570
2015    5        4    19  40    4.0900   419.7    5.567      33.559
2015    5        4    19  46    4.0911   419.6    5.572      33.548
2015    5        4    19  52    4.0922   419.5    5.577      33.537
2015    5        4    19  57    4.0933   419.4    5.582      33.526
2015    5        4    20   3    4.0945   419.3    5.587      33.515
2015    5        4    20   9    4.0956   419.2    5.592      33.504
2015    5        4    20  15    4.0967   419.0    5.597      33.493
2015    5        4    20  20    4.0978   418.9    5.602      33.482
2015    5        4    20  26    4.0990   418.8    5.608      33.471
2015    5        4    20  32    4.1001   418.7    5.613      33.460
2015    5        4    20  38    4.1013   418.6    5.618      33.449
2015    5        4    20  44    4.1024   418.5    5.624      33.438
2015    5        4    20  49    4.1036   418.4    5.629      33.427
2015    5        4    20  55    4.1047   418.2    5.635      33.416
2015    5        4    21   1    4.1058   418.1    5.640      33.405
2015    5        4    21   7    4.1070   418.0    5.646      33.394
2015    5        4    21  13    4.1082   417.9    5.651      33.383
2015    5        4    21  18    4.1093   417.8    5.657      33.372
2015    5        4    21  24    4.1105   417.7    5.663      33.361
2015    5        4    21  30    4.1116   417.6    5.668      33.350
2015    5        4    21  36    4.1128   417.5    5.674      33.339
2015    5        4    21  42    4.1139   417.4    5.680      33.328
2015    5        4    21  47    4.1151   417.3    5.686      33.317
2015    5        4    21  53    4.1162   417.1    5.691      33.306
2015    5        4    21  59    4.1174   417.0    5.697      33.295
2015    5        4    22   5    4.1185   416.9    5.703      33.284
2015    5        4    22  10    4.1197   416.8    5.709      33.273
2015    5        4    22  16    4.1208   416.7    5.715      33.262
2015    5        4    22  22    4.1220   416.6    5.720      33.251
2015    5        4    22  28    4.1231   416.5    5.726      33.240
2015    5        4    22  34    4.1243   416.4    5.732      33.229
2015    5        4    22  39    4.1254   416.3    5.738      33.218
2015    5        4    22  45    4.1266   416.2    5.744      33.207
2015    5        4    22  51    4.1277   416.1    5.749      33.196
2015    5        4    22  57    4.1289   416.0    5.755      33.184
2015    5        4    23   3    4.1300   415.9    5.761      33.173
2015    5        4    23   8    4.1312   415.8    5.767      33.162
2015    5        4    23  14    4.1324   415.7    5.772      33.151
2015    5        4    23  20    4.1336   415.6    5.778      33.140
2015    5        4    23  26    4.1348   415.5    5.784      33.129
2015    5        4    23  32    4.1360   415.4    5.789      33.118
2015    5        4    23  37    4.1372   415.3    5.795      33.107
2015    5        4    23  43    4.1384   415.1    5.801      33.096
2015    5        4    23  49    4.1396   415.0    5.806      33.085
2015    5        4    23  55    4.1408   414.9    5.812      33.074
2015    5        5     0   1    4.1420   414.8    5.817      33.063
2015    5        5     0   6    4.1433   414.7    5.823      33.052
2015    5        5     0  12    4.1445   414.6    5.828      33.041
2015    5        5     0  18    4.1457   414.5    5.834      33.030
2015    5        5     0  24    4.1470   414.4    5.839      33.019
2015    5        5     0  30    4.1483   414.3    5.845      33.008
2015    5        5     0  35    4.1495   414.2    5.850      32.997
2015    5        5     0  41    4.1508   414.1    5.855      32.986
2015    5        5     0  47    4.1521   414.0    5.861      32.975
2015    5        5     0  53    4.1534   413.9    5.866      32.964
2015    5        5     0  59    4.1547   413.8    5.871      32.953
2015    5        5     1   4    4.1560   413.7    5.877      32.942
2015    5        5     1  10    4.1574   413.6    5.882      32.932
2015    5        5     1  16    4.1587   413.5    5.887      32.921
2015    5        5     1  22    4.1601   413.4    5.893      32.910
2015    5        5     1  28    4.1614   413.3    5.898      32.899
2015    5        5     1  33    4.1628   413.2    5.904      32.889
2015    5        5     1  39    4.1642   413.1    5.909      32.878
2015    5        5     1  45    4.1656   413.0    5.914      32.867
2015    5        5     1  51    4.1670   412.9    5.920      32.857
2015    5        5     1  57    4.1684   412.8    5.925      32.847
2015    5        5     2   2    4.1698   412.7    5.930      32.836
2015    5        5     2   8    4.1713   412.6    5.936      32.826
2015    5        5     2  14    4.1727   412.5    5.941      32.816
2015    5        5     2  20    4.1742   412.4    5.947      32.806
2015    5        5     2  26    4.1757   412.3    5.952      32.796
2015    5        5     2  31    4.1772   412.3    5.958      32.786
2015    5        5     2  37    4.1787   412.2    5.963      32.776
2015    5        5     2  43    4.1802   412.1    5.969      32.766
2015    5        5     2  49    4.1817   412.0    5.975      32.756
2015    5        5     2  55    4.1832   411.9    5.980      32.747
2015    5        5     3   0    4.1848   411.8    5.986      32.737
2015    5        5     3   6    4.1863   411.7    5.992      32.728
2015    5        5     3  12    4.1879   411.6    5.998      32.719
2015    5        5     3  18    4.1894   411.5    6.003      32.709
2015    5        5     3  24    4.1910   411.4    6.009      32.700
2015    5        5     3  29    4.1926   411.3    6.015      32.691
2015    5        5     3  35    4.1942   411.2    6.021      32.682
2015    5        5     3  41    4.1958   411.1    6.027      32.673
2015    5        5     3  47    4.1975   411.0    6.033      32.665
2015    5        5     3  53    4.1991   410.9    6.040      32.656
2015    5        5     3  58    4.2007   410.8    6.046      32.647
2015    5        5     4   4    4.2023   410.8    6.052      32.639
2015    5        5     4  10    4.2040   410.7    6.058      32.630
2015    5        5     4  16    4.2056   410.6    6.065      32.622
2015    5        5     4  22    4.2073   410.5    6.071      32.614
2015    5        5     4  28    4.2089   410.4    6.078      32.605
2015    5        5     4  33    4.2106   410.3    6.084      32.597
2015    5        5     4  39    4.2122   410.2    6.091      32.589
2015    5        5     4  45    4.2139   410.1    6.097      32.581
2015    5        5     4  51    4.2155   410.0    6.104      32.573
2015    5        5     4  57    4.2172   410.0    6.111      32.565
2015    5        5     5   2    4.2188   409.9    6.117      32.557
2015    5        5     5   8    4.2205   409.8    6.124      32.549
2015    5        5     5  14    4.2221   409.7    6.131      32.541
2015    5        5     5  20    4.2238   409.6    6.138      32.533
2015    5        5     5  26    4.2254   409.5    6.145      32.525
2015    5        5     5  31    4.2271   409.4    6.152      32.517
2015    5        5     5  37    4.2287   409.4    6.159      32.509
2015    5        5     5  43    4.2304   409.3    6.165      32.502
2015    5        5     5  49    4.2320   409.2    6.172      32.494
2015    5        5     5  55    4.2337   409.1    6.179      32.486
2015    5        5     6   1    4.2353   409.0    6.186      32.479
2015    5        5     6   6    4.2370   408.9    6.193      32.471
2015    5        5     6  12    4.2386   408.9    6.200      32.464
2015    5        5     6  18    4.2403   408.8    6.207      32.456
2015    5        5     6  24    4.2420   408.7    6.214      32.449
2015    5        5     6  30    4.2436   408.6    6.221      32.442
2015    5        5     6  35    4.2453   408.5    6.228      32.434
2015    5        5     6  41    4.2470   408.4    6.235      32.427
2015    5        5     6  47    4.2486   408.4    6.242      32.420
2015    5        5     6  53    4.2503   408.3    6.249      32.413
2015    5        5     6  59    4.2520   408.2    6.256      32.406
2015    5        5     7   4    4.2536   408.1    6.262      32.399
2015    5        5     7  10    4.2553   408.0    6.269      32.391
2015    5        5     7  16    4.2570   408.0    6.276      32.384
2015    5        5     7  22    4.2587   407.9    6.283      32.377
2015    5        5     7  28    4.2604   407.8    6.290      32.370
2015    5        5     7  34    4.2621   407.7    6.296      32.363
2015    5        5     7  39    4.2638   407.6    6.303      32.355
2015    5        5     7  45    4.2655   407.6    6.310      32.348
2015    5        5     7  51    4.2672   407.5    6.317      32.341
2015    5        5     7  57    4.2689   407.4    6.323      32.333
2015    5        5     8   3    4.2706   407.3    6.330      32.326
2015    5        5     8   8    4.2723   407.3    6.336      32.318
2015    5        5     8  14    4.2740   407.2    6.343      32.311
2015    5        5     8  20    4.2758   407.1    6.349      32.303
2015    5        5     8  26    4.2775   407.0    6.356      32.296
2015    5        5     8  32    4.2792   406.9    6.362      32.288
2015    5        5     8  38    4.2810   406.9    6.369      32.281
2015    5        5     8  43    4.2827   406.8    6.375      32.273
2015    5        5     8  49    4.2845   406.7    6.382      32.265
2015    5        5     8  55    4.2863   406.6    6.388      32.258
2015    5        5     9   1    4.2881   406.5    6.394      32.250
2015    5        5     9   7    4.2898   406.5    6.400      32.243
2015    5        5     9  12    4.2916   406.4    6.407      32.236
2015    5        5     9  18    4.2934   406.3    6.413      32.228
2015    5        5     9  24    4.2953   406.2    6.419      32.221
2015    5        5     9  30    4.2971   406.2    6.425      32.214
2015    5        5     9  36    4.2989   406.1    6.431      32.207
2015    5        5     9  42    4.3008   406.0    6.437      32.200
2015    5        5     9  47    4.3027   405.9    6.443      32.193
2015    5        5     9  53    4.3046   405.9    6.449      32.186
2015    5        5     9  59    4.3065   405.8    6.455      32.180
2015    5        5    10   5    4.3084   405.7    6.461      32.173
2015    5        5    10  11    4.3103   405.6    6.467      32.167
2015    5        5    10  16    4.3123   405.6    6.474      32.160
2015    5        5    10  22    4.3142   405.5    6.480      32.154
2015    5        5    10  28    4.3162   405.4    6.486      32.148
2015    5        5    10  34    4.3182   405.3    6.492      32.142
2015    5        5    10  40    4.3202   405.3    6.498      32.136
2015    5        5    10  46    4.3222   405.2    6.504      32.131
2015    5        5    10  51    4.3243   405.1    6.510      32.125
2015    5        5    10  57    4.3263   405.0    6.516      32.120
2015    5        5    11   3    4.3284   405.0    6.522      32.114
2015    5        5    11   9    4.3305   404.9    6.529      32.109
2015    5        5    11  15    4.3325   404.8    6.535      32.104
2015    5        5    11  21    4.3346   404.8    6.541      32.099
2015    5        5    11  26    4.3367   404.7    6.547      32.094
2015    5        5    11  32    4.3388   404.6    6.554      32.090
2015    5        5    11  38    4.3410   404.6    6.560      32.085
2015    5        5    11  44    4.3431   404.5    6.566      32.081
2015    5        5    11  50    4.3452   404.4    6.573      32.077
2015    5        5    11  55    4.3474   404.4    6.579      32.072
2015    5        5    12   1    4.3495   404.3    6.586      32.068
2015    5        5    12   7    4.3517   404.2    6.592      32.064
2015    5        5    12  13    4.3538   404.2    6.599      32.061
2015    5        5    12  19    4.3560   404.1    6.606      32.057
2015    5        5    12  25    4.3582   404.0    6.612      32.053
2015    5        5    12  30    4.3603   404.0    6.619      32.050
2015    5        5    12  36    4.3625   403.9    6.626      32.046
2015    5        5    12  42    4.3647   403.8    6.632      32.043
2015    5        5    12  48    4.3669   403.8    6.639      32.040
2015    5        5    12  54    4.3691   403.7    6.646      32.037
2015    5        5    13   0    4.3713   403.6    6.653      32.034
2015    5        5    13   5    4.3735   403.6    6.660      32.031
2015    5        5    13  11    4.3757   403.5    6.667      32.028
2015    5        5    13  17    4.3780   403.5    6.674      32.026
2015    5        5    13  23    4.3802   403.4    6.681      32.023
2015    5        5    13  29    4.3824   403.3    6.688      32.021
2015    5        5    13  34    4.3847   403.3    6.695      32.019
2015    5        5    13  40    4.3869   403.2    6.702      32.017
2015    5        5    13  46    4.3892   403.1    6.710      32.015
2015    5        5    13  52    4.3915   403.1    6.717      32.013
2015    5        5    13  58    4.3937   403.0    6.724      32.011
2015    5        5    14   4    4.3960   403.0    6.732      32.010
2015    5        5    14   9    4.3983   402.9    6.739      32.008
2015    5        5    14  15    4.4006   402.8    6.747      32.007
2015    5        5    14  21    4.4029   402.8    6.754      32.005
2015    5        5    14  27    4.4052   402.7    6.762      32.005
2015    5        5    14  33    4.4075   402.7    6.769      32.004
2015    5        5    14  38    4.4099   402.6    6.777      32.003
2015    5        5    14  44    4.4122   402.6    6.785      32.003
2015    5        5    14  50    4.4145   402.5    6.792      32.003
2015    5        5    14  56    4.4169   402.4    6.800      32.003
2015    5        5    15   2    4.4192   402.4    6.808      32.003
2015    5        5    15   8    4.4216   402.3    6.815      32.004
2015    5        5    15  13    4.4239   402.3    6.823      32.004
2015    5        5    15  19    4.4263   402.2    6.831      32.005
2015    5        5    15  25    4.4287   402.2    6.838      32.005
2015    5        5    15  31    4.4311   402.1    6.846      32.006
2015    5        5    15  37    4.4335   402.1    6.854      32.006
2015    5        5    15  42    4.4359   402.0    6.862      32.007
2015    5        5    15  48    4.4383   402.0    6.869      32.008
2015    5        5    15  54    4.4408   401.9    6.877      32.009
2015    5        5    16   0    4.4432   401.9    6.885      32.010
2015    5        5    16   6    4.4456   401.8    6.892      32.012
2015    5        5    16  12    4.4481   401.8    6.900      32.014
2015    5        5    16  17    4.4505   401.7    6.907      32.016
2015    5        5    16  23    4.4530   401.7    6.915      32.018
2015    5        5    16  29    4.4554   401.6    6.922      32.021
2015    5        5    16  35    4.4579   401.6    6.929      32.024
2015    5        5    16  41    4.4603   401.5    6.936      32.027
2015    5        5    16  46    4.4628   401.5    6.943      32.030
2015    5        5    16  52    4.4653   401.4    6.950      32.033
2015    5        5    16  58    4.4678   401.4    6.957      32.036
2015    5        5    17   4    4.4703   401.3    6.964      32.039
2015    5        5    17  10    4.4728   401.3    6.970      32.041
2015    5        5    17  16    4.4753   401.2    6.977      32.044
2015    5        5    17  21    4.4779   401.2    6.983      32.047
2015    5        5    17  27    4.4804   401.1    6.990      32.050
2015    5        5    17  33    4.4830   401.1    6.996      32.052
2015    5        5    17  39    4.4855   401.0    7.003      32.055
2015    5        5    17  45    4.4881   401.0    7.009      32.058
2015    5        5    17  50    4.4907   400.9    7.015      32.060
2015    5        5    17  56    4.4934   400.9    7.021      32.063
2015    5        5    18   2    4.4960   400.8    7.027      32.066
2015    5        5    18   8    4.4986   400.8    7.034      32.068
2015    5        5    18  14    4.5013   400.8    7.040      32.071
2015    5        5    18  20    4.5040   400.7    7.046      32.074
2015    5        5    18  25    4.5067   400.7    7.051      32.077
2015    5        5    18  31    4.5094   400.6    7.057      32.080
2015    5        5    18  37    4.5121   400.6    7.063      32.083
2015    5        5    18  43    4.5149   400.5    7.069      32.086
2015    5        5    18  49    4.5176   400.5    7.075      32.089
2015    5        5    18  54    4.5204   400.5    7.081      32.092
2015    5        5    19   0    4.5231   400.4    7.087      32.096
2015    5        5    19   6    4.5259   400.4    7.092      32.099
2015    5        5    19  12    4.5287   400.4    7.098      32.103
2015    5        5    19  18    4.5315   400.3    7.104      32.106
2015    5        5    19  24    4.5343   400.3    7.110      32.110
2015    5        5    19  29    4.5371   400.2    7.115      32.114
2015    5        5    19  35    4.5400   400.2    7.121      32.118
2015    5        5    19  41    4.5428   400.2    7.127      32.122
2015    5        5    19  47    4.5456   400.1    7.133      32.127
2015    5        5    19  53    4.5484   400.1    7.138      32.131
2015    5        5    19  58    4.5513   400.1    7.144      32.135
2015    5        5    20   4    4.5541   400.0    7.150      32.140
2015    5        5    20  10    4.5570   400.0    7.156      32.145
2015    5        5    20  16    4.5598   400.0    7.161      32.149
2015    5        5    20  22    4.5627   399.9    7.167      32.154
2015    5        5    20  27    4.5655   399.9    7.173      32.159
2015    5        5    20  33    4.5684   399.9    7.179      32.164
2015    5        5    20  39    4.5713   399.8    7.185      32.169
2015    5        5    20  45    4.5741   399.8    7.191      32.175
2015    5        5    20  51    4.5770   399.8    7.197      32.180
2015    5        5    20  57    4.5799   399.7    7.202      32.186
2015    5        5    21   2    4.5828   399.7    7.208      32.191
2015    5        5    21   8    4.5857   399.7    7.215      32.197
2015    5        5    21  14    4.5886   399.6    7.221      32.203
2015    5        5    21  20    4.5915   399.6    7.227      32.209
2015    5        5    21  26    4.5945   399.6    7.233      32.216
2015    5        5    21  31    4.5974   399.6    7.239      32.222
2015    5        5    21  37    4.6003   399.5    7.245      32.229
2015    5        5    21  43    4.6033   399.5    7.252      32.236
2015    5        5    21  49    4.6062   399.5    7.258      32.243
2015    5        5    21  55    4.6091   399.5    7.264      32.251
2015    5        5    22   0    4.6121   399.4    7.271      32.258
2015    5        5    22   6    4.6151   399.4    7.277      32.266
2015    5        5    22  12    4.6180   399.4    7.284      32.274
2015    5        5    22  18    4.6210   399.4    7.290      32.283
2015    5        5    22  24    4.6240   399.3    7.296      32.291
2015    5        5    22  30    4.6270   399.3    7.303      32.300
2015    5        5    22  35    4.6300   399.3    7.310      32.310
2015    5        5    22  41    4.6330   399.3    7.316      32.319
2015    5        5    22  47    4.6360   399.3    7.323      32.328
2015    5        5    22  53    4.6390   399.2    7.329      32.338
2015    5        5    22  59    4.6420   399.2    7.336      32.348
2015    5        5    23   4    4.6451   399.2    7.343      32.358
2015    5        5    23  10    4.6481   399.2    7.350      32.368
2015    5        5    23  16    4.6512   399.2    7.357      32.379
2015    5        5    23  22    4.6543   399.1    7.363      32.390
2015    5        5    23  28    4.6574   399.1    7.370      32.401
2015    5        5    23  33    4.6605   399.1    7.377      32.413
2015    5        5    23  39    4.6636   399.1    7.384      32.426
2015    5        5    23  45    4.6667   399.1    7.391      32.439
2015    5        5    23  51    4.6698   399.1    7.398      32.452
2015    5        5    23  57    4.6730   399.0    7.405      32.465
2015    5        6     0   3    4.6761   399.0    7.412      32.479
2015    5        6     0   8    4.6793   399.0    7.418      32.493
2015    5        6     0  14    4.6825   399.0    7.425      32.507
2015    5        6     0  20    4.6857   399.0    7.432      32.521
2015    5        6     0  26    4.6890   399.0    7.439      32.535
2015    5        6     0  32    4.6922   399.0    7.446      32.549
2015    5        6     0  37    4.6955   399.0    7.453      32.564
2015    5        6     0  43    4.6988   399.0    7.460      32.579
2015    5        6     0  49    4.7021   399.0    7.467      32.595
2015    5        6     0  55    4.7054   399.0    7.474      32.612
2015    5        6     1   1    4.7087   399.0    7.481      32.629
2015    5        6     1   6    4.7120   399.0    7.487      32.647
2015    5        6     1  12    4.7153   399.0    7.494      32.665
2015    5        6     1  18    4.7185   399.0    7.500      32.683
2015    5        6     1  24    4.7218   399.0    7.506      32.701
2015    5        6     1  30    4.7250   399.0    7.512      32.719
2015    5        6     1  35    4.7282   399.0    7.517      32.738
2015    5        6     1  41    4.7314   399.0    7.523      32.756
2015    5        6     1  47    4.7346   399.0    7.528      32.774
2015    5        6     1  53    4.7378   399.0    7.534      32.792
2015    5        6     1  59    4.7409   399.0    7.539      32.810
2015    5        6     2   5    4.7440   399.0    7.544      32.827
2015    5        6     2  10    4.7472   399.0    7.549      32.845
2015    5        6     2  16    4.7502   399.0    7.554      32.862
2015    5        6     2  22    4.7533   399.0    7.558      32.880
2015    5        6     2  28    4.7564   399.0    7.563      32.897
2015    5        6     2  34    4.7594   399.0    7.568      32.914
2015    5        6     2  39    4.7625   399.0    7.572      32.931
2015    5        6     2  45    4.7655   399.0    7.576      32.947
2015    5        6     2  51    4.7685   399.0    7.581      32.964
2015    5        6     2  57    4.7714   399.0    7.585      32.980
2015    5        6     3   3    4.7744   399.0    7.589      32.997
2015    5        6     3   8    4.7773   399.0    7.593      33.013
2015    5        6     3  14    4.7803   399.0    7.597      33.029
2015    5        6     3  20    4.7832   399.0    7.601      33.045
2015    5        6     3  26    4.7861   399.0    7.605      33.060
2015    5        6     3  32    4.7890   399.0    7.609      33.076
2015    5        6     3  37    4.7918   399.0    7.613      33.092
2015    5        6     3  43    4.7947   399.0    7.616      33.107
2015    5        6     3  49    4.7975   399.0    7.620      33.122
2015    5        6     3  55    4.8003   399.0    7.624      33.138
2015    5        6     4   1    4.8031   399.0    7.628      33.153
2015    5        6     4   7    4.8059   399.0    7.631      33.169
2015    5        6     4  12    4.8087   399.0    7.635      33.184
2015    5        6     4  18    4.8114   399.0    7.638      33.199
2015    5        6     4  24    4.8141   399.0    7.642      33.215
2015    5        6     4  30    4.8168   399.0    7.645      33.230
2015    5        6     4  36    4.8195   399.0    7.649      33.246
2015    5        6     4  41    4.8222   399.0    7.652      33.261
2015    5        6     4  47    4.8248   399.0    7.655      33.277
2015    5        6     4  53    4.8275   399.1    7.659      33.292
2015    5        6     4  59    4.8301   399.1    7.662      33.308
2015    5        6     5   5    4.8327   399.1    7.665      33.323
2015    5        6     5  10    4.8353   399.1    7.668      33.339
2015    5        6     5  16    4.8379   399.1    7.671      33.354
2015    5        6     5  22    4.8404   399.1    7.674      33.370
2015    5        6     5  28    4.8429   399.1    7.677      33.385
2015    5        6     5  34    4.8454   399.1    7.680      33.400
2015    5        6     5  39    4.8479   399.1    7.683      33.416
2015    5        6     5  45    4.8504   399.1    7.685      33.431
2015    5        6     5  51    4.8528   399.1    7.688      33.446
2015    5        6     5  57    4.8552   399.1    7.691      33.461
2015    5        6     6   3    4.8576   399.1    7.694      33.475
2015    5        6     6   8    4.8599   399.1    7.696      33.490
2015    5        6     6  14    4.8622   399.1    7.699      33.505
2015    5        6     6  20    4.8645   399.1    7.702      33.519
2015    5        6     6  26    4.8668   399.1    7.704      33.533
2015    5        6     6  32    4.8690   399.1    7.707      33.548
2015    5        6     6  37    4.8712   399.1    7.709      33.562
2015    5        6     6  43    4.8733   399.1    7.712      33.576
2015    5        6     6  49    4.8754   399.1    7.714      33.590
2015    5        6     6  55    4.8775   399.1    7.717      33.603
2015    5        6     7   1    4.8795   399.1    7.720      33.617
2015    5        6     7   7    4.8814   399.1    7.722      33.630
2015    5        6     7  12    4.8833   399.1    7.725      33.643
2015    5        6     7  18    4.8852   399.1    7.727      33.656
2015    5        6     7  24    4.8870   399.1    7.730      33.670
2015    5        6     7  30    4.8887   399.1    7.732      33.683
2015    5        6     7  36    4.8904   399.1    7.735      33.697
2015    5        6     7  41    4.8920   399.1    7.737      33.711
2015    5        6     7  47    4.8936   399.1    7.739      33.725
2015    5        6     7  53    4.8951   399.1    7.741      33.739
2015    5        6     7  59    4.8966   399.1    7.743      33.753
2015    5        6     8   5    4.8980   399.1    7.745      33.768
2015    5        6     8  10    4.8994   399.1    7.747      33.782
2015    5        6     8  16    4.9007   399.1    7.748      33.797
2015    5        6     8  22    4.9020   399.1    7.750      33.811
2015    5        6     8  28    4.9032   399.0    7.751      33.825
2015    5        6     8  34    4.9043   399.0    7.753      33.839
2015    5        6     8  39    4.9055   399.0    7.754      33.853
2015    5        6     8  45    4.9066   399.0    7.755      33.867
2015    5        6     8  51    4.9076   399.0    7.756      33.881
2015    5        6     8  57    4.9087   399.0    7.757      33.896
2015    5        6     9   3    4.9096   399.0    7.758      33.910
2015    5        6     9   8    4.9106   399.0    7.759      33.924
2015    5        6     9  14    4.9115   399.0    7.759      33.939
2015    5        6     9  20    4.9124   398.9    7.760      33.954
2015    5        6     9  26    4.9132   398.9    7.760      33.968
2015    5        6     9  32    4.9140   398.9    7.761      33.983
2015    5        6     9  37    4.9148   398.9    7.761      33.998
2015    5        6     9  43    4.9155   398.9    7.761      34.013
2015    5        6     9  49    4.9162   398.9    7.761      34.028
2015    5        6     9  55    4.9168   398.8    7.761      34.042
2015    5        6    10   1    4.9174   398.8    7.761      34.056
2015    5        6    10   6    4.9180   398.8    7.761      34.070
2015    5        6    10  12    4.9185   398.8    7.761      34.083
2015    5        6    10  18    4.9190   398.8    7.761      34.096
2015    5        6    10  24    4.9195   398.8    7.760      34.108
2015    5        6    10  30    4.9199   398.8    7.760      34.120
2015    5        6    10  36    4.9202   398.7    7.759      34.131
2015    5        6    10  41    4.9206   398.7    7.758      34.142
2015    5        6    10  47    4.9208   398.7    7.757      34.152
2015    5        6    10  53    4.9211   398.7    7.756      34.162
2015    5        6    10  59    4.9213   398.7    7.755      34.171
2015    5        6    11   5    4.9214   398.7    7.754      34.180
2015    5        6    11  10    4.9215   398.7    7.753      34.189
2015    5        6    11  16    4.9216   398.6    7.752      34.197
2015    5        6    11  22    4.9216   398.6    7.751      34.205
2015    5        6    11  28    4.9216   398.6    7.749      34.212
2015    5        6    11  34    4.9215   398.6    7.748      34.218
2015    5        6    11  39    4.9214   398.6    7.746      34.225
2015    5        6    11  45    4.9212   398.6    7.744      34.231
2015    5        6    11  51    4.9210   398.6    7.743      34.236
2015    5        6    11  57    4.9208   398.5    7.741      34.242
2015    5        6    12   3    4.9205   398.5    7.739      34.247
2015    5        6    12   8    4.9202   398.5    7.737      34.251
2015    5        6    12  14    4.9199   398.5    7.735      34.255
2015    5        6    12  20    4.9195   398.5    7.733      34.259
2015    5        6    12  26    4.9191   398.5    7.731      34.263
2015    5        6    12  32    4.9187   398.5    7.728      34.266
2015    5        6    12  37    4.9182   398.4    7.726      34.269
2015    5        6    12  43    4.9177   398.4    7.724      34.272
2015    5        6    12  49    4.9172   398.4    7.722      34.275
2015    5        6    12  55    4.9166   398.4    7.719      34.277
2015    5        6    13   1    4.9160   398.4    7.717      34.279
2015    5        6    13   6    4.9154   398.4    7.714      34.281
2015    5        6    13  12    4.9148   398.4    7.712      34.283
2015    5        6    13  18    4.9141   398.4    7.710      34.284
2015    5        6    13  24    4.9134   398.3    7.707      34.285
2015    5        6    13  30    4.9127   398.3    7.705      34.287
2015    5        6    13  35    4.9120   398.3    7.702      34.288
2015    5        6    13  41    4.9113   398.3    7.699      34.288
2015    5        6    13  47    4.9105   398.3    7.697      34.289
2015    5        6    13  53    4.9097   398.3    7.694      34.289
2015    5        6    13  59    4.9089   398.3    7.692      34.290
2015    5        6    14   4    4.9081   398.2    7.690      34.290
2015    5        6    14  10    4.9073   398.2    7.687      34.290
2015    5        6    14  16    4.9064   398.2    7.685      34.291
2015    5        6    14  22    4.9055   398.2    7.682      34.291
2015    5        6    14  28    4.9046   398.2    7.680      34.291
2015    5        6    14  33    4.9037   398.2    7.677      34.292
2015    5        6    14  39    4.9027   398.2    7.675      34.292
2015    5        6    14  45    4.9018   398.2    7.672      34.293
2015    5        6    14  51    4.9008   398.2    7.670      34.293
2015    5        6    14  57    4.8998   398.2    7.667      34.294
2015    5        6    15   2    4.8988   398.1    7.664      34.294
2015    5        6    15   8    4.8977   398.1    7.662      34.294
2015    5        6    15  14    4.8967   398.1    7.659      34.294
2015    5        6    15  20    4.8956   398.1    7.656      34.294
2015    5        6    15  26    4.8945   398.1    7.653      34.294
2015    5        6    15  31    4.8934   398.1    7.650      34.294
2015    5        6    15  37    4.8923   398.1    7.648      34.293
2015    5        6    15  43    4.8911   398.1    7.645      34.293
2015    5        6    15  49    4.8900   398.1    7.642      34.293
2015    5        6    15  55    4.8888   398.1    7.639      34.293
2015    5        6    16   0    4.8877   398.1    7.636      34.294
2015    5        6    16   6    4.8865   398.0    7.633      34.294
2015    5        6    16  12    4.8853   398.0    7.630      34.294
2015    5        6    16  18    4.8842   398.0    7.626      34.295
2015    5        6    16  24    4.8830   398.0    7.623      34.297
2015    5        6    16  30    4.8818   398.0    7.620      34.298
2015    5        6    16  35    4.8807   398.0    7.617      34.301
2015    5        6    16  41    4.8795   398.0    7.614      34.304
2015    5        6    16  47    4.8784   398.0    7.610      34.308
2015    5        6    16  53    4.8772   398.0    7.607      34.312
2015    5        6    16  59    4.8761   398.0    7.603      34.316
2015    5        6    17   4    4.8750   398.0    7.600      34.321
2015    5        6    17  10    4.8739   398.0    7.596      34.325
2015    5        6    17  16    4.8728   398.0    7.592      34.330
2015    5        6    17  22    4.8717   398.0    7.588      34.334
2015    5        6    17  28    4.8706   398.0    7.584      34.338
2015    5        6    17  33    4.8696   398.0    7.580      34.342
2015    5        6    17  39    4.8685   398.0    7.575      34.346
2015    5        6    17  45    4.8675   398.0    7.571      34.349
2015    5        6    17  51    4.8666   398.0    7.567      34.352
2015    5        6    17  57    4.8656   398.0    7.562      34.356
2015    5        6    18   2    4.8646   398.0    7.557      34.358
2015    5        6    18   8    4.8637   398.0    7.553      34.361
2015    5        6    18  14    4.8628   398.0    7.548      34.363
2015    5        6    18  20    4.8619   398.0    7.543      34.365
2015    5        6    18  26    4.8611   398.0    7.538      34.367
2015    5        6    18  31    4.8602   398.0    7.533      34.369
2015    5        6    18  37    4.8594   398.0    7.528      34.370
2015    5        6    18  43    4.8587   398.0    7.523      34.371
2015    5        6    18  49    4.8579   398.0    7.518      34.373
2015    5        6    18  55    4.8572   398.1    7.513      34.373
2015    5        6    19   0    4.8565   398.1    7.508      34.374
2015    5        6    19   6    4.8559   398.1    7.503      34.374
2015    5        6    19  12    4.8553   398.1    7.497      34.375
2015    5        6    19  18    4.8547   398.1    7.492      34.375
2015    5        6    19  24    4.8542   398.1    7.487      34.375
2015    5        6    19  29    4.8537   398.1    7.481      34.376
2015    5        6    19  35    4.8532   398.1    7.476      34.376
2015    5        6    19  41    4.8528   398.1    7.471      34.376
2015    5        6    19  47    4.8525   398.1    7.465      34.376
2015    5        6    19  53    4.8521   398.2    7.460      34.376
2015    5        6    19  58    4.8519   398.2    7.455      34.376
2015    5        6    20   4    4.8517   398.2    7.449      34.376
2015    5        6    20  10    4.8515   398.2    7.444      34.376
2015    5        6    20  16    4.8514   398.2    7.439      34.377
2015    5        6    20  22    4.8514   398.2    7.434      34.377
2015    5        6    20  27    4.8514   398.2    7.429      34.378
2015    5        6    20  33    4.8515   398.3    7.424      34.379
2015    5        6    20  39    4.8517   398.3    7.419      34.379
2015    5        6    20  45    4.8519   398.3    7.414      34.381
2015    5        6    20  51    4.8522   398.3    7.409      34.382
2015    5        6    20  56    4.8525   398.3    7.404      34.384
2015    5        6    21   2    4.8530   398.4    7.399      34.386
2015    5        6    21   8    4.8535   398.4    7.394      34.389
2015    5        6    21  14    4.8541   398.4    7.390      34.392
2015    5        6    21  20    4.8548   398.4    7.386      34.395
2015    5        6    21  25    4.8557   398.4    7.381      34.399
2015    5        6    21  31    4.8566   398.5    7.377      34.403
2015    5        6    21  37    4.8576   398.5    7.373      34.408
2015    5        6    21  43    4.8587   398.5    7.370      34.414
2015    5        6    21  49    4.8599   398.6    7.366      34.421
2015    5        6    21  54    4.8613   398.6    7.363      34.428
2015    5        6    22   0    4.8627   398.6    7.360      34.436
2015    5        6    22   6    4.8643   398.7    7.357      34.445
2015    5        6    22  12    4.8661   398.7    7.355      34.455
2015    5        6    22  18    4.8679   398.7    7.353      34.467
2015    5        6    22  23    4.8700   398.8    7.350      34.480
2015    5        6    22  29    4.8722   398.8    7.348      34.494
2015    5        6    22  35    4.8745   398.9    7.347      34.509
2015    5        6    22  41    4.8770   399.0    7.345      34.526
2015    5        6    22  47    4.8796   399.0    7.343      34.543
2015    5        6    22  52    4.8824   399.1    7.342      34.561
2015    5        6    22  58    4.8853   399.2    7.340      34.580
2015    5        6    23   4    4.8883   399.2    7.339      34.599
2015    5        6    23  10    4.8914   399.3    7.338      34.618
2015    5        6    23  16    4.8945   399.4    7.337      34.638
2015    5        6    23  21    4.8978   399.5    7.335      34.658
2015    5        6    23  27    4.9011   399.5    7.334      34.679
2015    5        6    23  33    4.9045   399.6    7.333      34.700
2015    5        6    23  39    4.9080   399.7    7.333      34.722
2015    5        6    23  45    4.9116   399.8    7.332      34.744
2015    5        6    23  50    4.9153   399.9    7.331      34.767
2015    5        6    23  56    4.9190   400.0    7.331      34.791
2015    5        7     0   2    4.9229   400.0    7.331      34.816
2015    5        7     0   8    4.9268   400.1    7.330      34.840
2015    5        7     0  14    4.9308   400.2    7.330      34.866
2015    5        7     0  19    4.9349   400.3    7.331      34.893
2015    5        7     0  25    4.9390   400.4    7.331      34.920
2015    5        7     0  31    4.9433   400.5    7.332      34.948
2015    5        7     0  37    4.9476   400.6    7.332      34.976
2015    5        7     0  43    4.9520   400.7    7.333      35.006
2015    5        7     0  48    4.9565   400.8    7.335      35.036
2015    5        7     0  54    4.9611   400.9    7.336      35.066
2015    5        7     1   0    4.9658   401.0    7.338      35.097
2015    5        7     1   6    4.9705   401.1    7.340      35.129
2015    5        7     1  12    4.9754   401.2    7.342      35.162
2015    5        7     1  17    4.9803   401.3    7.345      35.194
2015    5        7     1  23    4.9853   401.4    7.348      35.228
2015    5        7     1  29    4.9905   401.5    7.352      35.261
2015    5        7     1  35    4.9958   401.6    7.355      35.296
2015    5        7     1  41    5.0012   401.7    7.360      35.330
2015    5        7     1  46    5.0068   401.8    7.365      35.364
2015    5        7     1  52    5.0125   401.9    7.371      35.398
2015    5        7     1  58    5.0183   402.0    7.377      35.432
2015    5        7     2   4    5.0243   402.2    7.384      35.468
2015    5        7     2  10    5.0302   402.3    7.392      35.505
2015    5        7     2  15    5.0362   402.4    7.400      35.542
2015    5        7     2  21    5.0422   402.5    7.408      35.582
2015    5        7     2  27    5.0481   402.6    7.417      35.626
2015    5        7     2  33    5.0540   402.8    7.427      35.673
2015    5        7     2  39    5.0597   402.9    7.436      35.725
2015    5        7     2  44    5.0653   403.1    7.445      35.780
2015    5        7     2  50    5.0708   403.2    7.455      35.840
2015    5        7     2  56    5.0761   403.4    7.464      35.906
2015    5        7     3   2    5.0812   403.6    7.472      35.978
2015    5        7     3   8    5.0861   403.8    7.480      36.054
2015    5        7     3  13    5.0908   403.9    7.487      36.134
2015    5        7     3  19    5.0954   404.1    7.494      36.219
2015    5        7     3  25    5.0997   404.3    7.500      36.307
2015    5        7     3  31    5.1038   404.5    7.506      36.398
2015    5        7     3  37    5.1076   404.6    7.511      36.492
2015    5        7     3  42    5.1113   404.8    7.515      36.588
2015    5        7     3  48    5.1148   405.0    7.519      36.685
2015    5        7     3  54    5.1181   405.2    7.522      36.785
2015    5        7     4   0    5.1213   405.4    7.525      36.886
2015    5        7     4   6    5.1242   405.5    7.528      36.990
2015    5        7     4  11    5.1270   405.7    7.530      37.096
2015    5        7     4  17    5.1296   405.9    7.531      37.204
2015    5        7     4  23    5.1320   406.0    7.533      37.314
2015    5        7     4  29    5.1343   406.2    7.534      37.427
2015    5        7     4  35    5.1363   406.4    7.536      37.539
2015    5        7     4  40    5.1381   406.5    7.537      37.654
2015    5        7     4  46    5.1397   406.7    7.539      37.772
2015    5        7     4  52    5.1411   406.8    7.541      37.892
2015    5        7     4  58    5.1423   407.0    7.543      38.014
2015    5        7     5   4    5.1433   407.2    7.545      38.141
2015    5        7     5   9    5.1440   407.3    7.546      38.270
2015    5        7     5  15    5.1445   407.5    7.547      38.404
2015    5        7     5  21    5.1447   407.7    7.548      38.543
2015    5        7     5  27    5.1447   407.9    7.548      38.687
2015    5        7     5  33    5.1444   408.1    7.547      38.838
2015    5        7     5  38    5.1438   408.3    7.546      38.994
2015    5        7     5  44    5.1430   408.5    7.544      39.156
2015    5        7     5  50    5.1418   408.7    7.541      39.323
2015    5        7     5  56    5.1404   408.8    7.537      39.495
2015    5        7     6   2    5.1387   409.0    7.532      39.672
2015    5        7     6   7    5.1366   409.2    7.526      39.854
2015    5        7     6  13    5.1343   409.4    7.520      40.040
2015    5        7     6  19    5.1317   409.6    7.512      40.231
2015    5        7     6  25    5.1290   409.8    7.504      40.427
2015    5        7     6  31    5.1261   409.9    7.495      40.628
2015    5        7     6  36    5.1230   410.1    7.485      40.835
2015    5        7     6  42    5.1197   410.3    7.474      41.048
2015    5        7     6  48    5.1165   410.5    7.462      41.269
2015    5        7     6  54    5.1131   410.6    7.450      41.497
2015    5        7     6  59    5.1097   410.8    7.437      41.732
2015    5        7     7   5    5.1061   411.0    7.423      41.974
2015    5        7     7  11    5.1025   411.2    7.408      42.224
2015    5        7     7  17    5.0988   411.3    7.393      42.481
2015    5        7     7  23    5.0951   411.5    7.378      42.746
2015    5        7     7  28    5.0913   411.7    7.362      43.015
2015    5        7     7  34    5.0873   411.9    7.345      43.287
2015    5        7     7  40    5.0833   412.1    7.328      43.562
2015    5        7     7  46    5.0791   412.2    7.310      43.839
2015    5        7     7  52    5.0749   412.4    7.292      44.116
2015    5        7     7  57    5.0705   412.6    7.273      44.392
2015    5        7     8   3    5.0661   412.7    7.254      44.665
2015    5        7     8   9    5.0617   412.9    7.234      44.938
2015    5        7     8  15    5.0572   413.1    7.214      45.209
2015    5        7     8  21    5.0527   413.3    7.194      45.479
2015    5        7     8  26    5.0483   413.4    7.173      45.747
2015    5        7     8  32    5.0439   413.6    7.151      46.015
2015    5        7     8  38    5.0395   413.7    7.129      46.282
2015    5        7     8  44    5.0352   413.9    7.106      46.549
2015    5        7     8  50    5.0310   414.1    7.084      46.815
2015    5        7     8  55    5.0267   414.2    7.060      47.081
2015    5        7     9   1    5.0225   414.4    7.037      47.347
2015    5        7     9   7    5.0183   414.5    7.012      47.618
2015    5        7     9  13    5.0142   414.7    6.988      47.891
2015    5        7     9  19    5.0101   414.8    6.963      48.167
2015    5        7     9  24    5.0061   415.0    6.937      48.445
2015    5        7     9  30    5.0020   415.1    6.911      48.726
2015    5        7     9  36    4.9980   415.3    6.885      49.008
2015    5        7     9  42    4.9939   415.4    6.858      49.291
2015    5        7     9  48    4.9899   415.6    6.831      49.574
2015    5        7     9  53    4.9859   415.7    6.803      49.854
2015    5        7     9  59    4.9818   415.9    6.775      50.133
2015    5        7    10   5    4.9778   416.0    6.746      50.411
2015    5        7    10  11    4.9737   416.2    6.716      50.687
2015    5        7    10  17    4.9696   416.4    6.686      50.961
2015    5        7    10  22    4.9655   416.5    6.656      51.235
2015    5        7    10  28    4.9613   416.7    6.624      51.508
2015    5        7    10  34    4.9572   416.8    6.592      51.781
2015    5        7    10  40    4.9529   417.0    6.560      52.053
2015    5        7    10  46    4.9487   417.2    6.527      52.324
2015    5        7    10  51    4.9444   417.3    6.493      52.597
2015    5        7    10  57    4.9401   417.5    6.458      52.871
2015    5        7    11   3    4.9359   417.7    6.423      53.146
2015    5        7    11   9    4.9316   417.8    6.387      53.421
2015    5        7    11  15    4.9274   417.9    6.351      53.696
2015    5        7    11  20    4.9232   418.1    6.314      53.971
2015    5        7    11  26    4.9192   418.2    6.277      54.246
2015    5        7    11  32    4.9152   418.4    6.241      54.520
2015    5        7    11  38    4.9112   418.5    6.204      54.792
2015    5        7    11  44    4.9074   418.6    6.167      55.063
2015    5        7    11  49    4.9036   418.8    6.130      55.334
2015    5        7    11  55    4.8999   418.9    6.094      55.603
2015    5        7    12   1    4.8963   419.1    6.057      55.873
2015    5        7    12   7    4.8927   419.2    6.021      56.142
2015    5        7    12  13    4.8892   419.3    5.984      56.413
2015    5        7    12  18    4.8858   419.5    5.947      56.684
2015    5        7    12  24    4.8825   419.6    5.911      56.957
2015    5        7    12  30    4.8792   419.7    5.875      57.231
2015    5        7    12  36    4.8759   419.9    5.838      57.507
2015    5        7    12  42    4.8728   420.0    5.802      57.785
2015    5        7    12  47    4.8697   420.2    5.765      58.067
2015    5        7    12  53    4.8667   420.3    5.729      58.353
2015    5        7    12  59    4.8638   420.4    5.692      58.644
2015    5        7    13   5    4.8611   420.6    5.656      58.938
2015    5        7    13  11    4.8585   420.7    5.620      59.234
2015    5        7    13  16    4.8560   420.9    5.584      59.532
2015    5        7    13  22    4.8537   421.0    5.548      59.831
2015    5        7    13  28    4.8515   421.1    5.513      60.131
2015    5        7    13  34    4.8495   421.2    5.479      60.428
2015    5        7    13  40    4.8477   421.4    5.446      60.722
2015    5        7    13  45    4.8460   421.5    5.413      61.013
2015    5        7    13  51    4.8445   421.6    5.381      61.301
2015    5        7    13  57    4.8431   421.7    5.351      61.586
2015    5        7    14   3    4.8420   421.9    5.321      61.867
2015    5        7    14   9    4.8410   422.0    5.292      62.146
2015    5        7    14  14    4.8401   422.1    5.264      62.421
2015    5        7    14  20    4.8395   422.2    5.237      62.693
2015    5        7    14  26    4.8390   422.4    5.211      62.961
2015    5        7    14  32    4.8387   422.5    5.185      63.225
2015    5        7    14  37    4.8386   422.6    5.161      63.488
2015    5        7    14  43    4.8386   422.8    5.138      63.748
2015    5        7    14  49    4.8389   422.9    5.116      64.005
2015    5        7    14  55    4.8395   423.1    5.095      64.262
2015    5        7    15   1    4.8402   423.2    5.074      64.519
2015    5        7    15   6    4.8413   423.3    5.055      64.775
2015    5        7    15  12    4.8426   423.5    5.036      65.031
2015    5        7    15  18    4.8442   423.6    5.019      65.288
2015    5        7    15  24    4.8462   423.8    5.002      65.545
2015    5        7    15  30    4.8485   423.9    4.986      65.803
2015    5        7    15  35    4.8512   424.1    4.971      66.062
2015    5        7    15  41    4.8542   424.3    4.957      66.322
2015    5        7    15  47    4.8577   424.5    4.944      66.582
2015    5        7    15  53    4.8616   424.7    4.933      66.843
2015    5        7    15  59    4.8661   424.8    4.922      67.106
2015    5        7    16   4    4.8710   425.0    4.912      67.370
2015    5        7    16  10    4.8766   425.2    4.903      67.636
2015    5        7    16  16    4.8828   425.4    4.895      67.904
2015    5        7    16  22    4.8896   425.6    4.889      68.174
2015    5        7    16  28    4.8969   425.8    4.883      68.446
2015    5        7    16  33    4.9047   426.0    4.878      68.722
2015    5        7    16  39    4.9129   426.2    4.874      69.000
2015    5        7    16  45    4.9214   426.4    4.871      69.281
2015    5        7    16  51    4.9302   426.6    4.869      69.565
2015    5        7    16  57    4.9393   426.9    4.868      69.851
2015    5        7    17   2    4.9486   427.1    4.868      70.140
2015    5        7    17   8    4.9582   427.3    4.869      70.432
2015    5        7    17  14    4.9679   427.6    4.871      70.726
2015    5        7    17  20    4.9778   427.8    4.874      71.022
2015    5        7    17  26    4.9877   428.0    4.878      71.321
2015    5        7    17  31    4.9977   428.3    4.883      71.623
2015    5        7    17  37    5.0076   428.5    4.889      71.929
2015    5        7    17  43    5.0175   428.7    4.895      72.237
2015    5        7    17  49    5.0271   429.0    4.903      72.549
2015    5        7    17  55    5.0366   429.2    4.912      72.863
2015    5        7    18   0    5.0458   429.5    4.921      73.181
2015    5        7    18   6    5.0548   429.7    4.931      73.502
2015    5        7    18  12    5.0635   430.0    4.941      73.828
2015    5        7    18  18    5.0718   430.2    4.952      74.158
2015    5        7    18  24    5.0798   430.4    4.964      74.494
2015    5        7    18  29    5.0874   430.7    4.975      74.836
2015    5        7    18  35    5.0946   430.9    4.987      75.183
2015    5        7    18  41    5.1015   431.2    4.998      75.535
2015    5        7    18  47    5.1079   431.4    5.010      75.889
2015    5        7    18  53    5.1139   431.6    5.022      76.246
2015    5        7    18  58    5.1194   431.8    5.034      76.602
2015    5        7    19   4    5.1244   432.0    5.046      76.960
2015    5        7    19  10    5.1288   432.2    5.058      77.319
2015    5        7    19  16    5.1326   432.4    5.070      77.676
2015    5        7    19  22    5.1359   432.6    5.081      78.029
2015    5        7    19  27    5.1385   432.8    5.093      78.377
2015    5        7    19  33    5.1406   433.0    5.105      78.716
2015    5        7    19  39    5.1419   433.1    5.116      79.047
2015    5        7    19  45    5.1427   433.3    5.128      79.365
2015    5        7    19  50    5.1428   433.4    5.139      79.670
2015    5        7    19  56    5.1424   433.6    5.150      79.963
2015    5        7    20   2    5.1412   433.7    5.161      80.243
2015    5        7    20   8    5.1395   433.8    5.171      80.513
2015    5        7    20  14    5.1371   433.9    5.182      80.772
2015    5        7    20  19    5.1341   434.0    5.192      81.021
2015    5        7    20  25    5.1304   434.1    5.202      81.259
2015    5        7    20  31    5.1262   434.2    5.212      81.488
2015    5        7    20  37    5.1212   434.3    5.221      81.707
2015    5        7    20  43    5.1158   434.3    5.231      81.918
2015    5        7    20  48    5.1096   434.3    5.240      82.120
2015    5        7    20  54    5.1029   434.4    5.249      82.315
2015    5        7    21   0    5.0956   434.4    5.258      82.503
2015    5        7    21   6    5.0878   434.4    5.267      82.684
2015    5        7    21  12    5.0794   434.4    5.275      82.858
2015    5        7    21  17    5.0706   434.4    5.284      83.026
2015    5        7    21  23    5.0613   434.4    5.292      83.189
2015    5        7    21  29    5.0516   434.4    5.301      83.345
2015    5        7    21  35    5.0414   434.4    5.309      83.496
2015    5        7    21  41    5.0310   434.4    5.317      83.642
2015    5        7    21  46    5.0201   434.3    5.325      83.782
2015    5        7    21  52    5.0089   434.3    5.332      83.917
2015    5        7    21  58    4.9974   434.3    5.340      84.047
2015    5        7    22   4    4.9857   434.2    5.347      84.171
2015    5        7    22  10    4.9736   434.2    5.355      84.289
2015    5        7    22  15    4.9613   434.1    5.362      84.402
2015    5        7    22  21    4.9487   434.1    5.370      84.510
2015    5        7    22  27    4.9359   434.0    5.377      84.612
2015    5        7    22  33    4.9229   433.9    5.384      84.709
2015    5        7    22  39    4.9097   433.8    5.391      84.801
2015    5        7    22  44    4.8963   433.8    5.398      84.887
2015    5        7    22  50    4.8829   433.7    5.405      84.968
2015    5        7    22  56    4.8692   433.6    5.412      85.044
2015    5        7    23   2    4.8556   433.5    5.418      85.116
2015    5        7    23   8    4.8418   433.4    5.425      85.182
2015    5        7    23  13    4.8281   433.3    5.432      85.244
2015    5        7    23  19    4.8143   433.2    5.438      85.300
2015    5        7    23  25    4.8006   433.1    5.445      85.351
2015    5        7    23  31    4.7870   433.0    5.452      85.397
2015    5        7    23  37    4.7734   432.9    5.458      85.438
2015    5        7    23  42    4.7599   432.8    5.465      85.473
2015    5        7    23  48    4.7465   432.7    5.471      85.502
2015    5        7    23  54    4.7331   432.6    5.478      85.526
2015    5        8     0   0    4.7199   432.5    5.485      85.545
2015    5        8     0   6    4.7068   432.4    5.491      85.558
2015    5        8     0  11    4.6938   432.3    5.498      85.566
2015    5        8     0  17    4.6810   432.2    5.505      85.568
2015    5        8     0  23    4.6682   432.0    5.512      85.565
2015    5        8     0  29    4.6556   431.9    5.518      85.556
2015    5        8     0  34    4.6432   431.8    5.525      85.543
2015    5        8     0  40    4.6309   431.7    5.532      85.523
2015    5        8     0  46    4.6188   431.5    5.539      85.498
2015    5        8     0  52    4.6067   431.4    5.546      85.467
2015    5        8     0  58    4.5949   431.3    5.553      85.432
2015    5        8     1   3    4.5832   431.2    5.559      85.391
2015    5        8     1   9    4.5716   431.0    5.566      85.347
2015    5        8     1  15    4.5602   430.9    5.573      85.297
2015    5        8     1  21    4.5490   430.8    5.580      85.244
2015    5        8     1  27    4.5379   430.6    5.587      85.186
2015    5        8     1  32    4.5269   430.5    5.594      85.125
2015    5        8     1  38    4.5161   430.4    5.601      85.060
2015    5        8     1  44    4.5055   430.2    5.608      84.991
2015    5        8     1  50    4.4951   430.1    5.615      84.920
2015    5        8     1  56    4.4848   430.0    5.622      84.845
2015    5        8     2   1    4.4746   429.8    5.629      84.768
2015    5        8     2   7    4.4646   429.7    5.636      84.688
2015    5        8     2  13    4.4547   429.5    5.643      84.606
2015    5        8     2  19    4.4450   429.4    5.650      84.522
2015    5        8     2  25    4.4354   429.2    5.656      84.436
2015    5        8     2  30    4.4260   429.1    5.663      84.347
2015    5        8     2  36    4.4167   428.9    5.670      84.257
2015    5        8     2  42    4.4076   428.8    5.677      84.164
2015    5        8     2  48    4.3986   428.6    5.684      84.070
2015    5        8     2  54    4.3899   428.5    5.691      83.974
2015    5        8     2  59    4.3812   428.3    5.698      83.876
2015    5        8     3   5    4.3728   428.2    5.705      83.776
2015    5        8     3  11    4.3645   428.0    5.712      83.674
2015    5        8     3  17    4.3563   427.9    5.719      83.570
2015    5        8     3  23    4.3483   427.7    5.726      83.465
2015    5        8     3  28    4.3406   427.5    5.733      83.358
2015    5        8     3  34    4.3329   427.4    5.741      83.250
2015    5        8     3  40    4.3254   427.2    5.748      83.140
2015    5        8     3  46    4.3181   427.1    5.756      83.028
2015    5        8     3  52    4.3110   426.9    5.764      82.916
2015    5        8     3  57    4.3040   426.7    5.772      82.802
2015    5        8     4   3    4.2972   426.6    5.780      82.687
2015    5        8     4   9    4.2905   426.4    5.789      82.571
2015    5        8     4  15    4.2841   426.3    5.798      82.453
2015    5        8     4  21    4.2778   426.1    5.807      82.335
2015    5        8     4  26    4.2717   425.9    5.816      82.216
2015    5        8     4  32    4.2658   425.8    5.825      82.096
2015    5        8     4  38    4.2601   425.6    5.835      81.975
2015    5        8     4  44    4.2546   425.5    5.846      81.854
2015    5        8     4  49    4.2493   425.3    5.856      81.731
2015    5        8     4  55    4.2442   425.2    5.867      81.608
2015    5        8     5   1    4.2393   425.0    5.879      81.484
2015    5        8     5   7    4.2346   424.9    5.890      81.360
2015    5        8     5  13    4.2301   424.7    5.902      81.234
2015    5        8     5  18    4.2258   424.6    5.915      81.108
2015    5        8     5  24    4.2217   424.4    5.928      80.981
2015    5        8     5  30    4.2178   424.3    5.941      80.854
2015    5        8     5  36    4.2140   424.1    5.954      80.726
2015    5        8     5  42    4.2105   424.0    5.968      80.597
2015    5        8     5  47    4.2072   423.9    5.983      80.467
2015    5        8     5  53    4.2040   423.7    5.998      80.336
2015    5        8     5  59    4.2011   423.6    6.013      80.204
2015    5        8     6   5    4.1983   423.4    6.029      80.071
2015    5        8     6  11    4.1958   423.3    6.045      79.938
2015    5        8     6  16    4.1934   423.2    6.061      79.803
2015    5        8     6  22    4.1913   423.0    6.078      79.667
2015    5        8     6  28    4.1893   422.9    6.095      79.530
2015    5        8     6  34    4.1874   422.8    6.113      79.392
2015    5        8     6  40    4.1858   422.6    6.131      79.252
2015    5        8     6  45    4.1844   422.5    6.149      79.111
2015    5        8     6  51    4.1831   422.4    6.168      78.968
2015    5        8     6  57    4.1820   422.2    6.187      78.824
2015    5        8     7   3    4.1810   422.1    6.207      78.678
2015    5        8     7   9    4.1803   422.0    6.227      78.529
2015    5        8     7  14    4.1796   421.9    6.247      78.379
2015    5        8     7  20    4.1791   421.7    6.267      78.226
2015    5        8     7  26    4.1788   421.6    6.288      78.071
2015    5        8     7  32    4.1786   421.5    6.310      77.913
2015    5        8     7  38    4.1785   421.3    6.331      77.754
2015    5        8     7  43    4.1785   421.2    6.353      77.593
2015    5        8     7  49    4.1786   421.1    6.376      77.429
2015    5        8     7  55    4.1788   420.9    6.398      77.264
2015    5        8     8   1    4.1792   420.8    6.421      77.096
2015    5        8     8   7    4.1796   420.7    6.444      76.926
2015    5        8     8  12    4.1801   420.5    6.468      76.754
2015    5        8     8  18    4.1806   420.4    6.491      76.580
2015    5        8     8  24    4.1813   420.3    6.516      76.404
2015    5        8     8  30    4.1819   420.1    6.540      76.227
2015    5        8     8  35    4.1827   420.0    6.565      76.047
2015    5        8     8  41    4.1834   419.9    6.590      75.866
2015    5        8     8  47    4.1843   419.7    6.615      75.682
2015    5        8     8  53    4.1851   419.6    6.640      75.497
2015    5        8     8  59    4.1860   419.4    6.666      75.311
2015    5        8     9   4    4.1870   419.3    6.692      75.122
2015    5        8     9  10    4.1879   419.1    6.719      74.932
2015    5        8     9  16    4.1889   419.0    6.746      74.741
2015    5        8     9  22    4.1899   418.9    6.773      74.548
2015    5        8     9  28    4.1910   418.7    6.800      74.354
2015    5        8     9  33    4.1921   418.6    6.828      74.159
2015    5        8     9  39    4.1932   418.4    6.856      73.962
2015    5        8     9  45    4.1944   418.3    6.884      73.765
2015    5        8     9  51    4.1955   418.1    6.913      73.567
2015    5        8     9  57    4.1967   418.0    6.942      73.368
2015    5        8    10   2    4.1980   417.8    6.971      73.169
2015    5        8    10   8    4.1992   417.6    7.001      72.969
2015    5        8    10  14    4.2005   417.5    7.031      72.770
2015    5        8    10  20    4.2018   417.3    7.061      72.570
2015    5        8    10  26    4.2032   417.2    7.092      72.370
2015    5        8    10  31    4.2045   417.0    7.123      72.171
2015    5        8    10  37    4.2059   416.9    7.155      71.972
2015    5        8    10  43    4.2074   416.7    7.187      71.774
2015    5        8    10  49    4.2089   416.6    7.219      71.577
2015    5        8    10  55    4.2104   416.4    7.252      71.380
2015    5        8    11   0    4.2120   416.3    7.285      71.185
2015    5        8    11   6    4.2136   416.1    7.319      70.991
2015    5        8    11  12    4.2153   416.0    7.353      70.798
2015    5        8    11  18    4.2170   415.8    7.387      70.607
2015    5        8    11  24    4.2188   415.7    7.422      70.418
2015    5        8    11  29    4.2207   415.5    7.458      70.230
2015    5        8    11  35    4.2226   415.4    7.493      70.044
2015    5        8    11  41    4.2246   415.2    7.530      69.861
2015    5        8    11  47    4.2267   415.1    7.566      69.679
2015    5        8    11  53    4.2289   414.9    7.604      69.499
2015    5        8    11  58    4.2312   414.8    7.641      69.323
2015    5        8    12   4    4.2336   414.6    7.679      69.148
2015    5        8    12  10    4.2360   414.5    7.718      68.975
2015    5        8    12  16    4.2387   414.3    7.757      68.805
2015    5        8    12  21    4.2414   414.2    7.796      68.636
2015    5        8    12  27    4.2443   414.0    7.836      68.470
2015    5        8    12  33    4.2472   413.9    7.876      68.306
2015    5        8    12  39    4.2504   413.8    7.916      68.143
2015    5        8    12  45    4.2537   413.6    7.957      67.980
2015    5        8    12  50    4.2573   413.5    7.999      67.817
2015    5        8    12  56    4.2610   413.3    8.040      67.657
2015    5        8    13   2    4.2649   413.2    8.082      67.500
2015    5        8    13   8    4.2691   413.0    8.124      67.345
2015    5        8    13  14    4.2735   412.9    8.166      67.192
2015    5        8    13  19    4.2782   412.7    8.209      67.040
2015    5        8    13  25    4.2832   412.6    8.251      66.890
2015    5        8    13  31    4.2884   412.4    8.293      66.745
2015    5        8    13  37    4.2941   412.2    8.335      66.603
2015    5        8    13  43    4.3000   412.1    8.376      66.463
2015    5        8    13  48    4.3065   411.9    8.417      66.324
2015    5        8    13  54    4.3132   411.7    8.458      66.186
2015    5        8    14   0    4.3205   411.6    8.498      66.051
2015    5        8    14   6    4.3281   411.4    8.538      65.916
2015    5        8    14  12    4.3364   411.3    8.577      65.783
2015    5        8    14  17    4.3451   411.1    8.615      65.649
2015    5        8    14  23    4.3544   410.9    8.652      65.516
2015    5        8    14  29    4.3641   410.8    8.689      65.381
2015    5        8    14  35    4.3745   410.7    8.725      65.246
2015    5        8    14  41    4.3854   410.5    8.760      65.110
2015    5        8    14  46    4.3971   410.4    8.794      64.972
2015    5        8    14  52    4.4092   410.2    8.827      64.834
2015    5        8    14  58    4.4220   410.1    8.860      64.694
2015    5        8    15   4    4.4354   410.0    8.891      64.552
2015    5        8    15  10    4.4495   409.9    8.921      64.409
2015    5        8    15  15    4.4641   409.7    8.951      64.264
2015    5        8    15  21    4.4795   409.6    8.979      64.118
2015    5        8    15  27    4.4954   409.5    9.006      63.969
2015    5        8    15  33    4.5119   409.4    9.033      63.819
2015    5        8    15  38    4.5290   409.3    9.058      63.667
2015    5        8    15  44    4.5469   409.2    9.082      63.514
2015    5        8    15  50    4.5652   409.1    9.105      63.359
2015    5        8    15  56    4.5842   409.0    9.127      63.202
2015    5        8    16   2    4.6036   408.9    9.148      63.044
2015    5        8    16   7    4.6237   408.8    9.168      62.885
2015    5        8    16  13    4.6442   408.8    9.187      62.724
2015    5        8    16  19    4.6653   408.7    9.204      62.563
2015    5        8    16  25    4.6866   408.6    9.221      62.400
2015    5        8    16  31    4.7084   408.5    9.237      62.236
2015    5        8    16  36    4.7305   408.5    9.251      62.071
2015    5        8    16  42    4.7530   408.4    9.265      61.906
2015    5        8    16  48    4.7757   408.4    9.277      61.740
2015    5        8    16  54    4.7987   408.3    9.289      61.574
2015    5        8    17   0    4.8218   408.2    9.299      61.407
2015    5        8    17   5    4.8452   408.2    9.309      61.240
2015    5        8    17  11    4.8687   408.2    9.318      61.073
2015    5        8    17  17    4.8924   408.1    9.325      60.906
2015    5        8    17  23    4.9161   408.1    9.332      60.740
2015    5        8    17  29    4.9399   408.0    9.338      60.574
2015    5        8    17  34    4.9637   408.0    9.343      60.409
2015    5        8    17  40    4.9875   408.0    9.347      60.245
2015    5        8    17  46    5.0114   408.0    9.351      60.081
2015    5        8    17  52    5.0352   407.9    9.353      59.918
2015    5        8    17  58    5.0590   407.9    9.355      59.755
2015    5        8    18   3    5.0828   407.9    9.356      59.592
2015    5        8    18   9    5.1065   407.9    9.356      59.430
2015    5        8    18  15    5.1302   407.9    9.356      59.268
2015    5        8    18  21    5.1537   407.9    9.354      59.106
2015    5        8    18  27    5.1772   407.9    9.352      58.943
2015    5        8    18  32    5.2004   407.9    9.350      58.781
2015    5        8    18  38    5.2236   407.9    9.347      58.619
2015    5        8    18  44    5.2466   407.9    9.343      58.456
2015    5        8    18  50    5.2695   407.9    9.339      58.293
2015    5        8    18  55    5.2922   407.9    9.334      58.129
2015    5        8    19   1    5.3148   407.9    9.328      57.964
2015    5        8    19   7    5.3372   407.9    9.322      57.798
2015    5        8    19  13    5.3594   408.0    9.316      57.631
2015    5        8    19  19    5.3813   408.0    9.309      57.462
2015    5        8    19  24    5.4031   408.0    9.301      57.291
2015    5        8    19  30    5.4246   408.0    9.294      57.117
2015    5        8    19  36    5.4459   408.1    9.285      56.941
2015    5        8    19  42    5.4669   408.1    9.276      56.761
2015    5        8    19  48    5.4877   408.1    9.267      56.579
2015    5        8    19  53    5.5082   408.2    9.258      56.393
2015    5        8    19  59    5.5284   408.2    9.248      56.203
2015    5        8    20   5    5.5482   408.3    9.238      56.008
2015    5        8    20  11    5.5678   408.3    9.227      55.810
2015    5        8    20  17    5.5869   408.4    9.216      55.606
2015    5        8    20  22    5.6057   408.4    9.205      55.398
2015    5        8    20  28    5.6240   408.5    9.193      55.185
2015    5        8    20  34    5.6419   408.5    9.182      54.969
2015    5        8    20  40    5.6593   408.6    9.170      54.750
2015    5        8    20  46    5.6763   408.7    9.157      54.527
2015    5        8    20  51    5.6928   408.7    9.145      54.303
2015    5        8    20  57    5.7088   408.8    9.132      54.077
2015    5        8    21   3    5.7242   408.9    9.119      53.850
2015    5        8    21   9    5.7391   408.9    9.105      53.622
2015    5        8    21  15    5.7534   409.0    9.092      53.392
2015    5        8    21  20    5.7672   409.1    9.078      53.161
2015    5        8    21  26    5.7804   409.2    9.064      52.928
2015    5        8    21  32    5.7931   409.2    9.050      52.694
2015    5        8    21  38    5.8051   409.3    9.036      52.460
2015    5        8    21  44    5.8166   409.4    9.021      52.226
2015    5        8    21  49    5.8275   409.5    9.006      51.992
2015    5        8    21  55    5.8379   409.6    8.992      51.759
2015    5        8    22   1    5.8477   409.7    8.977      51.527
2015    5        8    22   7    5.8570   409.8    8.962      51.296
2015    5        8    22  12    5.8656   409.9    8.946      51.068
2015    5        8    22  18    5.8738   410.0    8.931      50.842
2015    5        8    22  24    5.8814   410.1    8.915      50.619
2015    5        8    22  30    5.8885   410.2    8.900      50.399
2015    5        8    22  36    5.8951   410.3    8.884      50.182
2015    5        8    22  41    5.9012   410.4    8.868      49.969
2015    5        8    22  47    5.9068   410.5    8.852      49.760
2015    5        8    22  53    5.9120   410.6    8.836      49.556
2015    5        8    22  59    5.9167   410.7    8.820      49.357
2015    5        8    23   5    5.9210   410.8    8.804      49.164
2015    5        8    23  10    5.9249   410.9    8.788      48.975
2015    5        8    23  16    5.9284   411.1    8.771      48.790
2015    5        8    23  22    5.9315   411.2    8.755      48.611
2015    5        8    23  28    5.9344   411.3    8.738      48.435
2015    5        8    23  34    5.9368   411.4    8.722      48.264
2015    5        8    23  39    5.9390   411.6    8.705      48.098
2015    5        8    23  45    5.9408   411.7    8.688      47.936
2015    5        8    23  51    5.9424   411.8    8.671      47.778
2015    5        8    23  57    5.9436   412.0    8.654      47.625
2015    5        9     0   3    5.9445   412.1    8.637      47.476
2015    5        9     0   8    5.9451   412.3    8.620      47.332
2015    5        9     0  14    5.9454   412.4    8.602      47.191
2015    5        9     0  20    5.9454   412.6    8.584      47.055
2015    5        9     0  26    5.9450   412.8    8.566      46.922
2015    5        9     0  32    5.9441   413.0    8.547      46.792
2015    5        9     0  37    5.9429   413.1    8.528      46.665
2015    5        9     0  43    5.9412   413.3    8.509      46.541
2015    5        9     0  49    5.9390   413.5    8.489      46.420
2015    5        9     0  55    5.9363   413.7    8.468      46.301
2015    5        9     1   0    5.9330   413.9    8.447      46.184
2015    5        9     1   6    5.9291   414.1    8.425      46.068
2015    5        9     1  12    5.9247   414.3    8.403      45.953
2015    5        9     1  18    5.9196   414.5    8.379      45.839
2015    5        9     1  24    5.9139   414.7    8.355      45.724
2015    5        9     1  29    5.9076   415.0    8.330      45.611
2015    5        9     1  35    5.9005   415.2    8.304      45.498
2015    5        9     1  41    5.8927   415.4    8.278      45.386
2015    5        9     1  47    5.8843   415.6    8.252      45.275
2015    5        9     1  53    5.8754   415.8    8.225      45.165
2015    5        9     1  58    5.8658   416.0    8.198      45.057
2015    5        9     2   4    5.8558   416.2    8.171      44.951
2015    5        9     2  10    5.8453   416.5    8.144      44.847
2015    5        9     2  16    5.8345   416.7    8.117      44.746
2015    5        9     2  22    5.8234   416.9    8.090      44.647
2015    5        9     2  27    5.8120   417.2    8.063      44.549
2015    5        9     2  33    5.8004   417.4    8.036      44.453
2015    5        9     2  39    5.7885   417.7    8.008      44.358
2015    5        9     2  45    5.7764   418.0    7.981      44.264
2015    5        9     2  51    5.7639   418.2    7.953      44.171
2015    5        9     2  56    5.7510   418.5    7.924      44.079
2015    5        9     3   2    5.7377   418.8    7.895      43.987
2015    5        9     3   8    5.7237   419.1    7.865      43.893
2015    5        9     3  14    5.7094   419.4    7.834      43.797
2015    5        9     3  20    5.6944   419.7    7.803      43.701
2015    5        9     3  25    5.6788   420.0    7.771      43.603
2015    5        9     3  31    5.6626   420.2    7.738      43.505
2015    5        9     3  37    5.6457   420.5    7.706      43.406
2015    5        9     3  43    5.6284   420.7    7.674      43.307
2015    5        9     3  49    5.6106   421.0    7.642      43.208
2015    5        9     3  54    5.5923   421.2    7.611      43.111
2015    5        9     4   0    5.5738   421.4    7.581      43.016
2015    5        9     4   6    5.5550   421.6    7.551      42.922
2015    5        9     4  12    5.5363   421.8    7.523      42.831
2015    5        9     4  17    5.5176   422.0    7.496      42.742
2015    5        9     4  23    5.4992   422.2    7.470      42.655
2015    5        9     4  29    5.4811   422.4    7.444      42.569
2015    5        9     4  35    5.4633   422.6    7.419      42.486
2015    5        9     4  41    5.4458   422.8    7.395      42.403
2015    5        9     4  46    5.4288   423.0    7.372      42.323
2015    5        9     4  52    5.4121   423.2    7.350      42.245
2015    5        9     4  58    5.3959   423.4    7.328      42.167
2015    5        9     5   4    5.3799   423.6    7.307      42.091
2015    5        9     5  10    5.3644   423.8    7.286      42.016
2015    5        9     5  15    5.3491   424.0    7.266      41.942
2015    5        9     5  21    5.3342   424.2    7.247      41.869
2015    5        9     5  27    5.3195   424.4    7.227      41.797
2015    5        9     5  33    5.3052   424.5    7.208      41.724
2015    5        9     5  39    5.2912   424.7    7.189      41.653
2015    5        9     5  44    5.2774   424.9    7.171      41.582
2015    5        9     5  50    5.2639   425.1    7.153      41.511
2015    5        9     5  56    5.2508   425.2    7.135      41.441
2015    5        9     6   2    5.2378   425.4    7.117      41.371
2015    5        9     6   8    5.2251   425.6    7.099      41.302
2015    5        9     6  13    5.2127   425.7    7.082      41.233
2015    5        9     6  19    5.2005   425.9    7.064      41.164
2015    5        9     6  25    5.1886   426.1    7.047      41.096
2015    5        9     6  31    5.1769   426.2    7.030      41.029
2015    5        9     6  37    5.1656   426.4    7.013      40.962
2015    5        9     6  42    5.1545   426.5    6.996      40.896
2015    5        9     6  48    5.1437   426.7    6.980      40.831
2015    5        9     6  54    5.1331   426.9    6.964      40.767
2015    5        9     7   0    5.1229   427.0    6.948      40.703
2015    5        9     7   5    5.1129   427.2    6.932      40.642
2015    5        9     7  11    5.1032   427.3    6.917      40.581
2015    5        9     7  17    5.0939   427.4    6.902      40.522
2015    5        9     7  23    5.0847   427.6    6.887      40.465
2015    5        9     7  29    5.0759   427.7    6.872      40.408
2015    5        9     7  34    5.0674   427.8    6.858      40.354
2015    5        9     7  40    5.0591   427.9    6.844      40.301
2015    5        9     7  46    5.0511   428.0    6.831      40.250
2015    5        9     7  52    5.0434   428.1    6.818      40.201
2015    5        9     7  58    5.0360   428.2    6.805      40.154
2015    5        9     8   3    5.0288   428.3    6.792      40.109
2015    5        9     8   9    5.0219   428.4    6.780      40.065
2015    5        9     8  15    5.0153   428.4    6.768      40.024
2015    5        9     8  21    5.0088   428.5    6.756      39.984
2015    5        9     8  27    5.0026   428.6    6.745      39.946
2015    5        9     8  32    4.9965   428.7    6.733      39.909
2015    5        9     8  38    4.9906   428.7    6.722      39.872
2015    5        9     8  44    4.9849   428.8    6.712      39.835
2015    5        9     8  50    4.9793   428.9    6.701      39.799
2015    5        9     8  56    4.9739   429.0    6.691      39.764
2015    5        9     9   1    4.9686   429.1    6.681      39.729
2015    5        9     9   7    4.9635   429.3    6.671      39.694
2015    5        9     9  13    4.9584   429.4    6.662      39.659
2015    5        9     9  19    4.9534   429.5    6.653      39.623
2015    5        9     9  25    4.9485   429.7    6.644      39.587
2015    5        9     9  30    4.9437   429.8    6.635      39.551
2015    5        9     9  36    4.9389   429.9    6.627      39.514
2015    5        9     9  42    4.9342   430.0    6.618      39.476
2015    5        9     9  48    4.9296   430.2    6.610      39.438
2015    5        9     9  53    4.9250   430.3    6.601      39.398
2015    5        9     9  59    4.9205   430.4    6.593      39.357
2015    5        9    10   5    4.9160   430.5    6.585      39.316
2015    5        9    10  11    4.9117   430.6    6.577      39.274
2015    5        9    10  17    4.9074   430.7    6.569      39.231
2015    5        9    10  22    4.9032   430.8    6.561      39.188
2015    5        9    10  28    4.8992   430.9    6.553      39.146
2015    5        9    10  34    4.8952   430.9    6.546      39.104
2015    5        9    10  40    4.8914   431.0    6.539      39.063
2015    5        9    10  46    4.8876   431.1    6.532      39.024
2015    5        9    10  51    4.8840   431.2    6.525      38.986
2015    5        9    10  57    4.8805   431.3    6.519      38.949
2015    5        9    11   3    4.8772   431.3    6.513      38.915
2015    5        9    11   9    4.8739   431.4    6.507      38.882
2015    5        9    11  15    4.8708   431.5    6.501      38.850
2015    5        9    11  20    4.8678   431.5    6.496      38.821
2015    5        9    11  26    4.8650   431.6    6.490      38.794
2015    5        9    11  32    4.8623   431.7    6.486      38.769
2015    5        9    11  38    4.8597   431.7    6.481      38.746
2015    5        9    11  44    4.8573   431.8    6.477      38.725
2015    5        9    11  49    4.8550   431.8    6.472      38.705
2015    5        9    11  55    4.8529   431.9    6.469      38.687
2015    5        9    12   1    4.8510   431.9    6.465      38.670
2015    5        9    12   7    4.8492   431.9    6.462      38.655
2015    5        9    12  13    4.8476   432.0    6.459      38.641
2015    5        9    12  18    4.8461   432.0    6.456      38.628
2015    5        9    12  24    4.8448   432.0    6.453      38.617
2015    5        9    12  30    4.8437   432.0    6.451      38.606
2015    5        9    12  36    4.8427   432.1    6.450      38.597
2015    5        9    12  42    4.8418   432.1    6.448      38.590
2015    5        9    12  47    4.8411   432.1    6.447      38.584
2015    5        9    12  53    4.8404   432.1    6.447      38.579
2015    5        9    12  59    4.8399   432.1    6.446      38.577
2015    5        9    13   5    4.8395   432.1    6.447      38.575
2015    5        9    13  10    4.8392   432.1    6.447      38.575
2015    5        9    13  16    4.8390   432.1    6.448      38.577
2015    5        9    13  22    4.8389   432.1    6.450      38.580
2015    5        9    13  28    4.8388   432.1    6.451      38.585
2015    5        9    13  34    4.8389   432.1    6.454      38.591
2015    5        9    13  39    4.8390   432.1    6.456      38.600
2015    5        9    13  45    4.8393   432.1    6.460      38.611
2015    5        9    13  51    4.8396   432.1    6.463      38.623
2015    5        9    13  57    4.8400   432.0    6.467      38.637
2015    5        9    14   3    4.8405   432.0    6.471      38.652
2015    5        9    14   8    4.8412   432.0    6.476      38.669
2015    5        9    14  14    4.8419   432.0    6.480      38.686
2015    5        9    14  20    4.8428   432.0    6.485      38.704
2015    5        9    14  26    4.8438   432.0    6.490      38.722
2015    5        9    14  32    4.8450   431.9    6.496      38.741
2015    5        9    14  37    4.8463   431.9    6.501      38.761
2015    5        9    14  43    4.8477   431.9    6.506      38.781
2015    5        9    14  49    4.8493   431.9    6.511      38.801
2015    5        9    14  55    4.8510   431.9    6.517      38.822
2015    5        9    15   1    4.8528   431.8    6.522      38.843
2015    5        9    15   6    4.8547   431.8    6.527      38.863
2015    5        9    15  12    4.8567   431.8    6.532      38.883
2015    5        9    15  18    4.8589   431.8    6.537      38.904
2015    5        9    15  24    4.8611   431.8    6.542      38.924
2015    5        9    15  30    4.8633   431.8    6.547      38.943
2015    5        9    15  35    4.8657   431.7    6.552      38.961
2015    5        9    15  41    4.8680   431.7    6.556      38.979
2015    5        9    15  47    4.8704   431.7    6.561      38.996
2015    5        9    15  53    4.8727   431.7    6.565      39.013
2015    5        9    15  58    4.8751   431.7    6.569      39.030
2015    5        9    16   4    4.8775   431.7    6.574      39.046
2015    5        9    16  10    4.8799   431.7    6.578      39.061
2015    5        9    16  16    4.8822   431.7    6.582      39.077
2015    5        9    16  22    4.8844   431.7    6.586      39.092
2015    5        9    16  27    4.8866   431.6    6.590      39.106
2015    5        9    16  33    4.8888   431.6    6.593      39.121
2015    5        9    16  39    4.8909   431.6    6.597      39.134
2015    5        9    16  45    4.8930   431.6    6.601      39.148
2015    5        9    16  51    4.8950   431.6    6.604      39.161
2015    5        9    16  56    4.8970   431.6    6.608      39.174
2015    5        9    17   2    4.8990   431.6    6.611      39.187
2015    5        9    17   8    4.9009   431.6    6.615      39.200
2015    5        9    17  14    4.9028   431.6    6.618      39.212
2015    5        9    17  20    4.9046   431.6    6.622      39.224
2015    5        9    17  25    4.9063   431.6    6.625      39.236
2015    5        9    17  31    4.9081   431.6    6.628      39.248
2015    5        9    17  37    4.9098   431.6    6.631      39.260
2015    5        9    17  43    4.9115   431.6    6.634      39.271
2015    5        9    17  49    4.9131   431.6    6.637      39.282
2015    5        9    17  54    4.9147   431.6    6.640      39.293
2015    5        9    18   0    4.9163   431.6    6.642      39.304
2015    5        9    18   6    4.9178   431.6    6.645      39.314
2015    5        9    18  12    4.9193   431.6    6.648      39.325
2015    5        9    18  18    4.9208   431.6    6.650      39.335
2015    5        9    18  23    4.9222   431.6    6.653      39.345
2015    5        9    18  29    4.9237   431.6    6.655      39.355
2015    5        9    18  35    4.9251   431.6    6.658      39.364
2015    5        9    18  41    4.9264   431.7    6.660      39.374
2015    5        9    18  46    4.9278   431.7    6.662      39.383
2015    5        9    18  52    4.9291   431.7    6.664      39.392
2015    5        9    18  58    4.9305   431.7    6.667      39.400
2015    5        9    19   4    4.9318   431.7    6.669      39.409
2015    5        9    19  10    4.9330   431.7    6.671      39.417
2015    5        9    19  15    4.9343   431.7    6.673      39.425
2015    5        9    19  21    4.9356   431.7    6.674      39.433
2015    5        9    19  27    4.9368   431.7    6.676      39.441
2015    5        9    19  33    4.9380   431.7    6.678      39.448
2015    5        9    19  39    4.9392   431.7    6.680      39.456
2015    5        9    19  44    4.9404   431.8    6.681      39.463
2015    5        9    19  50    4.9416   431.8    6.683      39.470
2015    5        9    19  56    4.9428   431.8    6.685      39.476
2015    5        9    20   2    4.9440   431.8    6.686      39.483
2015    5        9    20   8    4.9451   431.8    6.688      39.490
2015    5        9    20  13    4.9463   431.8    6.689      39.496
2015    5        9    20  19    4.9474   431.8    6.691      39.502
2015    5        9    20  25    4.9486   431.8    6.692      39.508
2015    5        9    20  31    4.9498   431.8    6.694      39.514
2015    5        9    20  37    4.9509   431.8    6.695      39.520
2015    5        9    20  42    4.9521   431.9    6.696      39.526
2015    5        9    20  48    4.9532   431.9    6.698      39.532
2015    5        9    20  54    4.9544   431.9    6.699      39.538
2015    5        9    21   0    4.9555   431.9    6.700      39.544
2015    5        9    21   6    4.9567   431.9    6.702      39.549
2015    5        9    21  11    4.9579   431.9    6.703      39.555
2015    5        9    21  17    4.9591   431.9    6.704      39.560
2015    5        9    21  23    4.9603   431.9    6.706      39.566
2015    5        9    21  29    4.9615   431.9    6.707      39.572
2015    5        9    21  34    4.9626   431.9    6.708      39.578
2015    5        9    21  40    4.9638   432.0    6.710      39.583
2015    5        9    21  46    4.9651   432.0    6.711      39.589
2015    5        9    21  52    4.9663   432.0    6.712      39.595
2015    5        9    21  58    4.9675   432.0    6.713      39.601
2015    5        9    22   3    4.9687   432.0    6.715      39.607
2015    5        9    22   9    4.9700   432.0    6.716      39.614
2015    5        9    22  15    4.9712   432.0    6.717      39.620
2015    5        9    22  21    4.9725   432.0    6.719      39.627
2015    5        9    22  27    4.9737   432.0    6.720      39.634
2015    5        9    22  32    4.9750   432.1    6.721      39.641
2015    5        9    22  38    4.9763   432.1    6.722      39.647
2015    5        9    22  44    4.9776   432.1    6.724      39.654
2015    5        9    22  50    4.9789   432.1    6.725      39.661
2015    5        9    22  56    4.9802   432.1    6.726      39.668
2015    5        9    23   1    4.9815   432.1    6.728      39.675
2015    5        9    23   7    4.9828   432.1    6.729      39.682
2015    5        9    23  13    4.9842   432.1    6.730      39.690
2015    5        9    23  19    4.9855   432.2    6.732      39.697
2015    5        9    23  25    4.9869   432.2    6.733      39.704
2015    5        9    23  30    4.9883   432.2    6.734      39.711
2015    5        9    23  36    4.9897   432.2    6.736      39.719
2015    5        9    23  42    4.9911   432.2    6.737      39.726
2015    5        9    23  48    4.9925   432.2    6.739      39.734
2015    5        9    23  54    4.9939   432.2    6.740      39.742
2015    5        9    23  59    4.9954   432.2    6.742      39.749
2015    5       10     0   5    4.9968   432.3    6.743      39.757
2015    5       10     0  11    4.9983   432.3    6.745      39.765
2015    5       10     0  17    4.9997   432.3    6.746      39.773
2015    5       10     0  22    5.0012   432.3    6.748      39.781
2015    5       10     0  28    5.0027   432.3    6.749      39.789
2015    5       10     0  34    5.0042   432.3    6.751      39.797
2015    5       10     0  40    5.0056   432.3    6.752      39.805
2015    5       10     0  46    5.0071   432.3    6.754      39.813
2015    5       10     0  51    5.0086   432.4    6.755      39.822
2015    5       10     0  57    5.0101   432.4    6.757      39.830
2015    5       10     1   3    5.0116   432.4    6.758      39.838
2015    5       10     1   9    5.0131   432.4    6.760      39.846
2015    5       10     1  15    5.0146   432.4    6.762      39.854
2015    5       10     1  20    5.0162   432.4    6.763      39.862
2015    5       10     1  26    5.0177   432.4    6.765      39.871
2015    5       10     1  32    5.0192   432.4    6.766      39.879
2015    5       10     1  38    5.0208   432.5    6.768      39.887
2015    5       10     1  44    5.0223   432.5    6.770      39.895
2015    5       10     1  49    5.0239   432.5    6.771      39.903
2015    5       10     1  55    5.0255   432.5    6.773      39.911
2015    5       10     2   1    5.0270   432.5    6.775      39.920
2015    5       10     2   7    5.0286   432.5    6.777      39.928
2015    5       10     2  13    5.0302   432.5    6.778      39.936
2015    5       10     2  18    5.0318   432.5    6.780      39.944
2015    5       10     2  24    5.0333   432.6    6.782      39.953
2015    5       10     2  30    5.0349   432.6    6.784      39.961
2015    5       10     2  36    5.0365   432.6    6.786      39.969
2015    5       10     2  42    5.0381   432.6    6.788      39.978
2015    5       10     2  47    5.0397   432.6    6.790      39.987
2015    5       10     2  53    5.0413   432.6    6.792      39.996
2015    5       10     2  59    5.0429   432.6    6.794      40.006
2015    5       10     3   5    5.0445   432.6    6.796      40.016
2015    5       10     3  10    5.0461   432.6    6.798      40.026
2015    5       10     3  16    5.0477   432.7    6.800      40.036
2015    5       10     3  22    5.0493   432.7    6.802      40.046
2015    5       10     3  28    5.0509   432.7    6.804      40.056
2015    5       10     3  34    5.0525   432.7    6.806      40.066
2015    5       10     3  39    5.0541   432.7    6.808      40.077
2015    5       10     3  45    5.0558   432.7    6.810      40.087
2015    5       10     3  51    5.0574   432.7    6.813      40.097
2015    5       10     3  57    5.0591   432.7    6.815      40.108
2015    5       10     4   3    5.0607   432.7    6.817      40.118
2015    5       10     4   8    5.0624   432.8    6.819      40.129
2015    5       10     4  14    5.0641   432.8    6.822      40.140
2015    5       10     4  20    5.0658   432.8    6.824      40.151
2015    5       10     4  26    5.0675   432.8    6.826      40.162
2015    5       10     4  32    5.0692   432.8    6.829      40.173
2015    5       10     4  37    5.0709   432.8    6.831      40.184
2015    5       10     4  43    5.0727   432.8    6.834      40.196
2015    5       10     4  49    5.0744   432.8    6.837      40.208
2015    5       10     4  55    5.0762   432.8    6.840      40.220
2015    5       10     5   1    5.0780   432.9    6.842      40.232
2015    5       10     5   6    5.0798   432.9    6.845      40.245
2015    5       10     5  12    5.0816   432.9    6.848      40.257
2015    5       10     5  18    5.0835   432.9    6.852      40.269
2015    5       10     5  24    5.0853   432.9    6.855      40.282
2015    5       10     5  29    5.0872   432.9    6.858      40.295
2015    5       10     5  35    5.0892   432.9    6.862      40.308
2015    5       10     5  41    5.0911   433.0    6.865      40.322
2015    5       10     5  47    5.0930   433.0    6.869      40.336
2015    5       10     5  53    5.0949   433.0    6.872      40.352
2015    5       10     5  58    5.0969   433.0    6.876      40.368
2015    5       10     6   4    5.0988   433.0    6.879      40.385
2015    5       10     6  10    5.1007   433.1    6.882      40.402
2015    5       10     6  16    5.1026   433.1    6.885      40.420
2015    5       10     6  22    5.1045   433.1    6.889      40.438
2015    5       10     6  27    5.1064   433.1    6.892      40.457
2015    5       10     6  33    5.1083   433.1    6.895      40.475
2015    5       10     6  39    5.1101   433.2    6.897      40.494
2015    5       10     6  45    5.1120   433.2    6.900      40.513
2015    5       10     6  51    5.1138   433.2    6.903      40.532
2015    5       10     6  56    5.1156   433.2    6.905      40.551
2015    5       10     7   2    5.1174   433.3    6.907      40.570
2015    5       10     7   8    5.1193   433.3    6.910      40.588
2015    5       10     7  14    5.1211   433.3    6.912      40.607
2015    5       10     7  20    5.1229   433.3    6.914      40.625
2015    5       10     7  25    5.1247   433.3    6.916      40.643
2015    5       10     7  31    5.1266   433.4    6.918      40.661
2015    5       10     7  37    5.1284   433.4    6.920      40.678
2015    5       10     7  43    5.1303   433.4    6.922      40.696
2015    5       10     7  49    5.1321   433.4    6.924      40.713
2015    5       10     7  54    5.1340   433.4    6.926      40.730
2015    5       10     8   0    5.1359   433.5    6.928      40.746
2015    5       10     8   6    5.1378   433.5    6.930      40.763
2015    5       10     8  12    5.1397   433.5    6.932      40.779
2015    5       10     8  17    5.1416   433.5    6.934      40.795
2015    5       10     8  23    5.1436   433.5    6.936      40.811
2015    5       10     8  29    5.1455   433.6    6.938      40.827
2015    5       10     8  35    5.1475   433.6    6.940      40.843
2015    5       10     8  41    5.1495   433.6    6.942      40.859
2015    5       10     8  46    5.1515   433.6    6.944      40.875
2015    5       10     8  52    5.1535   433.6    6.946      40.891
2015    5       10     8  58    5.1556   433.7    6.948      40.907
2015    5       10     9   4    5.1576   433.7    6.950      40.922
2015    5       10     9  10    5.1597   433.7    6.952      40.938
2015    5       10     9  15    5.1618   433.7    6.955      40.954
2015    5       10     9  21    5.1639   433.8    6.957      40.969
2015    5       10     9  27    5.1660   433.8    6.959      40.985
2015    5       10     9  33    5.1682   433.8    6.962      41.001
2015    5       10     9  39    5.1703   433.8    6.964      41.017
2015    5       10     9  44    5.1725   433.9    6.967      41.032
2015    5       10     9  50    5.1747   433.9    6.970      41.048
2015    5       10     9  56    5.1769   433.9    6.973      41.065
2015    5       10    10   2    5.1792   433.9    6.976      41.081
2015    5       10    10   8    5.1814   434.0    6.979      41.098
2015    5       10    10  13    5.1837   434.0    6.982      41.115
2015    5       10    10  19    5.1860   434.0    6.985      41.133
2015    5       10    10  25    5.1883   434.0    6.988      41.151
2015    5       10    10  31    5.1906   434.1    6.991      41.170
2015    5       10    10  36    5.1929   434.1    6.995      41.189
2015    5       10    10  42    5.1953   434.1    6.998      41.208
2015    5       10    10  48    5.1976   434.1    7.001      41.228
2015    5       10    10  54    5.2000   434.2    7.004      41.247
2015    5       10    11   0    5.2024   434.2    7.007      41.267
2015    5       10    11   5    5.2048   434.2    7.010      41.286
2015    5       10    11  11    5.2072   434.3    7.013      41.305
2015    5       10    11  17    5.2096   434.3    7.016      41.324
2015    5       10    11  23    5.2120   434.3    7.019      41.343
2015    5       10    11  29    5.2144   434.3    7.022      41.361
2015    5       10    11  34    5.2169   434.4    7.025      41.380
2015    5       10    11  40    5.2193   434.4    7.028      41.398
2015    5       10    11  46    5.2218   434.4    7.031      41.416
2015    5       10    11  52    5.2243   434.4    7.035      41.434
2015    5       10    11  58    5.2268   434.5    7.038      41.452
2015    5       10    12   3    5.2293   434.5    7.041      41.470
2015    5       10    12   9    5.2319   434.5    7.044      41.487
2015    5       10    12  15    5.2344   434.6    7.047      41.504
2015    5       10    12  21    5.2370   434.6    7.050      41.521
2015    5       10    12  27    5.2395   434.6    7.054      41.538
2015    5       10    12  32    5.2421   434.6    7.057      41.555
2015    5       10    12  38    5.2446   434.7    7.061      41.571
2015    5       10    12  44    5.2472   434.7    7.064      41.587
2015    5       10    12  50    5.2498   434.7    7.068      41.603
2015    5       10    12  56    5.2523   434.7    7.072      41.620
2015    5       10    13   1    5.2549   434.8    7.075      41.636
2015    5       10    13   7    5.2574   434.8    7.079      41.653
2015    5       10    13  13    5.2599   434.8    7.083      41.671
2015    5       10    13  19    5.2625   434.9    7.086      41.690
2015    5       10    13  24    5.2649   434.9    7.089      41.710
2015    5       10    13  30    5.2674   434.9    7.093      41.730
2015    5       10    13  36    5.2698   435.0    7.096      41.752
2015    5       10    13  42    5.2723   435.0    7.099      41.774
2015    5       10    13  48    5.2747   435.0    7.102      41.796
2015    5       10    13  53    5.2771   435.1    7.104      41.818
2015    5       10    13  59    5.2794   435.1    7.107      41.840
2015    5       10    14   5    5.2818   435.1    7.109      41.862
2015    5       10    14  11    5.2841   435.2    7.111      41.885
2015    5       10    14  17    5.2865   435.2    7.114      41.907
2015    5       10    14  22    5.2888   435.2    7.116      41.929
2015    5       10    14  28    5.2911   435.3    7.117      41.951
2015    5       10    14  34    5.2934   435.3    7.119      41.972
2015    5       10    14  40    5.2957   435.3    7.121      41.994
2015    5       10    14  46    5.2980   435.4    7.123      42.015
2015    5       10    14  51    5.3003   435.4    7.124      42.037
2015    5       10    14  57    5.3026   435.4    7.126      42.058
2015    5       10    15   3    5.3049   435.5    7.127      42.079
2015    5       10    15   9    5.3072   435.5    7.129      42.100
2015    5       10    15  15    5.3096   435.5    7.130      42.121
2015    5       10    15  20    5.3119   435.6    7.132      42.141
2015    5       10    15  26    5.3143   435.6    7.133      42.162
2015    5       10    15  32    5.3166   435.6    7.135      42.183
2015    5       10    15  38    5.3190   435.7    7.136      42.203
2015    5       10    15  44    5.3214   435.7    7.138      42.224
2015    5       10    15  49    5.3238   435.7    7.139      42.244
2015    5       10    15  55    5.3262   435.8    7.141      42.264
2015    5       10    16   1    5.3286   435.8    7.143      42.285
2015    5       10    16   7    5.3311   435.8    7.144      42.305
2015    5       10    16  12    5.3335   435.9    7.146      42.325
2015    5       10    16  18    5.3360   435.9    7.148      42.346
2015    5       10    16  24    5.3385   436.0    7.150      42.366
2015    5       10    16  30    5.3411   436.0    7.152      42.387
2015    5       10    16  36    5.3436   436.0    7.154      42.408
2015    5       10    16  41    5.3462   436.1    7.156      42.429
2015    5       10    16  47    5.3488   436.1    7.158      42.450
2015    5       10    16  53    5.3514   436.2    7.160      42.472
2015    5       10    16  59    5.3540   436.2    7.163      42.494
2015    5       10    17   5    5.3567   436.2    7.165      42.516
2015    5       10    17  10    5.3594   436.3    7.168      42.538
2015    5       10    17  16    5.3622   436.3    7.171      42.561
2015    5       10    17  22    5.3649   436.4    7.174      42.585
2015    5       10    17  28    5.3677   436.4    7.177      42.609
2015    5       10    17  34    5.3705   436.5    7.180      42.633
2015    5       10    17  39    5.3734   436.5    7.184      42.659
2015    5       10    17  45    5.3762   436.5    7.187      42.685
2015    5       10    17  51    5.3791   436.6    7.190      42.711
2015    5       10    17  57    5.3820   436.6    7.194      42.738
2015    5       10    18   3    5.3850   436.7    7.198      42.765
2015    5       10    18   8    5.3880   436.7    7.201      42.793
2015    5       10    18  14    5.3910   436.8    7.205      42.820
2015    5       10    18  20    5.3940   436.8    7.209      42.849
2015    5       10    18  26    5.3971   436.9    7.213      42.877
2015    5       10    18  31    5.4002   436.9    7.217      42.905
2015    5       10    18  37    5.4033   437.0    7.222      42.935
2015    5       10    18  43    5.4065   437.0    7.226      42.965
2015    5       10    18  49    5.4097   437.1    7.231      42.995
2015    5       10    18  55    5.4130   437.2    7.235      43.027
2015    5       10    19   0    5.4163   437.2    7.240      43.059
2015    5       10    19   6    5.4196   437.3    7.244      43.091
2015    5       10    19  12    5.4230   437.3    7.249      43.124
2015    5       10    19  18    5.4263   437.4    7.254      43.157
2015    5       10    19  24    5.4297   437.5    7.258      43.190
2015    5       10    19  29    5.4331   437.5    7.263      43.222
2015    5       10    19  35    5.4365   437.6    7.268      43.255
2015    5       10    19  41    5.4399   437.6    7.273      43.287
2015    5       10    19  47    5.4432   437.7    7.277      43.319
2015    5       10    19  53    5.4466   437.8    7.282      43.350
2015    5       10    19  58    5.4499   437.8    7.287      43.382
2015    5       10    20   4    5.4532   437.9    7.292      43.413
2015    5       10    20  10    5.4565   438.0    7.296      43.445
2015    5       10    20  16    5.4597   438.0    7.301      43.476
2015    5       10    20  22    5.4630   438.1    7.306      43.508
2015    5       10    20  27    5.4662   438.2    7.310      43.540
2015    5       10    20  33    5.4693   438.2    7.315      43.571
2015    5       10    20  39    5.4725   438.3    7.319      43.603
2015    5       10    20  45    5.4756   438.4    7.323      43.634
2015    5       10    20  51    5.4786   438.4    7.328      43.664
2015    5       10    20  56    5.4817   438.5    7.332      43.695
2015    5       10    21   2    5.4847   438.6    7.336      43.726
2015    5       10    21   8    5.4877   438.6    7.340      43.757
2015    5       10    21  14    5.4906   438.7    7.344      43.789
2015    5       10    21  19    5.4936   438.8    7.347      43.822
2015    5       10    21  25    5.4965   438.8    7.350      43.854
2015    5       10    21  31    5.4994   438.9    7.354      43.887
2015    5       10    21  37    5.5022   439.0    7.357      43.920
2015    5       10    21  43    5.5051   439.0    7.359      43.952
2015    5       10    21  48    5.5079   439.1    7.362      43.984
2015    5       10    21  54    5.5107   439.2    7.364      44.016
2015    5       10    22   0    5.5135   439.2    7.367      44.048
2015    5       10    22   6    5.5163   439.3    7.369      44.079
2015    5       10    22  12    5.5190   439.4    7.371      44.110
2015    5       10    22  17    5.5218   439.4    7.373      44.141
2015    5       10    22  23    5.5245   439.5    7.374      44.171
2015    5       10    22  29    5.5273   439.6    7.376      44.201
2015    5       10    22  35    5.5301   439.6    7.377      44.230
2015    5       10    22  41    5.5328   439.7    7.379      44.260
2015    5       10    22  46    5.5355   439.8    7.380      44.288
2015    5       10    22  52    5.5383   439.8    7.381      44.317
2015    5       10    22  58    5.5411   439.9    7.382      44.345
2015    5       10    23   4    5.5438   440.0    7.383      44.373
2015    5       10    23  10    5.5466   440.0    7.384      44.400
2015    5       10    23  15    5.5493   440.1    7.385      44.428
2015    5       10    23  21    5.5521   440.1    7.385      44.455
2015    5       10    23  27    5.5549   440.2    7.386      44.482
2015    5       10    23  33    5.5577   440.3    7.387      44.509
2015    5       10    23  39    5.5605   440.4    7.388      44.536
2015    5       10    23  44    5.5633   440.4    7.388      44.563
2015    5       10    23  50    5.5662   440.5    7.389      44.590
2015    5       10    23  56    5.5690   440.6    7.390      44.617
2015    5       11     0   2    5.5719   440.6    7.391      44.645
2015    5       11     0   7    5.5748   440.7    7.392      44.673
2015    5       11     0  13    5.5777   440.8    7.393      44.701
2015    5       11     0  19    5.5806   440.9    7.394      44.729
2015    5       11     0  25    5.5836   440.9    7.395      44.757
2015    5       11     0  31    5.5866   441.0    7.396      44.786
2015    5       11     0  36    5.5896   441.1    7.397      44.815
2015    5       11     0  42    5.5926   441.2    7.399      44.845
2015    5       11     0  48    5.5957   441.2    7.400      44.875
2015    5       11     0  54    5.5988   441.3    7.402      44.905
2015    5       11     1   0    5.6019   441.4    7.404      44.936
2015    5       11     1   5    5.6050   441.5    7.406      44.967
2015    5       11     1  11    5.6082   441.6    7.408      44.999
2015    5       11     1  17    5.6114   441.6    7.410      45.031
2015    5       11     1  23    5.6147   441.7    7.413      45.063
2015    5       11     1  29    5.6179   441.8    7.415      45.096
2015    5       11     1  34    5.6213   441.9    7.418      45.130
2015    5       11     1  40    5.6246   442.0    7.422      45.165
2015    5       11     1  46    5.6281   442.1    7.425      45.201
2015    5       11     1  52    5.6315   442.2    7.428      45.238
2015    5       11     1  58    5.6350   442.3    7.432      45.276
2015    5       11     2   3    5.6386   442.4    7.436      45.315
2015    5       11     2   9    5.6422   442.4    7.440      45.355
2015    5       11     2  15    5.6458   442.5    7.444      45.395
2015    5       11     2  21    5.6495   442.6    7.448      45.435
2015    5       11     2  26    5.6532   442.7    7.453      45.477
2015    5       11     2  32    5.6570   442.8    7.457      45.519
2015    5       11     2  38    5.6608   443.0    7.462      45.563
2015    5       11     2  44    5.6647   443.1    7.466      45.608
2015    5       11     2  50    5.6685   443.2    7.471      45.653
2015    5       11     2  55    5.6724   443.3    7.476      45.700
2015    5       11     3   1    5.6763   443.4    7.481      45.746
2015    5       11     3   7    5.6801   443.5    7.485      45.793
2015    5       11     3  13    5.6840   443.6    7.490      45.840
2015    5       11     3  19    5.6878   443.8    7.495      45.887
2015    5       11     3  24    5.6916   443.9    7.500      45.933
2015    5       11     3  30    5.6954   444.0    7.504      45.980
2015    5       11     3  36    5.6991   444.1    7.509      46.026
2015    5       11     3  42    5.7027   444.3    7.514      46.071
2015    5       11     3  48    5.7063   444.4    7.518      46.117
2015    5       11     3  53    5.7099   444.5    7.523      46.163
2015    5       11     3  59    5.7134   444.6    7.527      46.210
2015    5       11     4   5    5.7168   444.8    7.532      46.256
2015    5       11     4  11    5.7202   444.9    7.536      46.303
2015    5       11     4  17    5.7235   445.0    7.540      46.349
2015    5       11     4  22    5.7268   445.2    7.544      46.395
2015    5       11     4  28    5.7301   445.3    7.547      46.441
2015    5       11     4  34    5.7333   445.4    7.551      46.487
2015    5       11     4  40    5.7364   445.6    7.554      46.532
2015    5       11     4  46    5.7396   445.7    7.557      46.577
2015    5       11     4  51    5.7427   445.8    7.560      46.621
2015    5       11     4  57    5.7457   445.9    7.563      46.666
2015    5       11     5   3    5.7488   446.1    7.565      46.710
2015    5       11     5   9    5.7518   446.2    7.567      46.754
2015    5       11     5  14    5.7548   446.3    7.569      46.798
2015    5       11     5  20    5.7578   446.4    7.571      46.841
2015    5       11     5  26    5.7607   446.6    7.573      46.885
2015    5       11     5  32    5.7637   446.7    7.574      46.928
2015    5       11     5  38    5.7667   446.8    7.576      46.971
2015    5       11     5  43    5.7696   446.9    7.577      47.015
2015    5       11     5  49    5.7725   447.0    7.578      47.058
2015    5       11     5  55    5.7755   447.2    7.578      47.102
2015    5       11     6   1    5.7784   447.3    7.579      47.145
2015    5       11     6   7    5.7813   447.4    7.580      47.188
2015    5       11     6  12    5.7843   447.5    7.580      47.231
2015    5       11     6  18    5.7872   447.6    7.580      47.274
2015    5       11     6  24    5.7901   447.7    7.580      47.317
2015    5       11     6  30    5.7931   447.9    7.580      47.359
2015    5       11     6  36    5.7960   448.0    7.580      47.400
2015    5       11     6  41    5.7990   448.1    7.580      47.441
2015    5       11     6  47    5.8019   448.2    7.579      47.482
2015    5       11     6  53    5.8049   448.3    7.579      47.522
2015    5       11     6  59    5.8078   448.5    7.578      47.561
2015    5       11     7   5    5.8107   448.6    7.578      47.600
2015    5       11     7  10    5.8137   448.7    7.577      47.639
2015    5       11     7  16    5.8167   448.8    7.576      47.677
2015    5       11     7  22    5.8196   449.0    7.575      47.715
2015    5       11     7  28    5.8226   449.1    7.574      47.752
2015    5       11     7  33    5.8256   449.2    7.573      47.789
2015    5       11     7  39    5.8286   449.3    7.573      47.826
2015    5       11     7  45    5.8316   449.5    7.572      47.862
2015    5       11     7  51    5.8346   449.6    7.571      47.898
2015    5       11     7  57    5.8376   449.7    7.570      47.934
2015    5       11     8   2    5.8407   449.8    7.569      47.970
2015    5       11     8   8    5.8437   450.0    7.568      48.005
2015    5       11     8  14    5.8468   450.1    7.568      48.040
2015    5       11     8  20    5.8499   450.2    7.567      48.075
2015    5       11     8  26    5.8529   450.3    7.567      48.110
2015    5       11     8  31    5.8560   450.5    7.566      48.145
2015    5       11     8  37    5.8592   450.6    7.566      48.180
2015    5       11     8  43    5.8623   450.7    7.566      48.215
2015    5       11     8  49    5.8655   450.9    7.565      48.250
2015    5       11     8  55    5.8687   451.0    7.566      48.285
2015    5       11     9   0    5.8719   451.1    7.566      48.320
2015    5       11     9   6    5.8751   451.3    7.566      48.356
2015    5       11     9  12    5.8784   451.4    7.567      48.392
2015    5       11     9  18    5.8817   451.5    7.567      48.428
2015    5       11     9  24    5.8850   451.7    7.568      48.464
2015    5       11     9  29    5.8884   451.8    7.570      48.500
2015    5       11     9  35    5.8918   451.9    7.571      48.538
2015    5       11     9  41    5.8953   452.1    7.573      48.577
2015    5       11     9  47    5.8987   452.2    7.575      48.616
2015    5       11     9  53    5.9023   452.3    7.577      48.657
2015    5       11     9  58    5.9058   452.5    7.579      48.698
2015    5       11    10   4    5.9094   452.6    7.581      48.741
2015    5       11    10  10    5.9129   452.8    7.584      48.784
2015    5       11    10  16    5.9166   452.9    7.587      48.828
2015    5       11    10  21    5.9202   453.1    7.589      48.872
2015    5       11    10  27    5.9239   453.2    7.593      48.917
2015    5       11    10  33    5.9276   453.4    7.596      48.962
2015    5       11    10  39    5.9314   453.5    7.600      49.008
2015    5       11    10  45    5.9352   453.7    7.604      49.055
2015    5       11    10  50    5.9390   453.8    7.608      49.103
2015    5       11    10  56    5.9429   454.0    7.613      49.153
2015    5       11    11   2    5.9467   454.1    7.617      49.203
2015    5       11    11   8    5.9506   454.3    7.622      49.256
2015    5       11    11  14    5.9546   454.5    7.628      49.309
2015    5       11    11  19    5.9585   454.6    7.634      49.363
2015    5       11    11  25    5.9625   454.8    7.639      49.419
2015    5       11    11  31    5.9664   455.0    7.645      49.478
2015    5       11    11  37    5.9703   455.1    7.651      49.539
2015    5       11    11  43    5.9741   455.3    7.657      49.605
2015    5       11    11  48    5.9779   455.5    7.662      49.672
2015    5       11    11  54    5.9817   455.7    7.667      49.743
2015    5       11    12   0    5.9853   455.9    7.671      49.816
2015    5       11    12   6    5.9888   456.1    7.675      49.890
2015    5       11    12  12    5.9923   456.3    7.679      49.963
2015    5       11    12  17    5.9957   456.5    7.682      50.035
2015    5       11    12  23    5.9990   456.7    7.685      50.105
2015    5       11    12  29    6.0023   456.9    7.687      50.175
2015    5       11    12  35    6.0054   457.1    7.689      50.243
2015    5       11    12  40    6.0085   457.3    7.690      50.310
2015    5       11    12  46    6.0116   457.5    7.691      50.377
2015    5       11    12  52    6.0146   457.7    7.692      50.441
2015    5       11    12  58    6.0175   457.9    7.692      50.505
2015    5       11    13   4    6.0204   458.1    7.692      50.567
2015    5       11    13   9    6.0233   458.3    7.692      50.627
2015    5       11    13  15    6.0262   458.5    7.691      50.687
2015    5       11    13  21    6.0291   458.7    7.690      50.746
2015    5       11    13  27    6.0320   458.9    7.689      50.804
2015    5       11    13  33    6.0348   459.1    7.688      50.861
2015    5       11    13  38    6.0377   459.3    7.687      50.917
2015    5       11    13  44    6.0405   459.4    7.686      50.972
2015    5       11    13  50    6.0433   459.6    7.684      51.026
2015    5       11    13  56    6.0462   459.8    7.682      51.080
2015    5       11    14   2    6.0490   460.0    7.681      51.133
2015    5       11    14   7    6.0519   460.2    7.679      51.185
2015    5       11    14  13    6.0548   460.4    7.677      51.237
2015    5       11    14  19    6.0577   460.6    7.675      51.288
2015    5       11    14  25    6.0606   460.8    7.673      51.338
2015    5       11    14  31    6.0636   461.0    7.671      51.389
2015    5       11    14  36    6.0665   461.2    7.670      51.440
2015    5       11    14  42    6.0695   461.4    7.668      51.491
2015    5       11    14  48    6.0725   461.6    7.666      51.543
2015    5       11    14  54    6.0756   461.8    7.663      51.595
2015    5       11    15   0    6.0786   462.0    7.661      51.648
2015    5       11    15   5    6.0816   462.2    7.659      51.700
2015    5       11    15  11    6.0846   462.4    7.657      51.753
2015    5       11    15  17    6.0876   462.6    7.654      51.805
2015    5       11    15  23    6.0906   462.8    7.652      51.856
2015    5       11    15  28    6.0935   463.1    7.649      51.907
2015    5       11    15  34    6.0964   463.3    7.647      51.958
2015    5       11    15  40    6.0994   463.5    7.644      52.008
2015    5       11    15  46    6.1022   463.7    7.641      52.058
2015    5       11    15  52    6.1051   463.9    7.638      52.107
2015    5       11    15  57    6.1080   464.1    7.635      52.156
2015    5       11    16   3    6.1108   464.3    7.632      52.205
2015    5       11    16   9    6.1136   464.5    7.629      52.253
2015    5       11    16  15    6.1164   464.7    7.626      52.301
2015    5       11    16  21    6.1192   465.0    7.623      52.348
2015    5       11    16  26    6.1220   465.2    7.620      52.394
2015    5       11    16  32    6.1247   465.4    7.617      52.440
2015    5       11    16  38    6.1275   465.6    7.614      52.485
2015    5       11    16  44    6.1302   465.8    7.611      52.530
2015    5       11    16  50    6.1329   466.0    7.608      52.574
2015    5       11    16  55    6.1357   466.2    7.605      52.618
2015    5       11    17   1    6.1384   466.5    7.602      52.661
2015    5       11    17   7    6.1411   466.7    7.599      52.705
2015    5       11    17  13    6.1439   466.9    7.596      52.748
2015    5       11    17  19    6.1467   467.1    7.594      52.791
2015    5       11    17  24    6.1494   467.3    7.591      52.834
2015    5       11    17  30    6.1522   467.5    7.589      52.877
2015    5       11    17  36    6.1551   467.7    7.587      52.921
2015    5       11    17  42    6.1579   467.9    7.585      52.964
2015    5       11    17  47    6.1608   468.1    7.583      53.008
2015    5       11    17  53    6.1638   468.4    7.582      53.052
2015    5       11    17  59    6.1667   468.6    7.581      53.097
2015    5       11    18   5    6.1698   468.8    7.580      53.144
2015    5       11    18  11    6.1728   469.0    7.579      53.191
2015    5       11    18  16    6.1759   469.2    7.579      53.240
2015    5       11    18  22    6.1791   469.4    7.579      53.291
2015    5       11    18  28    6.1823   469.6    7.579      53.343
2015    5       11    18  34    6.1855   469.9    7.580      53.395
2015    5       11    18  40    6.1888   470.1    7.580      53.448
2015    5       11    18  45    6.1921   470.3    7.581      53.502
2015    5       11    18  51    6.1954   470.5    7.582      53.559
2015    5       11    18  57    6.1988   470.7    7.583      53.618
2015    5       11    19   3    6.2021   471.0    7.584      53.680
2015    5       11    19   9    6.2054   471.2    7.585      53.744
2015    5       11    19  14    6.2086   471.5    7.585      53.810
2015    5       11    19  20    6.2118   471.7    7.586      53.878
2015    5       11    19  26    6.2149   472.0    7.586      53.947
2015    5       11    19  32    6.2179   472.2    7.585      54.015
2015    5       11    19  38    6.2209   472.5    7.585      54.083
2015    5       11    19  43    6.2239   472.7    7.584      54.150
2015    5       11    19  49    6.2267   473.0    7.583      54.217
2015    5       11    19  55    6.2295   473.3    7.581      54.283
2015    5       11    20   1    6.2323   473.5    7.580      54.349
2015    5       11    20   6    6.2350   473.8    7.578      54.413
2015    5       11    20  12    6.2377   474.0    7.576      54.477
2015    5       11    20  18    6.2403   474.3    7.573      54.541
2015    5       11    20  24    6.2429   474.6    7.571      54.603
2015    5       11    20  30    6.2455   474.8    7.568      54.665
2015    5       11    20  35    6.2481   475.1    7.565      54.727
2015    5       11    20  41    6.2507   475.4    7.562      54.789
2015    5       11    20  47    6.2532   475.6    7.560      54.850
2015    5       11    20  53    6.2558   475.9    7.557      54.911
2015    5       11    20  59    6.2584   476.2    7.553      54.972
2015    5       11    21   4    6.2610   476.4    7.550      55.033
2015    5       11    21  10    6.2636   476.7    7.547      55.094
2015    5       11    21  16    6.2662   477.0    7.544      55.155
2015    5       11    21  22    6.2688   477.3    7.541      55.216
2015    5       11    21  28    6.2714   477.5    7.537      55.278
2015    5       11    21  33    6.2741   477.8    7.534      55.339
2015    5       11    21  39    6.2767   478.1    7.531      55.401
2015    5       11    21  45    6.2793   478.4    7.527      55.463
2015    5       11    21  51    6.2820   478.7    7.524      55.527
2015    5       11    21  57    6.2846   478.9    7.520      55.592
2015    5       11    22   2    6.2873   479.2    7.517      55.658
2015    5       11    22   8    6.2899   479.5    7.513      55.726
2015    5       11    22  14    6.2925   479.8    7.509      55.794
2015    5       11    22  20    6.2951   480.1    7.505      55.862
2015    5       11    22  26    6.2976   480.4    7.501      55.931
2015    5       11    22  31    6.3002   480.7    7.496      55.999
2015    5       11    22  37    6.3026   481.0    7.492      56.067
2015    5       11    22  43    6.3051   481.3    7.487      56.135
2015    5       11    22  49    6.3074   481.6    7.482      56.202
2015    5       11    22  54    6.3098   481.9    7.477      56.269
2015    5       11    23   0    6.3121   482.2    7.472      56.336
2015    5       11    23   6    6.3144   482.5    7.466      56.402
2015    5       11    23  12    6.3166   482.8    7.461      56.467
2015    5       11    23  18    6.3189   483.1    7.455      56.531
2015    5       11    23  23    6.3210   483.4    7.449      56.595
2015    5       11    23  29    6.3232   483.8    7.443      56.658
2015    5       11    23  35    6.3253   484.1    7.437      56.720
2015    5       11    23  41    6.3274   484.4    7.430      56.782
2015    5       11    23  47    6.3295   484.7    7.424      56.843
2015    5       11    23  52    6.3315   485.0    7.417      56.904
2015    5       11    23  58    6.3335   485.3    7.411      56.964
2015    5       12     0   4    6.3355   485.7    7.404      57.024
