year    month   day   hour  minute  B_enl V_enl   n_enl       T_enl
[year] [month] [day] [hour][minute] [nT]  [km/s]  [cm-3]      [kK]
2015    5        6     0   5    5.0672   448.0    6.124      37.000
2015    5        6     0  11    5.0698   448.0    6.128      37.025
2015    5        6     0  16    5.0724   448.0    6.131      37.052
2015    5        6     0  22    5.0750   448.1    6.134      37.079
2015    5        6     0  27    5.0775   448.1    6.137      37.108
2015    5        6     0  33    5.0801   448.1    6.140      37.137
2015    5        6     0  39    5.0826   448.1    6.143      37.167
2015    5        6     0  44    5.0851   448.1    6.146      37.196
2015    5        6     0  50    5.0877   448.2    6.149      37.226
2015    5        6     0  55    5.0902   448.2    6.151      37.255
2015    5        6     1   1    5.0926   448.2    6.153      37.283
2015    5        6     1   6    5.0951   448.2    6.155      37.312
2015    5        6     1  12    5.0976   448.2    6.157      37.340
2015    5        6     1  18    5.1000   448.2    6.159      37.367
2015    5        6     1  23    5.1024   448.3    6.160      37.395
2015    5        6     1  29    5.1049   448.3    6.162      37.421
2015    5        6     1  34    5.1073   448.3    6.163      37.447
2015    5        6     1  40    5.1097   448.3    6.165      37.473
2015    5        6     1  46    5.1121   448.3    6.166      37.498
2015    5        6     1  51    5.1146   448.3    6.167      37.522
2015    5        6     1  57    5.1170   448.4    6.168      37.546
2015    5        6     2   2    5.1194   448.4    6.169      37.570
2015    5        6     2   8    5.1218   448.4    6.169      37.593
2015    5        6     2  13    5.1242   448.4    6.170      37.616
2015    5        6     2  19    5.1266   448.4    6.171      37.638
2015    5        6     2  25    5.1290   448.4    6.171      37.659
2015    5        6     2  30    5.1314   448.5    6.171      37.680
2015    5        6     2  36    5.1338   448.5    6.172      37.701
2015    5        6     2  41    5.1362   448.5    6.172      37.721
2015    5        6     2  47    5.1386   448.5    6.172      37.741
2015    5        6     2  53    5.1410   448.5    6.172      37.760
2015    5        6     2  58    5.1434   448.5    6.173      37.779
2015    5        6     3   4    5.1458   448.6    6.173      37.798
2015    5        6     3   9    5.1482   448.6    6.173      37.816
2015    5        6     3  15    5.1505   448.6    6.173      37.834
2015    5        6     3  20    5.1529   448.6    6.173      37.851
2015    5        6     3  26    5.1554   448.6    6.173      37.868
2015    5        6     3  32    5.1578   448.6    6.173      37.885
2015    5        6     3  37    5.1602   448.7    6.173      37.902
2015    5        6     3  43    5.1626   448.7    6.172      37.919
2015    5        6     3  48    5.1650   448.7    6.172      37.935
2015    5        6     3  54    5.1674   448.7    6.172      37.951
2015    5        6     3  59    5.1698   448.7    6.172      37.967
2015    5        6     4   5    5.1722   448.8    6.172      37.983
2015    5        6     4  11    5.1747   448.8    6.172      37.999
2015    5        6     4  16    5.1771   448.8    6.172      38.015
2015    5        6     4  22    5.1795   448.8    6.172      38.031
2015    5        6     4  27    5.1819   448.9    6.172      38.047
2015    5        6     4  33    5.1844   448.9    6.172      38.063
2015    5        6     4  39    5.1868   448.9    6.172      38.078
2015    5        6     4  44    5.1893   448.9    6.172      38.094
2015    5        6     4  50    5.1917   449.0    6.172      38.110
2015    5        6     4  55    5.1941   449.0    6.172      38.126
2015    5        6     5   1    5.1966   449.0    6.172      38.142
2015    5        6     5   6    5.1990   449.0    6.173      38.158
2015    5        6     5  12    5.2014   449.1    6.173      38.174
2015    5        6     5  18    5.2039   449.1    6.173      38.190
2015    5        6     5  23    5.2063   449.1    6.173      38.206
2015    5        6     5  29    5.2087   449.2    6.174      38.223
2015    5        6     5  34    5.2112   449.2    6.174      38.239
2015    5        6     5  40    5.2136   449.2    6.175      38.256
2015    5        6     5  46    5.2160   449.2    6.175      38.273
2015    5        6     5  51    5.2184   449.3    6.176      38.290
2015    5        6     5  57    5.2209   449.3    6.177      38.308
2015    5        6     6   2    5.2233   449.4    6.178      38.325
2015    5        6     6   8    5.2257   449.4    6.179      38.343
2015    5        6     6  13    5.2281   449.4    6.180      38.361
2015    5        6     6  19    5.2306   449.5    6.181      38.380
2015    5        6     6  25    5.2330   449.5    6.182      38.399
2015    5        6     6  30    5.2354   449.5    6.183      38.418
2015    5        6     6  36    5.2378   449.6    6.185      38.438
2015    5        6     6  41    5.2403   449.6    6.186      38.458
2015    5        6     6  47    5.2428   449.6    6.188      38.478
2015    5        6     6  53    5.2452   449.7    6.190      38.499
2015    5        6     6  58    5.2477   449.7    6.192      38.520
2015    5        6     7   4    5.2502   449.8    6.194      38.542
2015    5        6     7   9    5.2527   449.8    6.197      38.565
2015    5        6     7  15    5.2552   449.9    6.199      38.589
2015    5        6     7  20    5.2577   449.9    6.202      38.614
2015    5        6     7  26    5.2602   450.0    6.204      38.642
2015    5        6     7  32    5.2626   450.0    6.207      38.671
2015    5        6     7  37    5.2651   450.1    6.209      38.702
2015    5        6     7  43    5.2676   450.1    6.212      38.733
2015    5        6     7  48    5.2701   450.2    6.214      38.766
2015    5        6     7  54    5.2725   450.2    6.217      38.800
2015    5        6     8   0    5.2750   450.3    6.219      38.834
2015    5        6     8   5    5.2774   450.4    6.222      38.868
2015    5        6     8  11    5.2798   450.4    6.224      38.903
2015    5        6     8  16    5.2822   450.5    6.227      38.938
2015    5        6     8  22    5.2847   450.5    6.230      38.973
2015    5        6     8  27    5.2871   450.6    6.232      39.008
2015    5        6     8  33    5.2895   450.6    6.235      39.043
2015    5        6     8  39    5.2919   450.7    6.237      39.080
2015    5        6     8  44    5.2942   450.8    6.240      39.117
2015    5        6     8  50    5.2966   450.8    6.243      39.155
2015    5        6     8  55    5.2990   450.9    6.245      39.194
2015    5        6     9   1    5.3014   451.0    6.248      39.233
2015    5        6     9   6    5.3037   451.0    6.250      39.273
2015    5        6     9  12    5.3060   451.1    6.253      39.313
2015    5        6     9  18    5.3084   451.2    6.255      39.352
2015    5        6     9  23    5.3106   451.2    6.257      39.391
2015    5        6     9  29    5.3129   451.3    6.259      39.430
2015    5        6     9  34    5.3151   451.4    6.261      39.470
2015    5        6     9  40    5.3173   451.4    6.263      39.510
2015    5        6     9  46    5.3194   451.5    6.264      39.550
2015    5        6     9  51    5.3216   451.6    6.265      39.590
2015    5        6     9  57    5.3237   451.7    6.266      39.630
2015    5        6    10   2    5.3257   451.7    6.267      39.669
2015    5        6    10   8    5.3278   451.8    6.268      39.708
2015    5        6    10  13    5.3298   451.9    6.268      39.745
2015    5        6    10  19    5.3318   452.0    6.269      39.782
2015    5        6    10  25    5.3337   452.0    6.269      39.818
2015    5        6    10  30    5.3356   452.1    6.269      39.853
2015    5        6    10  36    5.3375   452.2    6.269      39.888
2015    5        6    10  41    5.3394   452.3    6.268      39.921
2015    5        6    10  47    5.3413   452.3    6.267      39.953
2015    5        6    10  53    5.3431   452.4    6.267      39.985
2015    5        6    10  58    5.3449   452.5    6.266      40.016
2015    5        6    11   4    5.3467   452.6    6.265      40.046
2015    5        6    11   9    5.3485   452.6    6.264      40.075
2015    5        6    11  15    5.3503   452.7    6.262      40.103
2015    5        6    11  20    5.3520   452.8    6.261      40.131
2015    5        6    11  26    5.3537   452.9    6.260      40.158
2015    5        6    11  32    5.3555   452.9    6.258      40.184
2015    5        6    11  37    5.3571   453.0    6.256      40.209
2015    5        6    11  43    5.3588   453.1    6.254      40.234
2015    5        6    11  48    5.3605   453.1    6.253      40.258
2015    5        6    11  54    5.3622   453.2    6.251      40.282
2015    5        6    12   0    5.3638   453.3    6.249      40.305
2015    5        6    12   5    5.3655   453.4    6.247      40.328
2015    5        6    12  11    5.3671   453.4    6.245      40.350
2015    5        6    12  16    5.3687   453.5    6.242      40.371
2015    5        6    12  22    5.3703   453.6    6.240      40.392
2015    5        6    12  27    5.3719   453.7    6.238      40.413
2015    5        6    12  33    5.3735   453.7    6.236      40.433
2015    5        6    12  39    5.3751   453.8    6.233      40.453
2015    5        6    12  44    5.3767   453.9    6.231      40.472
2015    5        6    12  50    5.3783   454.0    6.229      40.492
2015    5        6    12  55    5.3798   454.0    6.226      40.511
2015    5        6    13   1    5.3814   454.1    6.224      40.529
2015    5        6    13   6    5.3830   454.2    6.222      40.548
2015    5        6    13  12    5.3845   454.3    6.219      40.566
2015    5        6    13  18    5.3861   454.3    6.217      40.584
2015    5        6    13  23    5.3876   454.4    6.215      40.602
2015    5        6    13  29    5.3892   454.5    6.213      40.620
2015    5        6    13  34    5.3908   454.6    6.210      40.638
2015    5        6    13  40    5.3923   454.6    6.208      40.656
2015    5        6    13  46    5.3939   454.7    6.206      40.673
2015    5        6    13  51    5.3954   454.8    6.204      40.691
2015    5        6    13  57    5.3970   454.9    6.202      40.709
2015    5        6    14   2    5.3986   454.9    6.200      40.727
2015    5        6    14   8    5.4002   455.0    6.199      40.745
2015    5        6    14  13    5.4017   455.1    6.197      40.763
2015    5        6    14  19    5.4033   455.2    6.195      40.782
2015    5        6    14  25    5.4049   455.3    6.194      40.800
2015    5        6    14  30    5.4065   455.3    6.192      40.819
2015    5        6    14  36    5.4081   455.4    6.191      40.838
2015    5        6    14  41    5.4097   455.5    6.190      40.858
2015    5        6    14  47    5.4112   455.6    6.189      40.878
2015    5        6    14  53    5.4128   455.7    6.188      40.898
2015    5        6    14  58    5.4144   455.7    6.188      40.919
2015    5        6    15   4    5.4160   455.8    6.187      40.940
2015    5        6    15   9    5.4176   455.9    6.187      40.961
2015    5        6    15  15    5.4192   456.0    6.187      40.983
2015    5        6    15  20    5.4208   456.1    6.187      41.006
2015    5        6    15  26    5.4224   456.2    6.188      41.030
2015    5        6    15  32    5.4240   456.2    6.188      41.054
2015    5        6    15  37    5.4256   456.3    6.189      41.079
2015    5        6    15  43    5.4272   456.4    6.190      41.105
2015    5        6    15  48    5.4288   456.5    6.191      41.133
2015    5        6    15  54    5.4303   456.6    6.192      41.163
2015    5        6    16   0    5.4319   456.7    6.193      41.194
2015    5        6    16   5    5.4335   456.8    6.195      41.227
2015    5        6    16  11    5.4351   456.9    6.196      41.260
2015    5        6    16  16    5.4366   457.0    6.197      41.295
2015    5        6    16  22    5.4381   457.1    6.199      41.329
2015    5        6    16  27    5.4397   457.2    6.200      41.364
2015    5        6    16  33    5.4412   457.3    6.202      41.398
2015    5        6    16  39    5.4426   457.4    6.203      41.433
2015    5        6    16  44    5.4441   457.5    6.205      41.469
2015    5        6    16  50    5.4455   457.6    6.206      41.505
2015    5        6    16  55    5.4470   457.7    6.208      41.543
2015    5        6    17   1    5.4483   457.8    6.209      41.581
2015    5        6    17   6    5.4497   457.8    6.210      41.619
2015    5        6    17  12    5.4511   457.9    6.212      41.657
2015    5        6    17  18    5.4525   458.0    6.213      41.696
2015    5        6    17  23    5.4538   458.1    6.214      41.734
2015    5        6    17  29    5.4551   458.2    6.215      41.772
2015    5        6    17  34    5.4564   458.3    6.216      41.811
2015    5        6    17  40    5.4577   458.5    6.217      41.849
2015    5        6    17  46    5.4590   458.6    6.218      41.889
2015    5        6    17  51    5.4602   458.7    6.218      41.928
2015    5        6    17  57    5.4614   458.8    6.219      41.967
2015    5        6    18   2    5.4625   458.9    6.219      42.007
2015    5        6    18   8    5.4636   459.0    6.219      42.045
2015    5        6    18  13    5.4647   459.1    6.218      42.083
2015    5        6    18  19    5.4658   459.2    6.218      42.120
2015    5        6    18  25    5.4668   459.4    6.217      42.156
2015    5        6    18  30    5.4678   459.5    6.216      42.191
2015    5        6    18  36    5.4687   459.6    6.215      42.225
2015    5        6    18  41    5.4696   459.7    6.213      42.259
2015    5        6    18  47    5.4705   459.8    6.211      42.291
2015    5        6    18  53    5.4713   460.0    6.210      42.323
2015    5        6    18  58    5.4721   460.1    6.208      42.354
2015    5        6    19   4    5.4729   460.2    6.205      42.384
2015    5        6    19   9    5.4736   460.3    6.203      42.413
2015    5        6    19  15    5.4744   460.4    6.201      42.442
2015    5        6    19  20    5.4751   460.5    6.198      42.470
2015    5        6    19  26    5.4758   460.7    6.195      42.497
2015    5        6    19  32    5.4764   460.8    6.193      42.524
2015    5        6    19  37    5.4771   460.9    6.190      42.550
2015    5        6    19  43    5.4777   461.0    6.187      42.576
2015    5        6    19  48    5.4783   461.1    6.183      42.601
2015    5        6    19  54    5.4789   461.3    6.180      42.626
2015    5        6    20   0    5.4794   461.4    6.177      42.650
2015    5        6    20   5    5.4800   461.5    6.174      42.673
2015    5        6    20  11    5.4805   461.6    6.170      42.697
2015    5        6    20  16    5.4810   461.8    6.167      42.720
2015    5        6    20  22    5.4815   461.9    6.163      42.742
2015    5        6    20  27    5.4820   462.0    6.160      42.764
2015    5        6    20  33    5.4824   462.1    6.156      42.786
2015    5        6    20  39    5.4828   462.2    6.152      42.807
2015    5        6    20  44    5.4832   462.4    6.149      42.828
2015    5        6    20  50    5.4836   462.5    6.145      42.849
2015    5        6    20  55    5.4840   462.6    6.141      42.869
2015    5        6    21   1    5.4844   462.7    6.138      42.889
2015    5        6    21   6    5.4847   462.9    6.134      42.908
2015    5        6    21  12    5.4850   463.0    6.130      42.927
2015    5        6    21  18    5.4853   463.1    6.126      42.947
2015    5        6    21  23    5.4856   463.2    6.123      42.965
2015    5        6    21  29    5.4859   463.3    6.119      42.984
2015    5        6    21  34    5.4862   463.5    6.115      43.002
2015    5        6    21  40    5.4864   463.6    6.111      43.020
2015    5        6    21  46    5.4867   463.7    6.108      43.038
2015    5        6    21  51    5.4869   463.8    6.104      43.056
2015    5        6    21  57    5.4871   463.9    6.101      43.074
2015    5        6    22   2    5.4873   464.1    6.097      43.092
2015    5        6    22   8    5.4874   464.2    6.094      43.109
2015    5        6    22  13    5.4876   464.3    6.090      43.127
2015    5        6    22  19    5.4878   464.4    6.087      43.145
2015    5        6    22  25    5.4879   464.6    6.084      43.162
2015    5        6    22  30    5.4880   464.7    6.081      43.180
2015    5        6    22  36    5.4882   464.8    6.078      43.198
2015    5        6    22  41    5.4883   464.9    6.074      43.217
2015    5        6    22  47    5.4884   465.1    6.072      43.236
2015    5        6    22  53    5.4885   465.2    6.069      43.255
2015    5        6    22  58    5.4885   465.3    6.066      43.275
2015    5        6    23   4    5.4886   465.4    6.063      43.296
2015    5        6    23   9    5.4886   465.5    6.060      43.317
2015    5        6    23  15    5.4887   465.7    6.058      43.338
2015    5        6    23  20    5.4886   465.8    6.055      43.358
2015    5        6    23  26    5.4886   465.9    6.052      43.379
2015    5        6    23  32    5.4886   466.0    6.050      43.400
2015    5        6    23  37    5.4885   466.1    6.047      43.420
2015    5        6    23  43    5.4884   466.3    6.045      43.441
2015    5        6    23  48    5.4883   466.4    6.043      43.461
2015    5        6    23  54    5.4881   466.5    6.040      43.481
2015    5        6    23  59    5.4879   466.6    6.038      43.500
2015    5        7     0   5    5.4878   466.8    6.035      43.519
2015    5        7     0  11    5.4875   466.9    6.033      43.538
2015    5        7     0  16    5.4873   467.0    6.031      43.557
2015    5        7     0  22    5.4870   467.1    6.028      43.576
2015    5        7     0  27    5.4867   467.3    6.026      43.594
2015    5        7     0  33    5.4865   467.4    6.024      43.612
2015    5        7     0  39    5.4861   467.5    6.022      43.630
2015    5        7     0  44    5.4858   467.6    6.020      43.648
2015    5        7     0  50    5.4855   467.8    6.018      43.668
2015    5        7     0  55    5.4851   467.9    6.016      43.688
2015    5        7     1   1    5.4847   468.0    6.013      43.708
2015    5        7     1   6    5.4843   468.2    6.011      43.729
2015    5        7     1  12    5.4838   468.3    6.009      43.751
2015    5        7     1  18    5.4833   468.4    6.006      43.774
2015    5        7     1  23    5.4827   468.6    6.003      43.796
2015    5        7     1  29    5.4821   468.7    6.001      43.818
2015    5        7     1  34    5.4815   468.8    5.998      43.840
2015    5        7     1  40    5.4808   469.0    5.995      43.861
2015    5        7     1  46    5.4801   469.1    5.991      43.882
2015    5        7     1  51    5.4793   469.2    5.988      43.902
2015    5        7     1  57    5.4785   469.4    5.984      43.922
2015    5        7     2   2    5.4777   469.5    5.981      43.943
2015    5        7     2   8    5.4768   469.6    5.977      43.962
2015    5        7     2  13    5.4759   469.8    5.973      43.981
2015    5        7     2  19    5.4749   469.9    5.969      44.000
2015    5        7     2  25    5.4739   470.1    5.965      44.019
2015    5        7     2  30    5.4729   470.2    5.960      44.037
2015    5        7     2  36    5.4718   470.3    5.956      44.055
2015    5        7     2  41    5.4707   470.5    5.952      44.072
2015    5        7     2  47    5.4696   470.6    5.947      44.090
2015    5        7     2  53    5.4684   470.7    5.942      44.107
2015    5        7     2  58    5.4673   470.9    5.938      44.123
2015    5        7     3   4    5.4660   471.0    5.933      44.140
2015    5        7     3   9    5.4648   471.1    5.928      44.156
2015    5        7     3  15    5.4635   471.3    5.923      44.171
2015    5        7     3  20    5.4622   471.4    5.918      44.187
2015    5        7     3  26    5.4608   471.6    5.913      44.201
2015    5        7     3  32    5.4595   471.7    5.908      44.216
2015    5        7     3  37    5.4581   471.8    5.903      44.230
2015    5        7     3  43    5.4566   472.0    5.898      44.244
2015    5        7     3  48    5.4552   472.1    5.893      44.257
2015    5        7     3  54    5.4537   472.2    5.888      44.270
2015    5        7     3  59    5.4521   472.4    5.883      44.282
2015    5        7     4   5    5.4506   472.5    5.877      44.294
2015    5        7     4  11    5.4490   472.6    5.872      44.306
2015    5        7     4  16    5.4474   472.7    5.867      44.317
2015    5        7     4  22    5.4457   472.9    5.861      44.328
2015    5        7     4  27    5.4441   473.0    5.856      44.339
2015    5        7     4  33    5.4424   473.1    5.850      44.349
2015    5        7     4  39    5.4407   473.3    5.845      44.358
2015    5        7     4  44    5.4390   473.4    5.840      44.368
2015    5        7     4  50    5.4372   473.5    5.834      44.377
2015    5        7     4  55    5.4354   473.6    5.829      44.385
2015    5        7     5   1    5.4336   473.8    5.823      44.394
2015    5        7     5   6    5.4318   473.9    5.817      44.401
2015    5        7     5  12    5.4300   474.0    5.812      44.409
2015    5        7     5  18    5.4282   474.1    5.806      44.416
2015    5        7     5  23    5.4263   474.2    5.801      44.423
2015    5        7     5  29    5.4245   474.4    5.795      44.429
2015    5        7     5  34    5.4226   474.5    5.790      44.435
2015    5        7     5  40    5.4207   474.6    5.784      44.441
2015    5        7     5  45    5.4188   474.7    5.779      44.447
2015    5        7     5  51    5.4169   474.8    5.773      44.452
2015    5        7     5  57    5.4150   475.0    5.768      44.457
2015    5        7     6   2    5.4131   475.1    5.762      44.462
2015    5        7     6   8    5.4111   475.2    5.757      44.466
2015    5        7     6  13    5.4091   475.3    5.751      44.470
2015    5        7     6  19    5.4071   475.4    5.746      44.474
2015    5        7     6  24    5.4051   475.5    5.741      44.478
2015    5        7     6  30    5.4030   475.6    5.735      44.482
2015    5        7     6  35    5.4009   475.7    5.730      44.485
2015    5        7     6  41    5.3988   475.8    5.725      44.488
2015    5        7     6  47    5.3966   475.9    5.720      44.491
2015    5        7     6  52    5.3944   476.1    5.714      44.493
2015    5        7     6  58    5.3922   476.2    5.709      44.495
2015    5        7     7   3    5.3899   476.3    5.704      44.496
2015    5        7     7   9    5.3876   476.4    5.699      44.497
2015    5        7     7  14    5.3853   476.5    5.693      44.497
2015    5        7     7  20    5.3829   476.6    5.688      44.497
2015    5        7     7  26    5.3805   476.7    5.683      44.496
2015    5        7     7  31    5.3781   476.8    5.677      44.495
2015    5        7     7  37    5.3756   476.9    5.672      44.493
2015    5        7     7  42    5.3730   477.1    5.666      44.490
2015    5        7     7  48    5.3705   477.2    5.660      44.487
2015    5        7     7  53    5.3678   477.3    5.655      44.484
2015    5        7     7  59    5.3652   477.4    5.649      44.480
2015    5        7     8   5    5.3625   477.5    5.643      44.476
2015    5        7     8  10    5.3598   477.6    5.637      44.471
2015    5        7     8  16    5.3571   477.7    5.631      44.466
2015    5        7     8  21    5.3543   477.8    5.625      44.461
2015    5        7     8  27    5.3515   477.9    5.619      44.455
2015    5        7     8  32    5.3487   478.0    5.613      44.449
2015    5        7     8  38    5.3458   478.1    5.607      44.443
2015    5        7     8  44    5.3430   478.2    5.601      44.437
2015    5        7     8  49    5.3400   478.3    5.595      44.431
2015    5        7     8  55    5.3371   478.4    5.589      44.424
2015    5        7     9   0    5.3342   478.5    5.583      44.417
2015    5        7     9   6    5.3312   478.6    5.576      44.410
2015    5        7     9  11    5.3282   478.7    5.570      44.403
2015    5        7     9  17    5.3252   478.8    5.564      44.395
2015    5        7     9  22    5.3221   478.9    5.558      44.388
2015    5        7     9  28    5.3190   479.0    5.552      44.380
2015    5        7     9  34    5.3159   479.1    5.545      44.372
2015    5        7     9  39    5.3129   479.2    5.539      44.364
2015    5        7     9  45    5.3097   479.2    5.533      44.356
2015    5        7     9  50    5.3066   479.3    5.527      44.347
2015    5        7     9  56    5.3034   479.4    5.520      44.339
2015    5        7    10   2    5.3002   479.5    5.514      44.331
2015    5        7    10   7    5.2970   479.6    5.508      44.322
2015    5        7    10  13    5.2938   479.7    5.502      44.313
2015    5        7    10  18    5.2906   479.8    5.495      44.304
2015    5        7    10  24    5.2874   479.8    5.489      44.295
2015    5        7    10  29    5.2841   479.9    5.483      44.285
2015    5        7    10  35    5.2809   480.0    5.477      44.276
2015    5        7    10  41    5.2776   480.1    5.470      44.266
2015    5        7    10  46    5.2744   480.2    5.464      44.255
2015    5        7    10  52    5.2711   480.2    5.458      44.245
2015    5        7    10  57    5.2678   480.3    5.452      44.234
2015    5        7    11   3    5.2645   480.4    5.446      44.223
2015    5        7    11   8    5.2612   480.4    5.440      44.212
2015    5        7    11  14    5.2580   480.5    5.433      44.200
2015    5        7    11  20    5.2547   480.6    5.427      44.188
2015    5        7    11  25    5.2514   480.6    5.421      44.176
2015    5        7    11  31    5.2481   480.7    5.415      44.163
2015    5        7    11  36    5.2448   480.8    5.409      44.151
2015    5        7    11  42    5.2415   480.8    5.403      44.138
2015    5        7    11  47    5.2382   480.9    5.397      44.125
2015    5        7    11  53    5.2350   481.0    5.392      44.112
2015    5        7    11  59    5.2317   481.0    5.386      44.098
2015    5        7    12   4    5.2284   481.1    5.380      44.084
2015    5        7    12  10    5.2252   481.1    5.374      44.070
2015    5        7    12  15    5.2219   481.2    5.368      44.056
2015    5        7    12  21    5.2187   481.2    5.363      44.041
2015    5        7    12  26    5.2154   481.3    5.357      44.027
2015    5        7    12  32    5.2122   481.4    5.351      44.011
2015    5        7    12  38    5.2089   481.4    5.345      43.996
2015    5        7    12  43    5.2057   481.5    5.340      43.980
2015    5        7    12  49    5.2025   481.5    5.334      43.964
2015    5        7    12  54    5.1993   481.6    5.329      43.947
2015    5        7    13   0    5.1961   481.6    5.323      43.931
2015    5        7    13   5    5.1928   481.6    5.318      43.913
2015    5        7    13  11    5.1896   481.7    5.312      43.896
2015    5        7    13  17    5.1863   481.7    5.307      43.878
2015    5        7    13  22    5.1831   481.8    5.301      43.860
2015    5        7    13  28    5.1798   481.8    5.296      43.841
2015    5        7    13  33    5.1765   481.9    5.290      43.822
2015    5        7    13  39    5.1731   481.9    5.285      43.802
2015    5        7    13  44    5.1698   481.9    5.280      43.782
2015    5        7    13  50    5.1664   482.0    5.274      43.762
2015    5        7    13  56    5.1631   482.0    5.269      43.742
2015    5        7    14   1    5.1596   482.1    5.264      43.721
2015    5        7    14   7    5.1562   482.1    5.258      43.699
2015    5        7    14  12    5.1528   482.1    5.253      43.678
2015    5        7    14  18    5.1493   482.2    5.248      43.656
2015    5        7    14  23    5.1458   482.2    5.242      43.633
2015    5        7    14  29    5.1423   482.2    5.237      43.611
2015    5        7    14  35    5.1388   482.3    5.232      43.588
2015    5        7    14  40    5.1353   482.3    5.227      43.564
2015    5        7    14  46    5.1317   482.3    5.221      43.541
2015    5        7    14  51    5.1281   482.3    5.216      43.517
2015    5        7    14  57    5.1246   482.4    5.211      43.492
2015    5        7    15   2    5.1210   482.4    5.206      43.467
2015    5        7    15   8    5.1173   482.4    5.200      43.442
2015    5        7    15  14    5.1137   482.4    5.195      43.416
2015    5        7    15  19    5.1101   482.4    5.190      43.391
2015    5        7    15  25    5.1064   482.5    5.185      43.364
2015    5        7    15  30    5.1027   482.5    5.179      43.338
2015    5        7    15  36    5.0991   482.5    5.174      43.311
2015    5        7    15  41    5.0954   482.5    5.169      43.284
2015    5        7    15  47    5.0917   482.5    5.163      43.257
2015    5        7    15  53    5.0880   482.5    5.158      43.229
2015    5        7    15  58    5.0843   482.5    5.153      43.201
2015    5        7    16   4    5.0806   482.5    5.148      43.172
2015    5        7    16   9    5.0769   482.5    5.143      43.144
2015    5        7    16  15    5.0732   482.5    5.137      43.115
2015    5        7    16  21    5.0694   482.5    5.132      43.086
2015    5        7    16  26    5.0657   482.5    5.127      43.057
2015    5        7    16  32    5.0620   482.5    5.122      43.028
2015    5        7    16  37    5.0583   482.5    5.117      42.998
2015    5        7    16  43    5.0547   482.5    5.112      42.969
2015    5        7    16  48    5.0510   482.5    5.107      42.939
2015    5        7    16  54    5.0473   482.5    5.102      42.909
2015    5        7    17   0    5.0437   482.5    5.097      42.879
2015    5        7    17   5    5.0400   482.5    5.093      42.849
2015    5        7    17  11    5.0364   482.5    5.088      42.819
2015    5        7    17  16    5.0328   482.4    5.083      42.789
2015    5        7    17  22    5.0293   482.4    5.079      42.759
2015    5        7    17  27    5.0257   482.4    5.074      42.729
2015    5        7    17  33    5.0222   482.4    5.069      42.700
2015    5        7    17  39    5.0187   482.4    5.065      42.670
2015    5        7    17  44    5.0152   482.3    5.061      42.640
2015    5        7    17  50    5.0118   482.3    5.056      42.610
2015    5        7    17  55    5.0083   482.3    5.052      42.581
2015    5        7    18   1    5.0049   482.2    5.048      42.551
2015    5        7    18   6    5.0016   482.2    5.044      42.522
2015    5        7    18  12    4.9983   482.2    5.040      42.492
2015    5        7    18  18    4.9950   482.2    5.036      42.463
2015    5        7    18  23    4.9917   482.1    5.032      42.434
2015    5        7    18  29    4.9885   482.1    5.028      42.404
2015    5        7    18  34    4.9852   482.1    5.024      42.375
2015    5        7    18  40    4.9821   482.0    5.020      42.346
2015    5        7    18  46    4.9789   482.0    5.017      42.317
2015    5        7    18  51    4.9758   482.0    5.013      42.288
2015    5        7    18  57    4.9727   481.9    5.009      42.260
2015    5        7    19   2    4.9696   481.9    5.006      42.231
2015    5        7    19   8    4.9665   481.9    5.002      42.203
2015    5        7    19  13    4.9635   481.8    4.999      42.174
2015    5        7    19  19    4.9605   481.8    4.995      42.146
2015    5        7    19  25    4.9575   481.7    4.992      42.117
2015    5        7    19  30    4.9545   481.7    4.988      42.089
2015    5        7    19  36    4.9516   481.7    4.985      42.060
2015    5        7    19  41    4.9486   481.6    4.981      42.032
2015    5        7    19  47    4.9457   481.6    4.978      42.003
2015    5        7    19  52    4.9428   481.5    4.975      41.974
2015    5        7    19  58    4.9399   481.5    4.972      41.945
2015    5        7    20   4    4.9371   481.5    4.968      41.916
2015    5        7    20   9    4.9342   481.4    4.965      41.888
2015    5        7    20  15    4.9314   481.4    4.962      41.859
2015    5        7    20  20    4.9286   481.3    4.959      41.830
2015    5        7    20  26    4.9258   481.3    4.956      41.801
2015    5        7    20  31    4.9230   481.2    4.953      41.772
2015    5        7    20  37    4.9202   481.2    4.950      41.742
2015    5        7    20  43    4.9174   481.2    4.947      41.713
2015    5        7    20  48    4.9146   481.1    4.944      41.684
2015    5        7    20  54    4.9118   481.1    4.942      41.655
2015    5        7    20  59    4.9090   481.0    4.939      41.625
2015    5        7    21   5    4.9062   481.0    4.936      41.596
2015    5        7    21  11    4.9034   480.9    4.933      41.566
2015    5        7    21  16    4.9006   480.9    4.931      41.537
2015    5        7    21  22    4.8979   480.8    4.928      41.507
2015    5        7    21  27    4.8951   480.8    4.925      41.477
2015    5        7    21  33    4.8922   480.7    4.923      41.447
2015    5        7    21  38    4.8895   480.7    4.920      41.417
2015    5        7    21  44    4.8866   480.6    4.918      41.387
2015    5        7    21  50    4.8838   480.6    4.915      41.357
2015    5        7    21  55    4.8810   480.5    4.913      41.327
2015    5        7    22   1    4.8782   480.5    4.910      41.296
2015    5        7    22   6    4.8754   480.4    4.908      41.266
2015    5        7    22  12    4.8726   480.4    4.905      41.235
2015    5        7    22  17    4.8697   480.3    4.903      41.204
2015    5        7    22  23    4.8669   480.2    4.900      41.173
2015    5        7    22  29    4.8641   480.2    4.898      41.142
2015    5        7    22  34    4.8613   480.1    4.896      41.111
2015    5        7    22  40    4.8584   480.1    4.893      41.080
2015    5        7    22  45    4.8556   480.0    4.891      41.048
2015    5        7    22  51    4.8528   479.9    4.889      41.017
2015    5        7    22  56    4.8500   479.9    4.887      40.985
2015    5        7    23   2    4.8472   479.8    4.885      40.953
2015    5        7    23   8    4.8444   479.7    4.882      40.922
2015    5        7    23  13    4.8416   479.6    4.880      40.890
2015    5        7    23  19    4.8388   479.6    4.878      40.858
2015    5        7    23  24    4.8361   479.5    4.876      40.826
2015    5        7    23  30    4.8333   479.4    4.874      40.794
2015    5        7    23  36    4.8305   479.3    4.872      40.762
2015    5        7    23  41    4.8278   479.3    4.870      40.730
2015    5        7    23  47    4.8251   479.2    4.868      40.698
2015    5        7    23  52    4.8224   479.1    4.867      40.667
2015    5        7    23  58    4.8198   479.0    4.865      40.635
2015    5        8     0   3    4.8171   478.9    4.863      40.604
2015    5        8     0   9    4.8145   478.9    4.862      40.572
2015    5        8     0  15    4.8119   478.8    4.860      40.541
2015    5        8     0  20    4.8093   478.7    4.859      40.511
2015    5        8     0  26    4.8068   478.6    4.857      40.480
2015    5        8     0  31    4.8043   478.5    4.856      40.450
2015    5        8     0  37    4.8018   478.4    4.854      40.420
2015    5        8     0  42    4.7993   478.3    4.853      40.390
2015    5        8     0  48    4.7969   478.2    4.852      40.361
2015    5        8     0  54    4.7946   478.1    4.850      40.331
2015    5        8     0  59    4.7922   478.1    4.849      40.302
2015    5        8     1   5    4.7899   478.0    4.848      40.273
2015    5        8     1  10    4.7876   477.9    4.846      40.244
2015    5        8     1  16    4.7854   477.8    4.845      40.215
2015    5        8     1  22    4.7831   477.7    4.844      40.186
2015    5        8     1  27    4.7809   477.6    4.843      40.157
2015    5        8     1  33    4.7788   477.5    4.842      40.128
2015    5        8     1  38    4.7767   477.4    4.841      40.099
2015    5        8     1  44    4.7745   477.3    4.840      40.071
2015    5        8     1  49    4.7725   477.2    4.839      40.042
2015    5        8     1  55    4.7704   477.1    4.837      40.013
2015    5        8     2   1    4.7684   477.0    4.836      39.985
2015    5        8     2   6    4.7664   476.9    4.835      39.956
2015    5        8     2  12    4.7644   476.9    4.834      39.928
2015    5        8     2  17    4.7624   476.8    4.833      39.900
2015    5        8     2  23    4.7605   476.7    4.832      39.871
2015    5        8     2  28    4.7585   476.6    4.831      39.843
2015    5        8     2  34    4.7566   476.5    4.830      39.814
2015    5        8     2  40    4.7547   476.4    4.828      39.786
2015    5        8     2  45    4.7529   476.3    4.827      39.757
2015    5        8     2  51    4.7510   476.2    4.826      39.729
2015    5        8     2  56    4.7492   476.1    4.825      39.700
2015    5        8     3   2    4.7474   476.0    4.824      39.672
2015    5        8     3   7    4.7456   475.9    4.823      39.643
2015    5        8     3  13    4.7438   475.8    4.822      39.614
2015    5        8     3  19    4.7420   475.7    4.821      39.586
2015    5        8     3  24    4.7402   475.6    4.820      39.557
2015    5        8     3  30    4.7385   475.5    4.819      39.529
2015    5        8     3  35    4.7368   475.4    4.818      39.500
2015    5        8     3  41    4.7351   475.3    4.817      39.472
2015    5        8     3  47    4.7334   475.3    4.816      39.444
2015    5        8     3  52    4.7317   475.2    4.815      39.415
2015    5        8     3  58    4.7300   475.1    4.815      39.387
2015    5        8     4   3    4.7284   475.0    4.814      39.359
2015    5        8     4   9    4.7267   474.9    4.813      39.331
2015    5        8     4  14    4.7251   474.8    4.812      39.303
2015    5        8     4  20    4.7234   474.7    4.812      39.275
2015    5        8     4  26    4.7218   474.6    4.811      39.247
2015    5        8     4  31    4.7202   474.5    4.811      39.219
2015    5        8     4  37    4.7186   474.4    4.810      39.191
2015    5        8     4  42    4.7170   474.3    4.809      39.163
2015    5        8     4  48    4.7154   474.2    4.809      39.136
2015    5        8     4  53    4.7138   474.1    4.809      39.108
2015    5        8     4  59    4.7122   474.0    4.808      39.081
2015    5        8     5   5    4.7106   473.9    4.808      39.053
2015    5        8     5  10    4.7089   473.8    4.807      39.026
2015    5        8     5  16    4.7073   473.8    4.807      38.999
2015    5        8     5  21    4.7057   473.7    4.807      38.972
2015    5        8     5  27    4.7041   473.6    4.806      38.945
2015    5        8     5  33    4.7025   473.5    4.806      38.919
2015    5        8     5  38    4.7009   473.4    4.805      38.892
2015    5        8     5  44    4.6993   473.3    4.805      38.865
2015    5        8     5  49    4.6977   473.2    4.805      38.838
2015    5        8     5  55    4.6961   473.1    4.804      38.811
2015    5        8     6   0    4.6945   473.0    4.804      38.784
2015    5        8     6   6    4.6929   472.9    4.803      38.757
2015    5        8     6  12    4.6913   472.8    4.803      38.730
2015    5        8     6  17    4.6897   472.6    4.803      38.703
2015    5        8     6  23    4.6881   472.5    4.802      38.676
2015    5        8     6  28    4.6865   472.4    4.802      38.650
2015    5        8     6  34    4.6850   472.3    4.802      38.623
2015    5        8     6  39    4.6834   472.2    4.801      38.596
2015    5        8     6  45    4.6819   472.1    4.801      38.569
2015    5        8     6  51    4.6803   472.0    4.801      38.542
2015    5        8     6  56    4.6788   471.9    4.801      38.515
2015    5        8     7   2    4.6773   471.8    4.800      38.489
2015    5        8     7   7    4.6758   471.7    4.800      38.462
2015    5        8     7  13    4.6744   471.6    4.800      38.436
2015    5        8     7  19    4.6729   471.5    4.800      38.410
2015    5        8     7  24    4.6715   471.4    4.800      38.384
2015    5        8     7  30    4.6700   471.2    4.800      38.358
2015    5        8     7  35    4.6686   471.1    4.800      38.332
2015    5        8     7  41    4.6673   471.0    4.800      38.307
2015    5        8     7  46    4.6659   470.9    4.800      38.282
2015    5        8     7  52    4.6645   470.8    4.800      38.256
2015    5        8     7  58    4.6632   470.7    4.800      38.231
2015    5        8     8   3    4.6619   470.6    4.800      38.207
2015    5        8     8   9    4.6606   470.5    4.800      38.182
2015    5        8     8  14    4.6593   470.4    4.800      38.157
2015    5        8     8  20    4.6580   470.2    4.800      38.132
2015    5        8     8  25    4.6568   470.1    4.800      38.107
2015    5        8     8  31    4.6555   470.0    4.800      38.082
2015    5        8     8  37    4.6543   469.9    4.800      38.057
2015    5        8     8  42    4.6531   469.8    4.800      38.032
2015    5        8     8  48    4.6519   469.7    4.800      38.007
2015    5        8     8  53    4.6507   469.6    4.800      37.982
2015    5        8     8  59    4.6496   469.5    4.800      37.957
2015    5        8     9   5    4.6484   469.3    4.800      37.931
2015    5        8     9  10    4.6473   469.2    4.800      37.906
2015    5        8     9  16    4.6461   469.1    4.800      37.880
2015    5        8     9  21    4.6450   469.0    4.800      37.854
2015    5        8     9  27    4.6439   468.9    4.800      37.828
2015    5        8     9  32    4.6428   468.8    4.800      37.802
2015    5        8     9  38    4.6418   468.6    4.800      37.776
2015    5        8     9  44    4.6407   468.5    4.800      37.750
2015    5        8     9  49    4.6396   468.4    4.800      37.724
2015    5        8     9  55    4.6386   468.3    4.800      37.697
2015    5        8    10   0    4.6376   468.2    4.800      37.671
2015    5        8    10   6    4.6366   468.1    4.800      37.644
2015    5        8    10  11    4.6356   467.9    4.800      37.618
2015    5        8    10  17    4.6346   467.8    4.800      37.591
2015    5        8    10  23    4.6336   467.7    4.800      37.565
2015    5        8    10  28    4.6326   467.6    4.801      37.538
2015    5        8    10  34    4.6317   467.5    4.801      37.512
2015    5        8    10  39    4.6308   467.3    4.801      37.485
2015    5        8    10  45    4.6299   467.2    4.801      37.459
2015    5        8    10  51    4.6290   467.1    4.801      37.432
2015    5        8    10  56    4.6281   467.0    4.801      37.406
2015    5        8    11   2    4.6272   466.8    4.802      37.380
2015    5        8    11   7    4.6264   466.7    4.802      37.353
2015    5        8    11  13    4.6256   466.6    4.802      37.327
2015    5        8    11  18    4.6247   466.5    4.803      37.301
2015    5        8    11  24    4.6240   466.3    4.803      37.276
2015    5        8    11  30    4.6232   466.2    4.804      37.250
2015    5        8    11  35    4.6224   466.1    4.804      37.224
2015    5        8    11  41    4.6217   466.0    4.805      37.199
2015    5        8    11  46    4.6209   465.8    4.806      37.173
2015    5        8    11  52    4.6202   465.7    4.806      37.148
2015    5        8    11  58    4.6195   465.6    4.807      37.122
2015    5        8    12   3    4.6188   465.5    4.808      37.097
2015    5        8    12   9    4.6181   465.3    4.809      37.072
2015    5        8    12  14    4.6174   465.2    4.810      37.048
2015    5        8    12  20    4.6167   465.1    4.811      37.023
2015    5        8    12  25    4.6160   465.0    4.811      36.999
2015    5        8    12  31    4.6154   464.8    4.812      36.975
2015    5        8    12  37    4.6147   464.7    4.813      36.951
2015    5        8    12  42    4.6140   464.6    4.814      36.927
2015    5        8    12  48    4.6134   464.4    4.815      36.904
2015    5        8    12  53    4.6127   464.3    4.816      36.880
2015    5        8    12  59    4.6121   464.2    4.817      36.856
2015    5        8    13   4    4.6115   464.1    4.818      36.833
2015    5        8    13  10    4.6108   463.9    4.819      36.809
2015    5        8    13  16    4.6102   463.8    4.820      36.785
2015    5        8    13  21    4.6096   463.7    4.821      36.762
2015    5        8    13  27    4.6090   463.5    4.822      36.738
2015    5        8    13  32    4.6084   463.4    4.823      36.714
2015    5        8    13  38    4.6078   463.3    4.824      36.690
2015    5        8    13  44    4.6071   463.1    4.825      36.666
2015    5        8    13  49    4.6065   463.0    4.826      36.643
2015    5        8    13  55    4.6059   462.9    4.827      36.619
2015    5        8    14   0    4.6053   462.7    4.828      36.594
2015    5        8    14   6    4.6047   462.6    4.829      36.570
2015    5        8    14  11    4.6042   462.4    4.829      36.546
2015    5        8    14  17    4.6036   462.3    4.830      36.522
2015    5        8    14  23    4.6030   462.2    4.831      36.498
2015    5        8    14  28    4.6024   462.0    4.832      36.473
2015    5        8    14  34    4.6019   461.9    4.833      36.449
2015    5        8    14  39    4.6013   461.7    4.834      36.424
2015    5        8    14  45    4.6008   461.6    4.835      36.400
2015    5        8    14  50    4.6003   461.5    4.836      36.375
2015    5        8    14  56    4.5998   461.3    4.837      36.351
2015    5        8    15   2    4.5993   461.2    4.838      36.327
2015    5        8    15   7    4.5988   461.0    4.838      36.302
2015    5        8    15  13    4.5984   460.9    4.839      36.278
2015    5        8    15  18    4.5980   460.7    4.840      36.254
2015    5        8    15  24    4.5976   460.6    4.841      36.230
2015    5        8    15  30    4.5972   460.4    4.842      36.206
2015    5        8    15  35    4.5968   460.3    4.843      36.182
2015    5        8    15  41    4.5965   460.2    4.844      36.158
2015    5        8    15  46    4.5962   460.0    4.845      36.134
2015    5        8    15  52    4.5959   459.9    4.847      36.111
2015    5        8    15  57    4.5956   459.7    4.848      36.087
2015    5        8    16   3    4.5954   459.6    4.849      36.064
2015    5        8    16   9    4.5952   459.4    4.850      36.040
2015    5        8    16  14    4.5950   459.3    4.851      36.017
2015    5        8    16  20    4.5948   459.1    4.852      35.994
2015    5        8    16  25    4.5946   459.0    4.854      35.971
2015    5        8    16  31    4.5945   458.8    4.855      35.948
2015    5        8    16  36    4.5944   458.7    4.856      35.925
2015    5        8    16  42    4.5943   458.5    4.858      35.902
2015    5        8    16  48    4.5942   458.4    4.859      35.879
2015    5        8    16  53    4.5942   458.2    4.861      35.857
2015    5        8    16  59    4.5942   458.1    4.862      35.834
2015    5        8    17   4    4.5942   457.9    4.864      35.812
2015    5        8    17  10    4.5942   457.8    4.865      35.789
2015    5        8    17  16    4.5942   457.6    4.867      35.767
2015    5        8    17  21    4.5943   457.5    4.869      35.745
2015    5        8    17  27    4.5944   457.3    4.870      35.723
2015    5        8    17  32    4.5945   457.2    4.872      35.701
2015    5        8    17  38    4.5946   457.0    4.874      35.679
2015    5        8    17  43    4.5948   456.8    4.876      35.658
2015    5        8    17  49    4.5949   456.7    4.878      35.636
2015    5        8    17  55    4.5951   456.5    4.880      35.615
2015    5        8    18   0    4.5954   456.4    4.882      35.594
2015    5        8    18   6    4.5956   456.2    4.884      35.573
2015    5        8    18  11    4.5959   456.0    4.887      35.552
2015    5        8    18  17    4.5962   455.9    4.889      35.532
2015    5        8    18  23    4.5966   455.7    4.892      35.511
2015    5        8    18  28    4.5969   455.6    4.894      35.491
2015    5        8    18  34    4.5974   455.4    4.897      35.471
2015    5        8    18  39    4.5978   455.2    4.900      35.452
2015    5        8    18  45    4.5983   455.1    4.903      35.432
2015    5        8    18  50    4.5988   454.9    4.906      35.413
2015    5        8    18  56    4.5994   454.7    4.909      35.395
2015    5        8    19   2    4.6000   454.6    4.912      35.376
2015    5        8    19   7    4.6006   454.4    4.916      35.358
2015    5        8    19  13    4.6013   454.3    4.919      35.341
2015    5        8    19  18    4.6020   454.1    4.923      35.324
2015    5        8    19  24    4.6028   453.9    4.927      35.307
2015    5        8    19  29    4.6036   453.8    4.931      35.291
2015    5        8    19  35    4.6045   453.6    4.935      35.275
2015    5        8    19  41    4.6053   453.4    4.939      35.260
2015    5        8    19  46    4.6063   453.3    4.944      35.245
2015    5        8    19  52    4.6072   453.1    4.948      35.230
2015    5        8    19  57    4.6083   452.9    4.953      35.216
2015    5        8    20   3    4.6093   452.8    4.958      35.202
2015    5        8    20   9    4.6104   452.6    4.963      35.189
2015    5        8    20  14    4.6115   452.4    4.968      35.176
2015    5        8    20  20    4.6127   452.3    4.973      35.163
2015    5        8    20  25    4.6139   452.1    4.978      35.151
2015    5        8    20  31    4.6151   452.0    4.983      35.140
2015    5        8    20  36    4.6163   451.8    4.989      35.129
2015    5        8    20  42    4.6176   451.6    4.994      35.118
2015    5        8    20  48    4.6188   451.5    5.000      35.107
2015    5        8    20  53    4.6201   451.3    5.005      35.097
2015    5        8    20  59    4.6215   451.2    5.011      35.087
2015    5        8    21   4    4.6228   451.0    5.016      35.077
2015    5        8    21  10    4.6242   450.8    5.022      35.067
2015    5        8    21  15    4.6256   450.7    5.028      35.057
2015    5        8    21  21    4.6270   450.5    5.033      35.048
2015    5        8    21  27    4.6284   450.3    5.039      35.038
2015    5        8    21  32    4.6299   450.2    5.045      35.029
2015    5        8    21  38    4.6314   450.0    5.051      35.019
2015    5        8    21  43    4.6329   449.9    5.056      35.010
2015    5        8    21  49    4.6345   449.7    5.062      35.001
2015    5        8    21  55    4.6361   449.5    5.068      34.992
2015    5        8    22   0    4.6378   449.4    5.074      34.983
2015    5        8    22   6    4.6395   449.2    5.080      34.974
2015    5        8    22  11    4.6413   449.0    5.086      34.965
2015    5        8    22  17    4.6430   448.9    5.092      34.957
2015    5        8    22  22    4.6449   448.7    5.098      34.949
2015    5        8    22  28    4.6468   448.6    5.104      34.941
2015    5        8    22  34    4.6487   448.4    5.110      34.934
2015    5        8    22  39    4.6507   448.2    5.117      34.927
2015    5        8    22  45    4.6528   448.1    5.123      34.921
2015    5        8    22  50    4.6548   447.9    5.129      34.915
2015    5        8    22  56    4.6570   447.8    5.135      34.910
2015    5        8    23   2    4.6592   447.6    5.141      34.904
2015    5        8    23   7    4.6614   447.5    5.148      34.900
2015    5        8    23  13    4.6636   447.3    5.154      34.896
2015    5        8    23  18    4.6659   447.1    5.160      34.892
2015    5        8    23  24    4.6683   447.0    5.166      34.889
2015    5        8    23  29    4.6707   446.8    5.173      34.886
2015    5        8    23  35    4.6731   446.7    5.179      34.884
2015    5        8    23  41    4.6756   446.5    5.185      34.882
2015    5        8    23  46    4.6781   446.4    5.191      34.880
2015    5        8    23  52    4.6806   446.2    5.198      34.879
2015    5        8    23  57    4.6832   446.1    5.204      34.878
2015    5        9     0   3    4.6859   445.9    5.210      34.878
2015    5        9     0   8    4.6885   445.8    5.217      34.878
2015    5        9     0  14    4.6913   445.6    5.223      34.878
2015    5        9     0  20    4.6940   445.5    5.229      34.878
2015    5        9     0  25    4.6968   445.3    5.236      34.879
2015    5        9     0  31    4.6996   445.2    5.242      34.879
2015    5        9     0  36    4.7025   445.1    5.249      34.880
2015    5        9     0  42    4.7054   444.9    5.255      34.882
2015    5        9     0  48    4.7083   444.8    5.262      34.883
2015    5        9     0  53    4.7113   444.6    5.269      34.885
2015    5        9     0  59    4.7143   444.5    5.275      34.888
2015    5        9     1   4    4.7173   444.3    5.282      34.890
2015    5        9     1  10    4.7204   444.2    5.289      34.893
2015    5        9     1  15    4.7235   444.0    5.296      34.896
2015    5        9     1  21    4.7267   443.9    5.302      34.899
2015    5        9     1  27    4.7298   443.8    5.309      34.902
2015    5        9     1  32    4.7330   443.6    5.316      34.906
2015    5        9     1  38    4.7362   443.5    5.324      34.910
2015    5        9     1  43    4.7395   443.4    5.331      34.915
2015    5        9     1  49    4.7428   443.2    5.338      34.919
2015    5        9     1  54    4.7462   443.1    5.346      34.925
2015    5        9     2   0    4.7496   442.9    5.353      34.930
2015    5        9     2   6    4.7530   442.8    5.361      34.936
2015    5        9     2  11    4.7565   442.7    5.368      34.942
2015    5        9     2  17    4.7600   442.6    5.376      34.949
2015    5        9     2  22    4.7635   442.4    5.384      34.956
2015    5        9     2  28    4.7671   442.3    5.393      34.964
2015    5        9     2  34    4.7708   442.2    5.401      34.972
2015    5        9     2  39    4.7745   442.1    5.409      34.980
2015    5        9     2  45    4.7782   441.9    5.418      34.989
2015    5        9     2  50    4.7821   441.8    5.427      34.999
2015    5        9     2  56    4.7859   441.7    5.436      35.008
2015    5        9     3   1    4.7898   441.6    5.445      35.019
2015    5        9     3   7    4.7937   441.5    5.454      35.030
2015    5        9     3  13    4.7977   441.4    5.464      35.041
2015    5        9     3  18    4.8018   441.2    5.474      35.052
2015    5        9     3  24    4.8059   441.1    5.484      35.064
2015    5        9     3  29    4.8100   441.0    5.494      35.077
2015    5        9     3  35    4.8143   440.9    5.504      35.090
2015    5        9     3  41    4.8185   440.8    5.515      35.103
2015    5        9     3  46    4.8229   440.7    5.525      35.117
2015    5        9     3  52    4.8273   440.6    5.536      35.132
2015    5        9     3  57    4.8318   440.5    5.548      35.147
2015    5        9     4   3    4.8362   440.4    5.559      35.163
2015    5        9     4   8    4.8408   440.3    5.571      35.180
2015    5        9     4  14    4.8454   440.2    5.582      35.198
2015    5        9     4  20    4.8501   440.1    5.594      35.217
2015    5        9     4  25    4.8548   440.0    5.606      35.237
2015    5        9     4  31    4.8596   439.9    5.618      35.259
2015    5        9     4  36    4.8644   439.8    5.630      35.282
2015    5        9     4  42    4.8693   439.7    5.642      35.306
2015    5        9     4  47    4.8742   439.6    5.655      35.330
2015    5        9     4  53    4.8792   439.5    5.667      35.355
2015    5        9     4  59    4.8842   439.4    5.680      35.380
2015    5        9     5   4    4.8894   439.4    5.692      35.406
2015    5        9     5  10    4.8945   439.3    5.704      35.432
2015    5        9     5  15    4.8998   439.2    5.717      35.460
2015    5        9     5  21    4.9051   439.1    5.729      35.488
2015    5        9     5  27    4.9104   439.0    5.741      35.517
2015    5        9     5  32    4.9158   439.0    5.753      35.547
2015    5        9     5  38    4.9213   438.9    5.765      35.579
2015    5        9     5  43    4.9267   438.8    5.777      35.611
2015    5        9     5  49    4.9322   438.8    5.789      35.644
2015    5        9     5  54    4.9377   438.7    5.801      35.678
2015    5        9     6   0    4.9433   438.7    5.812      35.712
2015    5        9     6   6    4.9488   438.6    5.823      35.747
2015    5        9     6  11    4.9543   438.6    5.834      35.782
2015    5        9     6  17    4.9599   438.5    5.845      35.816
2015    5        9     6  22    4.9655   438.4    5.856      35.851
2015    5        9     6  28    4.9710   438.4    5.867      35.885
2015    5        9     6  34    4.9766   438.4    5.877      35.920
2015    5        9     6  39    4.9822   438.3    5.888      35.954
2015    5        9     6  45    4.9878   438.3    5.898      35.988
2015    5        9     6  50    4.9933   438.2    5.908      36.022
2015    5        9     6  56    4.9989   438.2    5.918      36.056
2015    5        9     7   1    5.0045   438.1    5.928      36.090
2015    5        9     7   7    5.0101   438.1    5.938      36.123
2015    5        9     7  13    5.0157   438.0    5.947      36.156
2015    5        9     7  18    5.0214   438.0    5.957      36.189
2015    5        9     7  24    5.0270   438.0    5.966      36.221
2015    5        9     7  29    5.0326   437.9    5.976      36.253
2015    5        9     7  35    5.0383   437.9    5.985      36.285
2015    5        9     7  40    5.0439   437.8    5.994      36.316
2015    5        9     7  46    5.0496   437.8    6.003      36.347
2015    5        9     7  52    5.0553   437.8    6.012      36.378
2015    5        9     7  57    5.0610   437.7    6.021      36.409
2015    5        9     8   3    5.0667   437.7    6.030      36.439
2015    5        9     8   8    5.0724   437.7    6.039      36.469
2015    5        9     8  14    5.0781   437.6    6.047      36.498
2015    5        9     8  20    5.0838   437.6    6.056      36.528
2015    5        9     8  25    5.0896   437.5    6.065      36.557
2015    5        9     8  31    5.0953   437.5    6.074      36.586
2015    5        9     8  36    5.1011   437.5    6.082      36.614
2015    5        9     8  42    5.1069   437.4    6.091      36.643
2015    5        9     8  47    5.1127   437.4    6.099      36.671
2015    5        9     8  53    5.1185   437.4    6.108      36.699
2015    5        9     8  59    5.1243   437.3    6.117      36.727
2015    5        9     9   4    5.1302   437.3    6.125      36.755
2015    5        9     9  10    5.1361   437.3    6.134      36.783
2015    5        9     9  15    5.1420   437.2    6.143      36.810
2015    5        9     9  21    5.1480   437.2    6.151      36.838
2015    5        9     9  26    5.1539   437.2    6.160      36.866
2015    5        9     9  32    5.1600   437.1    6.169      36.894
2015    5        9     9  38    5.1660   437.1    6.178      36.922
2015    5        9     9  43    5.1721   437.1    6.187      36.950
2015    5        9     9  49    5.1783   437.1    6.196      36.978
2015    5        9     9  54    5.1845   437.0    6.206      37.007
2015    5        9    10   0    5.1908   437.0    6.215      37.036
2015    5        9    10   6    5.1971   437.0    6.225      37.066
2015    5        9    10  11    5.2035   437.0    6.235      37.096
2015    5        9    10  17    5.2100   436.9    6.245      37.126
2015    5        9    10  22    5.2165   436.9    6.256      37.157
2015    5        9    10  28    5.2231   436.9    6.266      37.189
2015    5        9    10  33    5.2298   436.9    6.278      37.222
2015    5        9    10  39    5.2367   436.8    6.289      37.255
2015    5        9    10  45    5.2436   436.8    6.301      37.288
2015    5        9    10  50    5.2507   436.8    6.313      37.323
2015    5        9    10  56    5.2579   436.8    6.326      37.360
2015    5        9    11   1    5.2652   436.8    6.339      37.399
2015    5        9    11   7    5.2726   436.8    6.353      37.439
2015    5        9    11  13    5.2801   436.7    6.367      37.481
2015    5        9    11  18    5.2876   436.8    6.381      37.525
2015    5        9    11  24    5.2953   436.8    6.396      37.572
2015    5        9    11  29    5.3030   436.8    6.410      37.620
2015    5        9    11  35    5.3109   436.8    6.425      37.669
2015    5        9    11  40    5.3188   436.8    6.441      37.719
2015    5        9    11  46    5.3269   436.8    6.456      37.769
2015    5        9    11  52    5.3350   436.8    6.472      37.821
2015    5        9    11  57    5.3432   436.8    6.488      37.875
2015    5        9    12   3    5.3514   436.8    6.504      37.932
2015    5        9    12   8    5.3598   436.9    6.520      37.992
2015    5        9    12  14    5.3681   436.9    6.536      38.054
2015    5        9    12  20    5.3765   436.9    6.551      38.118
2015    5        9    12  25    5.3849   437.0    6.567      38.185
2015    5        9    12  31    5.3933   437.0    6.582      38.254
2015    5        9    12  36    5.4017   437.1    6.597      38.324
2015    5        9    12  42    5.4100   437.2    6.611      38.394
2015    5        9    12  47    5.4183   437.2    6.625      38.464
2015    5        9    12  53    5.4266   437.3    6.639      38.534
2015    5        9    12  59    5.4348   437.4    6.652      38.604
2015    5        9    13   4    5.4430   437.5    6.665      38.673
2015    5        9    13  10    5.4511   437.5    6.677      38.743
2015    5        9    13  15    5.4592   437.6    6.689      38.813
2015    5        9    13  21    5.4672   437.7    6.700      38.882
2015    5        9    13  26    5.4752   437.8    6.712      38.951
2015    5        9    13  32    5.4832   437.8    6.723      39.020
2015    5        9    13  38    5.4912   437.9    6.733      39.088
2015    5        9    13  43    5.4991   438.0    6.744      39.156
2015    5        9    13  49    5.5071   438.1    6.754      39.223
2015    5        9    13  54    5.5152   438.2    6.764      39.291
2015    5        9    14   0    5.5232   438.3    6.775      39.358
2015    5        9    14   6    5.5313   438.4    6.785      39.426
2015    5        9    14  11    5.5395   438.5    6.794      39.494
2015    5        9    14  17    5.5478   438.6    6.804      39.562
2015    5        9    14  22    5.5562   438.7    6.814      39.631
2015    5        9    14  28    5.5647   438.8    6.824      39.701
2015    5        9    14  33    5.5733   438.9    6.835      39.771
2015    5        9    14  39    5.5821   439.0    6.845      39.843
2015    5        9    14  45    5.5911   439.1    6.856      39.917
2015    5        9    14  50    5.6003   439.2    6.866      39.992
2015    5        9    14  56    5.6097   439.3    6.878      40.069
2015    5        9    15   1    5.6194   439.4    6.889      40.148
2015    5        9    15   7    5.6294   439.6    6.901      40.230
2015    5        9    15  12    5.6396   439.7    6.914      40.315
2015    5        9    15  18    5.6503   439.8    6.927      40.403
2015    5        9    15  24    5.6613   440.0    6.940      40.497
2015    5        9    15  29    5.6727   440.1    6.955      40.595
2015    5        9    15  35    5.6846   440.3    6.970      40.698
2015    5        9    15  40    5.6970   440.5    6.986      40.808
2015    5        9    15  46    5.7099   440.7    7.004      40.925
2015    5        9    15  52    5.7234   440.9    7.022      41.050
2015    5        9    15  57    5.7375   441.1    7.042      41.184
2015    5        9    16   3    5.7523   441.3    7.064      41.328
2015    5        9    16   8    5.7678   441.5    7.087      41.483
2015    5        9    16  14    5.7839   441.8    7.112      41.651
2015    5        9    16  19    5.8009   442.1    7.139      41.832
2015    5        9    16  25    5.8186   442.4    7.168      42.028
2015    5        9    16  31    5.8373   442.7    7.200      42.240
2015    5        9    16  36    5.8569   443.0    7.234      42.471
2015    5        9    16  42    5.8776   443.4    7.271      42.721
2015    5        9    16  47    5.8992   443.8    7.311      42.993
2015    5        9    16  53    5.9224   444.2    7.355      43.287
2015    5        9    16  59    5.9470   444.7    7.402      43.605
2015    5        9    17   4    5.9731   445.2    7.453      43.949
2015    5        9    17  10    6.0003   445.7    7.508      44.319
2015    5        9    17  15    6.0288   446.2    7.567      44.717
2015    5        9    17  21    6.0580   446.8    7.631      45.142
2015    5        9    17  26    6.0879   447.4    7.700      45.597
2015    5        9    17  32    6.1177   448.1    7.774      46.084
2015    5        9    17  38    6.1478   448.8    7.853      46.603
2015    5        9    17  43    6.1778   449.5    7.939      47.149
2015    5        9    17  49    6.2079   450.3    8.032      47.723
2015    5        9    17  54    6.2377   451.1    8.131      48.335
2015    5        9    18   0    6.2674   451.9    8.236      48.989
2015    5        9    18   5    6.2966   452.8    8.347      49.680
2015    5        9    18  11    6.3258   453.7    8.462      50.414
2015    5        9    18  17    6.3545   454.6    8.581      51.187
2015    5        9    18  22    6.3831   455.6    8.702      51.990
2015    5        9    18  28    6.4115   456.6    8.825      52.806
2015    5        9    18  33    6.4401   457.5    8.949      53.624
2015    5        9    18  39    6.4689   458.5    9.074      54.439
2015    5        9    18  45    6.4984   459.4    9.200      55.238
2015    5        9    18  50    6.5287   460.3    9.326      56.020
2015    5        9    18  56    6.5606   461.1    9.453      56.786
2015    5        9    19   1    6.5931   462.0    9.581      57.535
2015    5        9    19   7    6.6266   462.9    9.710      58.268
2015    5        9    19  12    6.6596   463.7    9.841      58.986
2015    5        9    19  18    6.6925   464.5    9.974      59.686
2015    5        9    19  24    6.7237   465.3   10.109      60.370
2015    5        9    19  29    6.7533   466.1   10.248      61.042
2015    5        9    19  35    6.7801   466.8   10.388      61.709
2015    5        9    19  40    6.8046   467.5   10.534      62.363
2015    5        9    19  46    6.8259   468.2   10.686      62.995
2015    5        9    19  52    6.8446   468.9   10.843      63.610
2015    5        9    19  57    6.8597   469.7   11.004      64.237
2015    5        9    20   3    6.8715   470.4   11.166      64.904
2015    5        9    20   8    6.8794   471.1   11.329      65.597
2015    5        9    20  14    6.8841   471.9   11.490      66.311
2015    5        9    20  19    6.8853   472.7   11.645      67.049
2015    5        9    20  25    6.8834   473.5   11.792      67.805
2015    5        9    20  31    6.8783   474.2   11.932      68.558
2015    5        9    20  36    6.8705   474.9   12.064      69.277
2015    5        9    20  42    6.8604   475.6   12.187      69.959
2015    5        9    20  47    6.8484   476.2   12.301      70.603
2015    5        9    20  53    6.8346   476.8   12.407      71.215
2015    5        9    20  58    6.8194   477.4   12.503      71.795
2015    5        9    21   4    6.8033   477.9   12.590      72.344
2015    5        9    21  10    6.7863   478.4   12.668      72.856
2015    5        9    21  15    6.7684   478.9   12.738      73.331
2015    5        9    21  21    6.7496   479.4   12.800      73.770
2015    5        9    21  26    6.7297   479.8   12.854      74.177
2015    5        9    21  32    6.7089   480.2   12.901      74.552
2015    5        9    21  38    6.6871   480.6   12.941      74.897
2015    5        9    21  43    6.6642   480.9   12.974      75.213
2015    5        9    21  49    6.6402   481.3   13.000      75.502
2015    5        9    21  54    6.6151   481.6   13.020      75.766
2015    5        9    22   0    6.5888   481.9   13.035      76.005
2015    5        9    22   5    6.5614   482.2   13.044      76.222
2015    5        9    22  11    6.5331   482.5   13.048      76.419
2015    5        9    22  17    6.5040   482.8   13.047      76.596
2015    5        9    22  22    6.4743   483.0   13.042      76.755
2015    5        9    22  28    6.4443   483.3   13.033      76.897
2015    5        9    22  33    6.4140   483.5   13.020      77.022
2015    5        9    22  39    6.3835   483.7   13.004      77.132
2015    5        9    22  45    6.3532   483.9   12.984      77.229
2015    5        9    22  50    6.3231   484.1   12.962      77.312
2015    5        9    22  56    6.2935   484.3   12.937      77.385
2015    5        9    23   1    6.2645   484.5   12.909      77.446
2015    5        9    23   7    6.2365   484.7   12.879      77.498
2015    5        9    23  12    6.2095   484.8   12.847      77.540
2015    5        9    23  18    6.1840   485.0   12.813      77.573
2015    5        9    23  24    6.1596   485.1   12.778      77.598
2015    5        9    23  29    6.1368   485.2   12.740      77.614
2015    5        9    23  35    6.1150   485.3   12.701      77.622
2015    5        9    23  40    6.0948   485.4   12.661      77.621
2015    5        9    23  46    6.0757   485.4   12.618      77.614
2015    5        9    23  51    6.0583   485.5   12.574      77.599
2015    5        9    23  57    6.0418   485.6   12.528      77.577
2015    5       10     0   3    6.0270   485.6   12.481      77.549
2015    5       10     0   8    6.0130   485.7   12.432      77.513
2015    5       10     0  14    6.0006   485.7   12.381      77.472
2015    5       10     0  19    5.9889   485.7   12.328      77.425
2015    5       10     0  25    5.9788   485.8   12.274      77.373
2015    5       10     0  31    5.9693   485.8   12.218      77.316
2015    5       10     0  36    5.9612   485.9   12.160      77.255
2015    5       10     0  42    5.9539   485.9   12.101      77.191
2015    5       10     0  47    5.9480   486.0   12.040      77.124
2015    5       10     0  53    5.9429   486.0   11.977      77.055
2015    5       10     0  58    5.9395   486.1   11.913      76.985
2015    5       10     1   4    5.9369   486.1   11.848      76.915
2015    5       10     1  10    5.9359   486.2   11.781      76.846
2015    5       10     1  15    5.9359   486.3   11.713      76.778
2015    5       10     1  21    5.9375   486.4   11.643      76.714
2015    5       10     1  26    5.9401   486.5   11.573      76.653
2015    5       10     1  32    5.9444   486.6   11.502      76.593
2015    5       10     1  37    5.9495   486.7   11.429      76.535
2015    5       10     1  43    5.9562   486.8   11.355      76.478
2015    5       10     1  49    5.9637   486.9   11.279      76.421
2015    5       10     1  54    5.9727   487.0   11.201      76.363
2015    5       10     2   0    5.9822   487.1   11.121      76.302
2015    5       10     2   5    5.9930   487.3   11.039      76.237
2015    5       10     2  11    6.0042   487.4   10.955      76.169
2015    5       10     2  17    6.0166   487.5   10.869      76.097
2015    5       10     2  22    6.0294   487.6   10.780      76.019
2015    5       10     2  28    6.0433   487.7   10.689      75.936
2015    5       10     2  33    6.0574   487.8   10.596      75.848
2015    5       10     2  39    6.0724   487.9   10.501      75.754
2015    5       10     2  44    6.0876   488.0   10.403      75.654
2015    5       10     2  50    6.1036   488.1   10.304      75.548
2015    5       10     2  56    6.1198   488.2   10.203      75.439
2015    5       10     3   1    6.1368   488.3   10.101      75.325
2015    5       10     3   7    6.1540   488.3    9.997      75.206
2015    5       10     3  12    6.1721   488.4    9.891      75.081
2015    5       10     3  18    6.1906   488.5    9.785      74.951
2015    5       10     3  24    6.2101   488.6    9.678      74.818
2015    5       10     3  29    6.2300   488.7    9.572      74.683
2015    5       10     3  35    6.2508   488.8    9.467      74.543
2015    5       10     3  40    6.2720   488.9    9.363      74.403
2015    5       10     3  46    6.2939   489.1    9.260      74.264
2015    5       10     3  51    6.3161   489.2    9.160      74.125
2015    5       10     3  57    6.3388   489.4    9.061      73.987
2015    5       10     4   3    6.3617   489.6    8.965      73.849
2015    5       10     4   8    6.3849   489.7    8.870      73.711
2015    5       10     4  14    6.4082   489.9    8.778      73.571
2015    5       10     4  19    6.4319   490.2    8.687      73.431
2015    5       10     4  25    6.4556   490.4    8.598      73.291
2015    5       10     4  30    6.4794   490.6    8.511      73.149
2015    5       10     4  36    6.5031   490.8    8.426      73.007
2015    5       10     4  42    6.5266   491.1    8.342      72.863
2015    5       10     4  47    6.5497   491.4    8.260      72.717
2015    5       10     4  53    6.5725   491.6    8.180      72.570
2015    5       10     4  58    6.5946   491.9    8.101      72.421
2015    5       10     5   4    6.6163   492.2    8.024      72.270
2015    5       10     5  10    6.6374   492.5    7.948      72.117
2015    5       10     5  15    6.6579   492.8    7.873      71.963
2015    5       10     5  21    6.6778   493.1    7.800      71.806
2015    5       10     5  26    6.6970   493.4    7.728      71.647
2015    5       10     5  32    6.7156   493.8    7.658      71.487
2015    5       10     5  37    6.7334   494.1    7.588      71.325
2015    5       10     5  43    6.7505   494.5    7.520      71.162
2015    5       10     5  49    6.7669   494.8    7.453      70.996
2015    5       10     5  54    6.7825   495.2    7.387      70.830
2015    5       10     6   0    6.7973   495.6    7.322      70.662
2015    5       10     6   5    6.8115   496.0    7.259      70.493
2015    5       10     6  11    6.8248   496.4    7.196      70.322
2015    5       10     6  17    6.8374   496.8    7.134      70.150
2015    5       10     6  22    6.8493   497.2    7.074      69.976
2015    5       10     6  28    6.8605   497.6    7.014      69.801
2015    5       10     6  33    6.8711   498.0    6.956      69.624
2015    5       10     6  39    6.8809   498.4    6.898      69.445
2015    5       10     6  44    6.8900   498.9    6.842      69.265
2015    5       10     6  50    6.8986   499.3    6.786      69.082
2015    5       10     6  56    6.9065   499.8    6.732      68.897
2015    5       10     7   1    6.9139   500.2    6.678      68.710
2015    5       10     7   7    6.9206   500.7    6.626      68.522
2015    5       10     7  12    6.9268   501.1    6.574      68.331
2015    5       10     7  18    6.9324   501.6    6.523      68.138
2015    5       10     7  23    6.9376   502.1    6.473      67.941
2015    5       10     7  29    6.9422   502.6    6.424      67.740
2015    5       10     7  35    6.9464   503.0    6.375      67.534
2015    5       10     7  40    6.9499   503.5    6.328      67.323
2015    5       10     7  46    6.9531   504.0    6.282      67.099
2015    5       10     7  51    6.9557   504.5    6.237      66.864
2015    5       10     7  57    6.9581   504.9    6.193      66.618
2015    5       10     8   3    6.9598   505.4    6.150      66.364
2015    5       10     8   8    6.9612   505.8    6.109      66.104
2015    5       10     8  14    6.9620   506.3    6.069      65.838
2015    5       10     8  19    6.9624   506.8    6.029      65.570
2015    5       10     8  25    6.9620   507.2    5.992      65.305
2015    5       10     8  30    6.9612   507.7    5.955      65.043
2015    5       10     8  36    6.9594   508.2    5.920      64.785
2015    5       10     8  42    6.9571   508.7    5.887      64.534
2015    5       10     8  47    6.9538   509.2    5.855      64.289
2015    5       10     8  53    6.9496   509.7    5.825      64.051
2015    5       10     8  58    6.9441   510.2    5.797      63.822
2015    5       10     9   4    6.9379   510.7    5.771      63.603
2015    5       10     9  10    6.9306   511.2    5.746      63.395
2015    5       10     9  15    6.9229   511.8    5.722      63.197
2015    5       10     9  21    6.9145   512.3    5.701      63.009
2015    5       10     9  26    6.9061   512.7    5.681      62.832
2015    5       10     9  32    6.8974   513.2    5.662      62.668
2015    5       10     9  37    6.8891   513.6    5.646      62.516
2015    5       10     9  43    6.8808   514.0    5.631      62.376
2015    5       10     9  49    6.8730   514.4    5.617      62.246
2015    5       10     9  54    6.8651   514.8    5.605      62.128
2015    5       10    10   0    6.8578   515.2    5.594      62.023
2015    5       10    10   5    6.8505   515.5    5.584      61.928
2015    5       10    10  11    6.8438   515.9    5.575      61.844
2015    5       10    10  16    6.8372   516.3    5.567      61.769
2015    5       10    10  22    6.8311   516.6    5.561      61.703
2015    5       10    10  28    6.8251   516.9    5.556      61.647
2015    5       10    10  33    6.8194   517.3    5.552      61.601
2015    5       10    10  39    6.8137   517.6    5.549      61.562
2015    5       10    10  44    6.8083   518.0    5.547      61.532
2015    5       10    10  50    6.8029   518.4    5.547      61.513
2015    5       10    10  56    6.7977   518.8    5.548      61.501
2015    5       10    11   1    6.7923   519.3    5.552      61.498
2015    5       10    11   7    6.7870   519.8    5.556      61.503
2015    5       10    11  12    6.7815   520.3    5.562      61.515
2015    5       10    11  18    6.7761   520.9    5.568      61.532
2015    5       10    11  23    6.7703   521.5    5.575      61.550
2015    5       10    11  29    6.7644   522.2    5.581      61.568
2015    5       10    11  35    6.7582   522.8    5.587      61.587
2015    5       10    11  40    6.7518   523.5    5.592      61.601
2015    5       10    11  46    6.7447   524.2    5.596      61.611
2015    5       10    11  51    6.7374   524.9    5.600      61.618
2015    5       10    11  57    6.7293   525.5    5.602      61.620
2015    5       10    12   3    6.7208   526.2    5.603      61.619
2015    5       10    12   8    6.7115   526.9    5.604      61.614
2015    5       10    12  14    6.7017   527.5    5.603      61.608
2015    5       10    12  19    6.6912   528.2    5.602      61.600
2015    5       10    12  25    6.6801   528.8    5.601      61.591
2015    5       10    12  30    6.6684   529.5    5.598      61.583
2015    5       10    12  36    6.6565   530.1    5.596      61.575
2015    5       10    12  42    6.6441   530.7    5.593      61.568
2015    5       10    12  47    6.6314   531.4    5.590      61.563
2015    5       10    12  53    6.6185   532.0    5.587      61.559
2015    5       10    12  58    6.6055   532.6    5.583      61.557
2015    5       10    13   4    6.5924   533.2    5.580      61.557
2015    5       10    13   9    6.5791   533.8    5.576      61.560
2015    5       10    13  15    6.5658   534.4    5.572      61.566
2015    5       10    13  21    6.5526   535.0    5.568      61.576
2015    5       10    13  26    6.5393   535.6    5.564      61.589
2015    5       10    13  32    6.5262   536.2    5.560      61.607
2015    5       10    13  37    6.5132   536.8    5.555      61.629
2015    5       10    13  43    6.5004   537.4    5.551      61.655
2015    5       10    13  49    6.4878   537.9    5.547      61.685
2015    5       10    13  54    6.4754   538.5    5.543      61.719
2015    5       10    14   0    6.4632   539.1    5.538      61.759
2015    5       10    14   5    6.4512   539.6    5.534      61.804
2015    5       10    14  11    6.4395   540.2    5.530      61.853
2015    5       10    14  16    6.4280   540.8    5.525      61.907
2015    5       10    14  22    6.4166   541.3    5.520      61.963
2015    5       10    14  28    6.4056   541.9    5.515      62.023
2015    5       10    14  33    6.3948   542.4    5.510      62.086
2015    5       10    14  39    6.3842   542.9    5.505      62.151
2015    5       10    14  44    6.3739   543.4    5.499      62.216
2015    5       10    14  50    6.3638   544.0    5.493      62.283
2015    5       10    14  55    6.3539   544.5    5.488      62.352
2015    5       10    15   1    6.3443   545.0    5.482      62.422
2015    5       10    15   7    6.3350   545.5    5.476      62.493
2015    5       10    15  12    6.3259   546.0    5.469      62.565
2015    5       10    15  18    6.3170   546.5    5.463      62.637
2015    5       10    15  23    6.3084   546.9    5.457      62.711
2015    5       10    15  29    6.3001   547.4    5.450      62.785
2015    5       10    15  35    6.2921   547.9    5.444      62.861
2015    5       10    15  40    6.2844   548.3    5.438      62.937
2015    5       10    15  46    6.2769   548.8    5.431      63.014
2015    5       10    15  51    6.2697   549.2    5.425      63.093
2015    5       10    15  57    6.2629   549.7    5.419      63.173
2015    5       10    16   2    6.2564   550.1    5.413      63.255
2015    5       10    16   8    6.2502   550.5    5.408      63.338
2015    5       10    16  14    6.2443   551.0    5.402      63.423
2015    5       10    16  19    6.2388   551.4    5.397      63.510
2015    5       10    16  25    6.2337   551.8    5.392      63.599
2015    5       10    16  30    6.2290   552.2    5.387      63.690
2015    5       10    16  36    6.2246   552.6    5.383      63.782
2015    5       10    16  42    6.2206   553.0    5.379      63.876
2015    5       10    16  47    6.2169   553.4    5.376      63.970
2015    5       10    16  53    6.2136   553.8    5.372      64.065
2015    5       10    16  58    6.2106   554.2    5.370      64.160
2015    5       10    17   4    6.2079   554.6    5.368      64.256
2015    5       10    17   9    6.2057   555.0    5.366      64.353
2015    5       10    17  15    6.2036   555.3    5.365      64.451
2015    5       10    17  21    6.2020   555.7    5.365      64.552
2015    5       10    17  26    6.2007   556.0    5.365      64.652
2015    5       10    17  32    6.1998   556.3    5.367      64.754
2015    5       10    17  37    6.1992   556.6    5.369      64.859
2015    5       10    17  43    6.1989   556.9    5.372      64.971
2015    5       10    17  48    6.1989   557.2    5.376      65.088
2015    5       10    17  54    6.1993   557.5    5.380      65.210
2015    5       10    18   0    6.2000   557.8    5.385      65.338
2015    5       10    18   5    6.2011   558.1    5.391      65.471
2015    5       10    18  11    6.2024   558.4    5.397      65.609
2015    5       10    18  16    6.2042   558.7    5.403      65.751
2015    5       10    18  22    6.2062   559.0    5.410      65.894
2015    5       10    18  28    6.2085   559.3    5.417      66.039
2015    5       10    18  33    6.2110   559.6    5.424      66.188
2015    5       10    18  39    6.2138   559.9    5.433      66.335
2015    5       10    18  44    6.2168   560.2    5.441      66.481
2015    5       10    18  50    6.2200   560.5    5.450      66.635
2015    5       10    18  55    6.2234   560.8    5.460      66.796
2015    5       10    19   1    6.2271   561.1    5.469      66.963
2015    5       10    19   7    6.2310   561.4    5.478      67.135
2015    5       10    19  12    6.2353   561.7    5.486      67.310
2015    5       10    19  18    6.2398   562.1    5.494      67.492
2015    5       10    19  23    6.2446   562.5    5.502      67.680
2015    5       10    19  29    6.2495   562.9    5.508      67.865
2015    5       10    19  35    6.2546   563.3    5.514      68.046
2015    5       10    19  40    6.2599   563.7    5.519      68.224
2015    5       10    19  46    6.2653   564.1    5.524      68.399
2015    5       10    19  51    6.2707   564.5    5.527      68.571
2015    5       10    19  57    6.2762   564.9    5.530      68.741
2015    5       10    20   2    6.2817   565.3    5.533      68.909
2015    5       10    20   8    6.2872   565.7    5.534      69.073
2015    5       10    20  14    6.2926   566.2    5.535      69.235
2015    5       10    20  19    6.2980   566.6    5.535      69.394
2015    5       10    20  25    6.3034   567.0    5.535      69.550
2015    5       10    20  30    6.3088   567.5    5.534      69.705
2015    5       10    20  36    6.3142   567.9    5.533      69.857
2015    5       10    20  41    6.3196   568.4    5.531      70.007
2015    5       10    20  47    6.3250   568.8    5.529      70.154
2015    5       10    20  53    6.3303   569.2    5.526      70.300
2015    5       10    20  58    6.3357   569.7    5.523      70.443
2015    5       10    21   4    6.3410   570.1    5.520      70.584
2015    5       10    21   9    6.3463   570.6    5.516      70.722
2015    5       10    21  15    6.3516   571.0    5.512      70.857
2015    5       10    21  21    6.3569   571.5    5.507      70.990
2015    5       10    21  26    6.3621   571.9    5.502      71.121
2015    5       10    21  32    6.3673   572.4    5.497      71.249
2015    5       10    21  37    6.3725   572.8    5.491      71.374
2015    5       10    21  43    6.3776   573.3    5.485      71.497
2015    5       10    21  48    6.3828   573.7    5.479      71.618
2015    5       10    21  54    6.3879   574.2    5.473      71.736
2015    5       10    22   0    6.3929   574.7    5.466      71.853
2015    5       10    22   5    6.3979   575.1    5.459      71.966
2015    5       10    22  11    6.4029   575.6    5.452      72.078
2015    5       10    22  16    6.4079   576.0    5.445      72.188
2015    5       10    22  22    6.4128   576.5    5.438      72.297
2015    5       10    22  28    6.4176   576.9    5.430      72.403
2015    5       10    22  33    6.4224   577.4    5.422      72.507
2015    5       10    22  39    6.4271   577.8    5.414      72.609
2015    5       10    22  44    6.4318   578.3    5.407      72.710
2015    5       10    22  50    6.4363   578.7    5.398      72.810
2015    5       10    22  55    6.4407   579.2    5.390      72.908
2015    5       10    23   1    6.4451   579.6    5.382      73.004
2015    5       10    23   7    6.4494   580.1    5.373      73.098
2015    5       10    23  12    6.4535   580.6    5.365      73.192
2015    5       10    23  18    6.4576   581.1    5.356      73.286
2015    5       10    23  23    6.4615   581.6    5.346      73.379
2015    5       10    23  29    6.4652   582.1    5.337      73.469
2015    5       10    23  34    6.4689   582.6    5.327      73.558
2015    5       10    23  40    6.4724   583.1    5.317      73.648
2015    5       10    23  46    6.4758   583.6    5.306      73.737
2015    5       10    23  51    6.4791   584.1    5.295      73.824
2015    5       10    23  57    6.4823   584.7    5.284      73.911
2015    5       11     0   2    6.4854   585.2    5.272      74.002
2015    5       11     0   8    6.4883   585.8    5.259      74.084
2015    5       11     0  14    6.4910   586.3    5.247      74.158
2015    5       11     0  19    6.4935   586.8    5.233      74.224
2015    5       11     0  25    6.4959   587.2    5.220      74.285
2015    5       11     0  30    6.4982   587.7    5.207      74.341
2015    5       11     0  36    6.5003   588.1    5.194      74.389
2015    5       11     0  41    6.5024   588.5    5.181      74.433
2015    5       11     0  47    6.5045   588.9    5.169      74.481
2015    5       11     0  53    6.5067   589.3    5.158      74.532
2015    5       11     0  58    6.5089   589.7    5.147      74.586
2015    5       11     1   4    6.5113   590.1    5.136      74.644
2015    5       11     1   9    6.5135   590.5    5.126      74.703
2015    5       11     1  15    6.5159   590.8    5.116      74.763
2015    5       11     1  21    6.5180   591.2    5.106      74.826
2015    5       11     1  26    6.5202   591.6    5.097      74.893
2015    5       11     1  32    6.5222   592.0    5.088      74.960
2015    5       11     1  37    6.5242   592.4    5.079      75.027
2015    5       11     1  43    6.5260   592.8    5.071      75.095
2015    5       11     1  48    6.5279   593.2    5.062      75.164
2015    5       11     1  54    6.5297   593.6    5.053      75.235
2015    5       11     2   0    6.5315   594.0    5.045      75.308
2015    5       11     2   5    6.5330   594.4    5.036      75.386
2015    5       11     2  11    6.5346   594.9    5.027      75.468
2015    5       11     2  16    6.5359   595.3    5.019      75.552
2015    5       11     2  22    6.5371   595.8    5.010      75.636
2015    5       11     2  27    6.5380   596.2    5.001      75.720
2015    5       11     2  33    6.5388   596.7    4.992      75.803
2015    5       11     2  39    6.5394   597.2    4.982      75.883
2015    5       11     2  44    6.5398   597.7    4.973      75.957
2015    5       11     2  50    6.5399   598.1    4.964      76.026
2015    5       11     2  55    6.5399   598.5    4.954      76.092
2015    5       11     3   1    6.5396   599.0    4.944      76.155
2015    5       11     3   7    6.5391   599.4    4.934      76.214
2015    5       11     3  12    6.5384   599.9    4.924      76.271
2015    5       11     3  18    6.5376   600.3    4.913      76.325
2015    5       11     3  23    6.5365   600.7    4.903      76.376
2015    5       11     3  29    6.5354   601.2    4.892      76.425
2015    5       11     3  34    6.5339   601.6    4.881      76.471
2015    5       11     3  40    6.5324   602.0    4.870      76.515
2015    5       11     3  46    6.5306   602.4    4.860      76.555
2015    5       11     3  51    6.5287   602.8    4.849      76.593
2015    5       11     3  57    6.5265   603.2    4.838      76.627
2015    5       11     4   2    6.5243   603.6    4.827      76.659
2015    5       11     4   8    6.5217   604.0    4.817      76.689
2015    5       11     4  14    6.5191   604.3    4.806      76.718
2015    5       11     4  19    6.5161   604.7    4.795      76.746
2015    5       11     4  25    6.5132   605.1    4.784      76.772
2015    5       11     4  30    6.5099   605.6    4.772      76.797
2015    5       11     4  36    6.5065   606.0    4.761      76.823
2015    5       11     4  41    6.5028   606.4    4.749      76.847
2015    5       11     4  47    6.4990   606.9    4.737      76.871
2015    5       11     4  53    6.4948   607.3    4.725      76.893
2015    5       11     4  58    6.4906   607.8    4.713      76.910
2015    5       11     5   4    6.4859   608.3    4.700      76.921
2015    5       11     5   9    6.4810   608.7    4.686      76.926
2015    5       11     5  15    6.4756   609.2    4.673      76.926
2015    5       11     5  20    6.4702   609.7    4.659      76.922
2015    5       11     5  26    6.4643   610.2    4.645      76.912
2015    5       11     5  32    6.4583   610.6    4.631      76.903
2015    5       11     5  37    6.4519   611.2    4.617      76.900
2015    5       11     5  43    6.4456   611.7    4.602      76.902
2015    5       11     5  48    6.4391   612.2    4.587      76.905
2015    5       11     5  54    6.4325   612.8    4.572      76.908
2015    5       11     6   0    6.4255   613.4    4.556      76.915
2015    5       11     6   5    6.4184   614.1    4.539      76.928
2015    5       11     6  11    6.4108   614.7    4.521      76.924
2015    5       11     6  16    6.4028   615.3    4.502      76.901
2015    5       11     6  22    6.3943   615.9    4.482      76.864
2015    5       11     6  27    6.3856   616.4    4.463      76.816
2015    5       11     6  33    6.3764   617.0    4.443      76.758
2015    5       11     6  39    6.3672   617.4    4.423      76.686
2015    5       11     6  44    6.3577   617.9    4.404      76.603
2015    5       11     6  50    6.3484   618.3    4.386      76.526
2015    5       11     6  55    6.3390   618.7    4.369      76.455
2015    5       11     7   1    6.3299   619.1    4.352      76.389
2015    5       11     7   7    6.3207   619.5    4.335      76.326
2015    5       11     7  12    6.3117   619.9    4.320      76.265
2015    5       11     7  18    6.3028   620.3    4.304      76.205
2015    5       11     7  23    6.2939   620.6    4.290      76.147
2015    5       11     7  29    6.2851   620.9    4.276      76.091
2015    5       11     7  34    6.2764   621.3    4.262      76.039
2015    5       11     7  40    6.2678   621.6    4.249      75.989
2015    5       11     7  46    6.2592   621.9    4.237      75.941
2015    5       11     7  51    6.2506   622.2    4.225      75.894
2015    5       11     7  57    6.2422   622.5    4.213      75.850
2015    5       11     8   2    6.2337   622.8    4.202      75.806
2015    5       11     8   8    6.2253   623.1    4.191      75.764
2015    5       11     8  13    6.2169   623.4    4.180      75.723
2015    5       11     8  19    6.2086   623.6    4.170      75.684
2015    5       11     8  25    6.2002   623.9    4.160      75.645
2015    5       11     8  30    6.1919   624.2    4.150      75.608
2015    5       11     8  36    6.1836   624.4    4.141      75.573
2015    5       11     8  41    6.1753   624.7    4.131      75.539
2015    5       11     8  47    6.1669   625.0    4.122      75.506
2015    5       11     8  53    6.1585   625.3    4.112      75.474
2015    5       11     8  58    6.1500   625.6    4.103      75.442
2015    5       11     9   4    6.1415   625.9    4.093      75.410
2015    5       11     9   9    6.1329   626.2    4.083      75.379
2015    5       11     9  15    6.1242   626.5    4.074      75.345
2015    5       11     9  20    6.1154   626.8    4.064      75.309
2015    5       11     9  26    6.1065   627.1    4.054      75.269
2015    5       11     9  32    6.0975   627.3    4.044      75.225
2015    5       11     9  37    6.0883   627.6    4.034      75.177
2015    5       11     9  43    6.0791   627.8    4.025      75.127
2015    5       11     9  48    6.0697   628.1    4.015      75.076
2015    5       11     9  54    6.0602   628.3    4.006      75.024
2015    5       11    10   0    6.0507   628.5    3.996      74.973
2015    5       11    10   5    6.0412   628.7    3.987      74.922
2015    5       11    10  11    6.0317   628.9    3.979      74.871
2015    5       11    10  16    6.0223   629.1    3.970      74.820
2015    5       11    10  22    6.0129   629.3    3.962      74.771
2015    5       11    10  27    6.0036   629.4    3.954      74.724
2015    5       11    10  33    5.9943   629.6    3.947      74.678
2015    5       11    10  39    5.9850   629.8    3.939      74.638
2015    5       11    10  44    5.9758   630.0    3.931      74.603
2015    5       11    10  50    5.9665   630.2    3.924      74.571
2015    5       11    10  55    5.9573   630.5    3.916      74.542
2015    5       11    11   1    5.9482   630.7    3.909      74.512
2015    5       11    11   6    5.9390   631.0    3.902      74.480
2015    5       11    11  12    5.9298   631.2    3.894      74.444
2015    5       11    11  18    5.9206   631.5    3.887      74.404
2015    5       11    11  23    5.9113   631.7    3.879      74.361
2015    5       11    11  29    5.9019   631.9    3.871      74.317
2015    5       11    11  34    5.8926   632.1    3.863      74.272
2015    5       11    11  40    5.8831   632.4    3.855      74.226
2015    5       11    11  46    5.8736   632.6    3.847      74.179
2015    5       11    11  51    5.8640   632.8    3.839      74.132
2015    5       11    11  57    5.8544   633.1    3.831      74.085
2015    5       11    12   2    5.8448   633.3    3.822      74.035
2015    5       11    12   8    5.8351   633.6    3.814      73.983
2015    5       11    12  13    5.8254   633.8    3.805      73.929
2015    5       11    12  19    5.8158   634.1    3.797      73.873
2015    5       11    12  25    5.8061   634.3    3.788      73.813
2015    5       11    12  30    5.7966   634.6    3.779      73.751
2015    5       11    12  36    5.7871   634.8    3.771      73.687
2015    5       11    12  41    5.7778   635.0    3.762      73.624
2015    5       11    12  47    5.7685   635.1    3.754      73.560
2015    5       11    12  52    5.7594   635.3    3.746      73.497
2015    5       11    12  58    5.7504   635.5    3.738      73.435
2015    5       11    13   4    5.7416   635.6    3.730      73.374
2015    5       11    13   9    5.7328   635.8    3.723      73.314
2015    5       11    13  15    5.7242   635.9    3.715      73.257
2015    5       11    13  20    5.7157   636.1    3.708      73.204
2015    5       11    13  26    5.7073   636.3    3.701      73.156
2015    5       11    13  32    5.6989   636.5    3.694      73.112
2015    5       11    13  37    5.6907   636.7    3.687      73.072
2015    5       11    13  43    5.6824   636.9    3.680      73.034
2015    5       11    13  48    5.6743   637.2    3.673      72.996
2015    5       11    13  54    5.6662   637.4    3.667      72.955
2015    5       11    13  59    5.6581   637.6    3.660      72.911
2015    5       11    14   5    5.6499   637.8    3.653      72.866
2015    5       11    14  11    5.6418   637.9    3.646      72.821
2015    5       11    14  16    5.6337   638.1    3.639      72.775
2015    5       11    14  22    5.6256   638.3    3.632      72.728
2015    5       11    14  27    5.6175   638.5    3.625      72.681
2015    5       11    14  33    5.6094   638.7    3.618      72.633
2015    5       11    14  39    5.6014   638.9    3.611      72.585
2015    5       11    14  44    5.5935   639.1    3.604      72.535
2015    5       11    14  50    5.5856   639.3    3.597      72.484
2015    5       11    14  55    5.5778   639.4    3.590      72.433
2015    5       11    15   1    5.5700   639.6    3.584      72.382
2015    5       11    15   6    5.5623   639.7    3.577      72.332
2015    5       11    15  12    5.5546   639.9    3.571      72.284
2015    5       11    15  18    5.5470   640.1    3.565      72.236
2015    5       11    15  23    5.5394   640.2    3.558      72.191
2015    5       11    15  29    5.5318   640.4    3.552      72.148
2015    5       11    15  34    5.5242   640.6    3.546      72.107
2015    5       11    15  40    5.5167   640.7    3.541      72.069
2015    5       11    15  45    5.5092   640.9    3.535      72.031
2015    5       11    15  51    5.5018   641.1    3.529      71.994
2015    5       11    15  57    5.4943   641.3    3.523      71.956
2015    5       11    16   2    5.4868   641.4    3.518      71.916
2015    5       11    16   8    5.4793   641.6    3.512      71.877
2015    5       11    16  13    5.4717   641.7    3.506      71.837
2015    5       11    16  19    5.4641   641.9    3.501      71.796
2015    5       11    16  25    5.4566   642.0    3.495      71.754
2015    5       11    16  30    5.4490   642.2    3.490      71.712
2015    5       11    16  36    5.4414   642.3    3.484      71.670
2015    5       11    16  41    5.4339   642.5    3.478      71.626
2015    5       11    16  47    5.4264   642.6    3.473      71.582
2015    5       11    16  52    5.4189   642.8    3.467      71.537
2015    5       11    16  58    5.4115   642.9    3.461      71.491
2015    5       11    17   4    5.4041   643.0    3.456      71.444
2015    5       11    17   9    5.3968   643.2    3.450      71.397
2015    5       11    17  15    5.3895   643.3    3.444      71.351
2015    5       11    17  20    5.3822   643.4    3.439      71.303
2015    5       11    17  26    5.3751   643.5    3.433      71.256
2015    5       11    17  32    5.3680   643.7    3.428      71.209
2015    5       11    17  37    5.3609   643.8    3.422      71.162
2015    5       11    17  43    5.3539   643.9    3.417      71.116
2015    5       11    17  48    5.3469   644.0    3.412      71.070
2015    5       11    17  54    5.3400   644.1    3.406      71.024
2015    5       11    17  59    5.3332   644.2    3.401      70.978
2015    5       11    18   5    5.3263   644.3    3.396      70.933
2015    5       11    18  11    5.3195   644.4    3.391      70.888
2015    5       11    18  16    5.3128   644.5    3.386      70.844
2015    5       11    18  22    5.3061   644.6    3.381      70.800
2015    5       11    18  27    5.2995   644.7    3.376      70.756
2015    5       11    18  33    5.2928   644.8    3.371      70.713
2015    5       11    18  38    5.2862   644.9    3.366      70.670
2015    5       11    18  44    5.2797   645.0    3.361      70.628
2015    5       11    18  50    5.2731   645.1    3.356      70.586
2015    5       11    18  55    5.2666   645.2    3.352      70.544
2015    5       11    19   1    5.2602   645.3    3.347      70.502
2015    5       11    19   6    5.2537   645.4    3.342      70.461
2015    5       11    19  12    5.2473   645.5    3.337      70.419
2015    5       11    19  18    5.2409   645.6    3.333      70.378
2015    5       11    19  23    5.2346   645.7    3.328      70.337
2015    5       11    19  29    5.2282   645.8    3.323      70.295
2015    5       11    19  34    5.2219   645.9    3.319      70.253
2015    5       11    19  40    5.2156   646.0    3.314      70.212
2015    5       11    19  45    5.2094   646.1    3.310      70.170
2015    5       11    19  51    5.2031   646.2    3.305      70.128
2015    5       11    19  57    5.1969   646.2    3.300      70.086
2015    5       11    20   2    5.1906   646.3    3.296      70.043
2015    5       11    20   8    5.1845   646.4    3.291      70.001
2015    5       11    20  13    5.1783   646.5    3.287      69.958
2015    5       11    20  19    5.1721   646.6    3.282      69.916
2015    5       11    20  25    5.1660   646.7    3.278      69.873
2015    5       11    20  30    5.1599   646.8    3.273      69.830
2015    5       11    20  36    5.1538   646.8    3.269      69.787
2015    5       11    20  41    5.1477   646.9    3.264      69.743
2015    5       11    20  47    5.1417   647.0    3.260      69.700
2015    5       11    20  52    5.1357   647.1    3.256      69.656
2015    5       11    20  58    5.1296   647.1    3.251      69.612
2015    5       11    21   4    5.1237   647.2    3.247      69.569
2015    5       11    21   9    5.1178   647.3    3.243      69.525
2015    5       11    21  15    5.1119   647.4    3.238      69.481
2015    5       11    21  20    5.1060   647.4    3.234      69.437
2015    5       11    21  26    5.1002   647.5    3.230      69.394
2015    5       11    21  31    5.0944   647.6    3.226      69.350
2015    5       11    21  37    5.0886   647.6    3.222      69.306
2015    5       11    21  43    5.0829   647.7    3.218      69.263
2015    5       11    21  48    5.0772   647.7    3.213      69.219
2015    5       11    21  54    5.0715   647.8    3.209      69.176
2015    5       11    21  59    5.0658   647.9    3.206      69.133
2015    5       11    22   5    5.0602   647.9    3.202      69.090
2015    5       11    22  11    5.0546   648.0    3.198      69.048
2015    5       11    22  16    5.0491   648.0    3.194      69.006
2015    5       11    22  22    5.0435   648.1    3.190      68.964
2015    5       11    22  27    5.0380   648.1    3.187      68.923
2015    5       11    22  33    5.0325   648.2    3.183      68.882
2015    5       11    22  38    5.0271   648.2    3.179      68.842
2015    5       11    22  44    5.0216   648.3    3.176      68.802
2015    5       11    22  50    5.0162   648.3    3.172      68.762
2015    5       11    22  55    5.0108   648.4    3.169      68.723
2015    5       11    23   1    5.0054   648.4    3.165      68.684
2015    5       11    23   6    5.0000   648.5    3.162      68.645
2015    5       11    23  12    4.9947   648.5    3.159      68.607
2015    5       11    23  18    4.9894   648.5    3.155      68.569
2015    5       11    23  23    4.9841   648.6    3.152      68.531
2015    5       11    23  29    4.9789   648.6    3.149      68.493
2015    5       11    23  34    4.9736   648.7    3.146      68.456
2015    5       11    23  40    4.9684   648.7    3.142      68.419
2015    5       11    23  45    4.9632   648.7    3.139      68.382
2015    5       11    23  51    4.9580   648.8    3.136      68.345
2015    5       11    23  57    4.9529   648.8    3.133      68.308
2015    5       12     0   2    4.9478   648.8    3.130      68.272
2015    5       12     0   8    4.9426   648.9    3.127      68.235
2015    5       12     0  13    4.9376   648.9    3.124      68.199
2015    5       12     0  19    4.9325   648.9    3.121      68.162
2015    5       12     0  24    4.9275   649.0    3.118      68.126
2015    5       12     0  30    4.9224   649.0    3.115      68.090
2015    5       12     0  36    4.9174   649.0    3.112      68.054
2015    5       12     0  41    4.9125   649.1    3.109      68.018
2015    5       12     0  47    4.9075   649.1    3.106      67.983
2015    5       12     0  52    4.9026   649.1    3.103      67.947
2015    5       12     0  58    4.8977   649.1    3.100      67.911
2015    5       12     1   4    4.8928   649.2    3.098      67.876
2015    5       12     1   9    4.8880   649.2    3.095      67.841
2015    5       12     1  15    4.8831   649.2    3.092      67.805
2015    5       12     1  20    4.8783   649.2    3.089      67.770
2015    5       12     1  26    4.8735   649.2    3.086      67.736
2015    5       12     1  31    4.8687   649.2    3.084      67.701
2015    5       12     1  37    4.8639   649.3    3.081      67.667
2015    5       12     1  43    4.8592   649.3    3.078      67.632
2015    5       12     1  48    4.8544   649.3    3.076      67.598
2015    5       12     1  54    4.8498   649.3    3.073      67.564
2015    5       12     1  59    4.8451   649.3    3.070      67.531
2015    5       12     2   5    4.8404   649.3    3.068      67.497
2015    5       12     2  10    4.8357   649.3    3.065      67.463
2015    5       12     2  16    4.8311   649.3    3.063      67.430
2015    5       12     2  22    4.8265   649.4    3.060      67.397
2015    5       12     2  27    4.8219   649.4    3.058      67.363
2015    5       12     2  33    4.8173   649.4    3.055      67.330
2015    5       12     2  38    4.8128   649.4    3.052      67.297
2015    5       12     2  44    4.8082   649.4    3.050      67.264
2015    5       12     2  50    4.8037   649.4    3.047      67.231
2015    5       12     2  55    4.7992   649.4    3.045      67.197
2015    5       12     3   1    4.7947   649.4    3.043      67.164
2015    5       12     3   6    4.7902   649.4    3.040      67.130
2015    5       12     3  12    4.7858   649.4    3.038      67.097
2015    5       12     3  17    4.7813   649.4    3.035      67.063
2015    5       12     3  23    4.7769   649.4    3.033      67.029
2015    5       12     3  29    4.7725   649.4    3.030      66.994
2015    5       12     3  34    4.7681   649.4    3.028      66.960
2015    5       12     3  40    4.7637   649.4    3.025      66.924
2015    5       12     3  45    4.7593   649.4    3.023      66.889
2015    5       12     3  51    4.7549   649.4    3.021      66.853
2015    5       12     3  57    4.7506   649.3    3.018      66.817
2015    5       12     4   2    4.7462   649.3    3.016      66.781
2015    5       12     4   8    4.7419   649.3    3.013      66.744
2015    5       12     4  13    4.7376   649.3    3.011      66.707
2015    5       12     4  19    4.7333   649.3    3.008      66.670
2015    5       12     4  24    4.7290   649.3    3.006      66.632
2015    5       12     4  30    4.7248   649.3    3.004      66.594
2015    5       12     4  36    4.7205   649.3    3.001      66.555
2015    5       12     4  41    4.7163   649.2    2.999      66.516
2015    5       12     4  47    4.7121   649.2    2.996      66.477
2015    5       12     4  52    4.7079   649.2    2.994      66.438
2015    5       12     4  58    4.7037   649.2    2.991      66.398
2015    5       12     5   3    4.6996   649.2    2.989      66.358
2015    5       12     5   9    4.6954   649.1    2.987      66.318
2015    5       12     5  15    4.6913   649.1    2.984      66.278
2015    5       12     5  20    4.6872   649.1    2.982      66.237
2015    5       12     5  26    4.6831   649.1    2.979      66.197
2015    5       12     5  31    4.6790   649.1    2.977      66.156
2015    5       12     5  37    4.6750   649.0    2.974      66.116
2015    5       12     5  43    4.6710   649.0    2.972      66.075
2015    5       12     5  48    4.6669   649.0    2.970      66.035
2015    5       12     5  54    4.6630   649.0    2.967      65.994
2015    5       12     5  59    4.6590   648.9    2.965      65.954
2015    5       12     6   5    4.6550   648.9    2.962      65.913
2015    5       12     6  10    4.6511   648.9    2.960      65.873
2015    5       12     6  16    4.6471   648.9    2.958      65.833
2015    5       12     6  22    4.6432   648.8    2.955      65.793
2015    5       12     6  27    4.6393   648.8    2.953      65.753
2015    5       12     6  33    4.6354   648.8    2.951      65.713
2015    5       12     6  38    4.6316   648.7    2.948      65.674
2015    5       12     6  44    4.6277   648.7    2.946      65.634
2015    5       12     6  50    4.6239   648.7    2.944      65.595
2015    5       12     6  55    4.6200   648.7    2.941      65.556
2015    5       12     7   1    4.6162   648.6    2.939      65.518
2015    5       12     7   6    4.6124   648.6    2.937      65.479
2015    5       12     7  12    4.6086   648.6    2.935      65.441
2015    5       12     7  17    4.6048   648.5    2.932      65.404
2015    5       12     7  23    4.6011   648.5    2.930      65.366
2015    5       12     7  29    4.5973   648.5    2.928      65.329
2015    5       12     7  34    4.5936   648.4    2.926      65.292
2015    5       12     7  40    4.5898   648.4    2.924      65.255
2015    5       12     7  45    4.5861   648.3    2.922      65.219
2015    5       12     7  51    4.5824   648.3    2.920      65.183
2015    5       12     7  56    4.5787   648.3    2.918      65.148
2015    5       12     8   2    4.5751   648.2    2.916      65.112
2015    5       12     8   8    4.5714   648.2    2.914      65.077
2015    5       12     8  13    4.5677   648.2    2.912      65.043
2015    5       12     8  19    4.5641   648.1    2.910      65.009
2015    5       12     8  24    4.5605   648.1    2.908      64.975
2015    5       12     8  30    4.5568   648.0    2.906      64.941
2015    5       12     8  36    4.5533   648.0    2.904      64.908
2015    5       12     8  41    4.5497   648.0    2.903      64.875
2015    5       12     8  47    4.5461   647.9    2.901      64.843
2015    5       12     8  52    4.5425   647.9    2.899      64.810
2015    5       12     8  58    4.5390   647.8    2.898      64.778
2015    5       12     9   3    4.5354   647.8    2.896      64.747
2015    5       12     9   9    4.5319   647.7    2.895      64.715
2015    5       12     9  15    4.5283   647.7    2.893      64.684
2015    5       12     9  20    4.5248   647.6    2.892      64.653
2015    5       12     9  26    4.5213   647.6    2.890      64.623
2015    5       12     9  31    4.5178   647.5    2.889      64.592
2015    5       12     9  37    4.5142   647.5    2.888      64.562
2015    5       12     9  43    4.5107   647.4    2.886      64.532
2015    5       12     9  48    4.5072   647.4    2.885      64.502
2015    5       12     9  54    4.5037   647.3    2.884      64.472
2015    5       12     9  59    4.5002   647.3    2.882      64.442
2015    5       12    10   5    4.4967   647.2    2.881      64.412
2015    5       12    10  10    4.4931   647.2    2.880      64.382
2015    5       12    10  16    4.4896   647.1    2.879      64.352
2015    5       12    10  22    4.4861   647.1    2.878      64.321
2015    5       12    10  27    4.4826   647.0    2.877      64.291
2015    5       12    10  33    4.4791   647.0    2.875      64.260
2015    5       12    10  38    4.4756   646.9    2.874      64.230
2015    5       12    10  44    4.4721   646.8    2.873      64.198
2015    5       12    10  49    4.4686   646.8    2.872      64.167
2015    5       12    10  55    4.4651   646.7    2.871      64.135
2015    5       12    11   1    4.4616   646.7    2.869      64.103
2015    5       12    11   6    4.4581   646.6    2.868      64.070
2015    5       12    11  12    4.4546   646.5    2.867      64.037
2015    5       12    11  17    4.4511   646.5    2.866      64.003
2015    5       12    11  23    4.4476   646.4    2.864      63.969
2015    5       12    11  29    4.4441   646.3    2.863      63.934
2015    5       12    11  34    4.4407   646.3    2.862      63.899
2015    5       12    11  40    4.4372   646.2    2.860      63.864
2015    5       12    11  45    4.4338   646.1    2.859      63.828
2015    5       12    11  51    4.4304   646.0    2.857      63.791
2015    5       12    11  56    4.4269   646.0    2.856      63.754
2015    5       12    12   2    4.4235   645.9    2.855      63.717
2015    5       12    12   8    4.4202   645.8    2.853      63.679
2015    5       12    12  13    4.4168   645.7    2.852      63.641
2015    5       12    12  19    4.4134   645.7    2.850      63.603
2015    5       12    12  24    4.4101   645.6    2.849      63.564
2015    5       12    12  30    4.4068   645.5    2.847      63.525
2015    5       12    12  36    4.4035   645.4    2.846      63.485
2015    5       12    12  41    4.4002   645.3    2.844      63.446
2015    5       12    12  47    4.3969   645.3    2.843      63.406
2015    5       12    12  52    4.3936   645.2    2.841      63.366
2015    5       12    12  58    4.3903   645.1    2.840      63.325
2015    5       12    13   3    4.3871   645.0    2.838      63.285
2015    5       12    13   9    4.3839   644.9    2.836      63.245
2015    5       12    13  15    4.3807   644.8    2.835      63.205
2015    5       12    13  20    4.3774   644.8    2.833      63.164
2015    5       12    13  26    4.3743   644.7    2.832      63.124
2015    5       12    13  31    4.3711   644.6    2.830      63.084
2015    5       12    13  37    4.3679   644.5    2.829      63.044
2015    5       12    13  42    4.3647   644.4    2.827      63.003
2015    5       12    13  48    4.3616   644.3    2.826      62.963
2015    5       12    13  54    4.3584   644.2    2.824      62.922
2015    5       12    13  59    4.3552   644.2    2.823      62.882
2015    5       12    14   5    4.3521   644.1    2.821      62.841
2015    5       12    14  10    4.3489   644.0    2.820      62.800
2015    5       12    14  16    4.3457   643.9    2.818      62.760
2015    5       12    14  22    4.3426   643.8    2.817      62.719
2015    5       12    14  27    4.3394   643.7    2.815      62.678
2015    5       12    14  33    4.3363   643.6    2.814      62.637
2015    5       12    14  38    4.3331   643.5    2.812      62.596
2015    5       12    14  44    4.3300   643.4    2.811      62.555
2015    5       12    14  49    4.3269   643.3    2.809      62.514
2015    5       12    14  55    4.3237   643.2    2.808      62.472
2015    5       12    15   1    4.3206   643.1    2.806      62.431
2015    5       12    15   6    4.3175   643.0    2.805      62.390
2015    5       12    15  12    4.3144   642.9    2.804      62.349
2015    5       12    15  17    4.3113   642.8    2.802      62.308
2015    5       12    15  23    4.3082   642.7    2.801      62.267
2015    5       12    15  29    4.3051   642.6    2.799      62.227
2015    5       12    15  34    4.3020   642.5    2.798      62.187
2015    5       12    15  40    4.2990   642.4    2.797      62.148
2015    5       12    15  45    4.2959   642.3    2.796      62.109
2015    5       12    15  51    4.2929   642.2    2.795      62.070
2015    5       12    15  56    4.2899   642.1    2.794      62.032
2015    5       12    16   2    4.2869   642.0    2.793      61.995
2015    5       12    16   8    4.2839   641.9    2.792      61.959
2015    5       12    16  13    4.2808   641.8    2.791      61.923
2015    5       12    16  19    4.2778   641.7    2.790      61.888
2015    5       12    16  24    4.2748   641.7    2.789      61.853
2015    5       12    16  30    4.2718   641.6    2.788      61.820
2015    5       12    16  35    4.2688   641.5    2.787      61.788
2015    5       12    16  41    4.2657   641.4    2.787      61.756
2015    5       12    16  47    4.2627   641.3    2.786      61.725
2015    5       12    16  52    4.2596   641.2    2.785      61.696
2015    5       12    16  58    4.2566   641.1    2.785      61.666
2015    5       12    17   3    4.2535   641.0    2.784      61.636
2015    5       12    17   9    4.2505   640.9    2.783      61.606
2015    5       12    17  15    4.2474   640.8    2.782      61.577
2015    5       12    17  20    4.2443   640.7    2.781      61.546
2015    5       12    17  26    4.2412   640.6    2.781      61.516
2015    5       12    17  31    4.2381   640.5    2.780      61.485
2015    5       12    17  37    4.2350   640.4    2.779      61.453
2015    5       12    17  42    4.2319   640.3    2.778      61.421
2015    5       12    17  48    4.2288   640.2    2.777      61.389
2015    5       12    17  54    4.2256   640.1    2.776      61.356
2015    5       12    17  59    4.2225   640.0    2.776      61.323
2015    5       12    18   5    4.2194   639.9    2.775      61.289
2015    5       12    18  10    4.2163   639.8    2.774      61.254
2015    5       12    18  16    4.2131   639.7    2.773      61.219
2015    5       12    18  22    4.2100   639.6    2.772      61.183
2015    5       12    18  27    4.2069   639.5    2.771      61.146
2015    5       12    18  33    4.2038   639.4    2.770      61.108
2015    5       12    18  38    4.2007   639.3    2.768      61.071
2015    5       12    18  44    4.1975   639.1    2.767      61.032
2015    5       12    18  49    4.1944   639.0    2.766      60.992
2015    5       12    18  55    4.1913   638.9    2.765      60.953
2015    5       12    19   1    4.1882   638.8    2.764      60.912
2015    5       12    19   6    4.1852   638.7    2.762      60.871
2015    5       12    19  12    4.1821   638.6    2.761      60.829
2015    5       12    19  17    4.1790   638.5    2.760      60.787
2015    5       12    19  23    4.1759   638.3    2.758      60.743
2015    5       12    19  28    4.1729   638.2    2.757      60.700
2015    5       12    19  34    4.1698   638.1    2.756      60.655
2015    5       12    19  40    4.1668   638.0    2.754      60.610
2015    5       12    19  45    4.1637   637.9    2.753      60.564
2015    5       12    19  51    4.1607   637.7    2.751      60.517
2015    5       12    19  56    4.1576   637.6    2.750      60.470
2015    5       12    20   2    4.1546   637.5    2.748      60.422
2015    5       12    20   8    4.1516   637.4    2.747      60.374
2015    5       12    20  13    4.1485   637.2    2.745      60.324
2015    5       12    20  19    4.1455   637.1    2.744      60.275
2015    5       12    20  24    4.1425   637.0    2.743      60.224
2015    5       12    20  30    4.1395   636.8    2.741      60.173
2015    5       12    20  35    4.1365   636.7    2.740      60.122
2015    5       12    20  41    4.1335   636.5    2.738      60.071
2015    5       12    20  47    4.1305   636.4    2.737      60.019
2015    5       12    20  52    4.1275   636.3    2.736      59.967
2015    5       12    20  58    4.1245   636.1    2.735      59.915
2015    5       12    21   3    4.1216   636.0    2.733      59.863
2015    5       12    21   9    4.1186   635.8    2.732      59.811
2015    5       12    21  15    4.1157   635.7    2.731      59.760
2015    5       12    21  20    4.1127   635.5    2.730      59.708
2015    5       12    21  26    4.1098   635.4    2.729      59.657
2015    5       12    21  31    4.1069   635.2    2.729      59.606
2015    5       12    21  37    4.1040   635.1    2.728      59.556
2015    5       12    21  42    4.1011   634.9    2.727      59.506
2015    5       12    21  48    4.0983   634.8    2.727      59.457
2015    5       12    21  54    4.0954   634.6    2.726      59.408
2015    5       12    21  59    4.0926   634.5    2.726      59.360
2015    5       12    22   5    4.0897   634.3    2.725      59.313
2015    5       12    22  10    4.0869   634.2    2.725      59.267
2015    5       12    22  16    4.0841   634.0    2.724      59.222
2015    5       12    22  21    4.0812   633.9    2.724      59.177
2015    5       12    22  27    4.0784   633.7    2.724      59.133
2015    5       12    22  33    4.0756   633.6    2.724      59.090
2015    5       12    22  38    4.0727   633.4    2.724      59.048
2015    5       12    22  44    4.0699   633.2    2.724      59.007
2015    5       12    22  49    4.0671   633.1    2.724      58.966
2015    5       12    22  55    4.0643   632.9    2.724      58.927
2015    5       12    23   1    4.0614   632.8    2.724      58.888
2015    5       12    23   6    4.0586   632.6    2.724      58.851
2015    5       12    23  12    4.0558   632.4    2.724      58.814
2015    5       12    23  17    4.0529   632.3    2.724      58.777
2015    5       12    23  23    4.0500   632.1    2.724      58.741
2015    5       12    23  28    4.0472   632.0    2.723      58.706
2015    5       12    23  34    4.0443   631.8    2.723      58.671
2015    5       12    23  40    4.0414   631.7    2.723      58.637
2015    5       12    23  45    4.0386   631.5    2.723      58.603
2015    5       12    23  51    4.0357   631.4    2.723      58.569
2015    5       12    23  56    4.0328   631.2    2.723      58.534
2015    5       13     0   2    4.0299   631.0    2.722      58.499
2015    5       13     0   7    4.0270   630.9    2.722      58.463
2015    5       13     0  13    4.0242   630.7    2.722      58.426
2015    5       13     0  19    4.0213   630.6    2.721      58.389
2015    5       13     0  24    4.0184   630.4    2.721      58.351
2015    5       13     0  30    4.0156   630.3    2.720      58.312
2015    5       13     0  35    4.0127   630.1    2.719      58.272
2015    5       13     0  41    4.0099   629.9    2.719      58.231
2015    5       13     0  47    4.0070   629.8    2.718      58.190
2015    5       13     0  52    4.0042   629.6    2.717      58.148
2015    5       13     0  58    4.0014   629.5    2.716      58.105
2015    5       13     1   3    3.9985   629.3    2.716      58.061
2015    5       13     1   9    3.9957   629.1    2.715      58.017
2015    5       13     1  14    3.9929   629.0    2.714      57.972
2015    5       13     1  20    3.9901   628.8    2.713      57.927
2015    5       13     1  26    3.9873   628.7    2.712      57.881
2015    5       13     1  31    3.9845   628.5    2.711      57.834
2015    5       13     1  37    3.9817   628.3    2.710      57.787
2015    5       13     1  42    3.9788   628.2    2.709      57.740
2015    5       13     1  48    3.9760   628.0    2.708      57.691
2015    5       13     1  54    3.9732   627.9    2.707      57.643
2015    5       13     1  59    3.9704   627.7    2.706      57.593
2015    5       13     2   5    3.9676   627.5    2.705      57.544
2015    5       13     2  10    3.9647   627.4    2.704      57.493
2015    5       13     2  16    3.9619   627.2    2.702      57.443
2015    5       13     2  21    3.9591   627.0    2.701      57.392
2015    5       13     2  27    3.9562   626.9    2.700      57.340
2015    5       13     2  33    3.9534   626.7    2.699      57.288
2015    5       13     2  38    3.9506   626.5    2.698      57.235
2015    5       13     2  44    3.9477   626.4    2.696      57.182
2015    5       13     2  49    3.9449   626.2    2.695      57.129
2015    5       13     2  55    3.9420   626.0    2.694      57.075
2015    5       13     3   0    3.9391   625.9    2.692      57.021
2015    5       13     3   6    3.9363   625.7    2.691      56.966
2015    5       13     3  12    3.9334   625.5    2.690      56.911
2015    5       13     3  17    3.9305   625.3    2.689      56.856
2015    5       13     3  23    3.9277   625.2    2.687      56.800
2015    5       13     3  28    3.9248   625.0    2.686      56.745
2015    5       13     3  34    3.9219   624.8    2.685      56.689
2015    5       13     3  40    3.9191   624.6    2.684      56.633
2015    5       13     3  45    3.9162   624.5    2.683      56.578
2015    5       13     3  51    3.9133   624.3    2.681      56.522
2015    5       13     3  56    3.9105   624.1    2.680      56.467
2015    5       13     4   2    3.9076   623.9    2.679      56.412
2015    5       13     4   7    3.9048   623.7    2.679      56.358
2015    5       13     4  13    3.9020   623.5    2.678      56.304
2015    5       13     4  19    3.8992   623.3    2.677      56.251
2015    5       13     4  24    3.8963   623.2    2.676      56.198
2015    5       13     4  30    3.8935   623.0    2.676      56.146
2015    5       13     4  35    3.8907   622.8    2.675      56.095
2015    5       13     4  41    3.8879   622.6    2.675      56.044
2015    5       13     4  47    3.8851   622.4    2.674      55.994
2015    5       13     4  52    3.8822   622.2    2.674      55.944
2015    5       13     4  58    3.8794   622.0    2.673      55.894
2015    5       13     5   3    3.8766   621.8    2.673      55.846
2015    5       13     5   9    3.8737   621.7    2.673      55.797
2015    5       13     5  14    3.8709   621.5    2.673      55.748
2015    5       13     5  20    3.8680   621.3    2.672      55.699
2015    5       13     5  26    3.8651   621.1    2.672      55.650
2015    5       13     5  31    3.8622   620.9    2.672      55.601
2015    5       13     5  37    3.8593   620.7    2.671      55.551
2015    5       13     5  42    3.8564   620.5    2.671      55.501
2015    5       13     5  48    3.8535   620.3    2.671      55.450
2015    5       13     5  53    3.8506   620.1    2.671      55.399
2015    5       13     5  59    3.8477   619.9    2.670      55.348
2015    5       13     6   5    3.8447   619.6    2.670      55.297
2015    5       13     6  10    3.8418   619.4    2.669      55.245
2015    5       13     6  16    3.8388   619.2    2.669      55.193
2015    5       13     6  21    3.8359   619.0    2.668      55.141
2015    5       13     6  27    3.8330   618.8    2.668      55.089
2015    5       13     6  33    3.8301   618.6    2.667      55.036
2015    5       13     6  38    3.8272   618.3    2.667      54.983
2015    5       13     6  44    3.8243   618.1    2.666      54.930
2015    5       13     6  49    3.8215   617.9    2.666      54.876
2015    5       13     6  55    3.8186   617.7    2.665      54.822
2015    5       13     7   0    3.8158   617.4    2.665      54.768
2015    5       13     7   6    3.8130   617.2    2.665      54.714
2015    5       13     7  12    3.8102   617.0    2.664      54.659
2015    5       13     7  17    3.8075   616.8    2.664      54.605
2015    5       13     7  23    3.8047   616.5    2.663      54.551
2015    5       13     7  28    3.8020   616.3    2.663      54.496
2015    5       13     7  34    3.7993   616.1    2.663      54.442
2015    5       13     7  40    3.7967   615.9    2.662      54.388
2015    5       13     7  45    3.7940   615.6    2.662      54.335
2015    5       13     7  51    3.7914   615.4    2.662      54.281
2015    5       13     7  56    3.7888   615.2    2.662      54.228
2015    5       13     8   2    3.7862   614.9    2.662      54.174
2015    5       13     8   7    3.7836   614.7    2.661      54.121
2015    5       13     8  13    3.7811   614.5    2.661      54.069
2015    5       13     8  19    3.7785   614.3    2.661      54.016
2015    5       13     8  24    3.7759   614.0    2.661      53.964
2015    5       13     8  30    3.7734   613.8    2.661      53.911
2015    5       13     8  35    3.7708   613.6    2.661      53.859
2015    5       13     8  41    3.7683   613.4    2.661      53.807
2015    5       13     8  46    3.7657   613.1    2.661      53.756
2015    5       13     8  52    3.7631   612.9    2.661      53.704
2015    5       13     8  58    3.7605   612.7    2.661      53.652
2015    5       13     9   3    3.7579   612.5    2.661      53.600
2015    5       13     9   9    3.7553   612.2    2.661      53.548
2015    5       13     9  14    3.7526   612.0    2.661      53.496
2015    5       13     9  20    3.7500   611.8    2.661      53.444
2015    5       13     9  26    3.7473   611.6    2.661      53.391
2015    5       13     9  31    3.7447   611.3    2.661      53.338
2015    5       13     9  37    3.7420   611.1    2.661      53.286
2015    5       13     9  42    3.7393   610.9    2.661      53.233
2015    5       13     9  48    3.7367   610.6    2.661      53.180
2015    5       13     9  53    3.7340   610.4    2.660      53.126
2015    5       13     9  59    3.7313   610.2    2.660      53.073
2015    5       13    10   5    3.7286   610.0    2.660      53.019
2015    5       13    10  10    3.7259   609.7    2.659      52.965
2015    5       13    10  16    3.7232   609.5    2.659      52.910
2015    5       13    10  21    3.7205   609.3    2.659      52.856
2015    5       13    10  27    3.7178   609.1    2.658      52.801
2015    5       13    10  33    3.7151   608.8    2.658      52.746
2015    5       13    10  38    3.7123   608.6    2.657      52.691
2015    5       13    10  44    3.7096   608.4    2.657      52.636
2015    5       13    10  49    3.7069   608.1    2.657      52.581
2015    5       13    10  55    3.7041   607.9    2.656      52.525
2015    5       13    11   0    3.7014   607.7    2.656      52.470
2015    5       13    11   6    3.6986   607.5    2.655      52.414
2015    5       13    11  12    3.6959   607.2    2.655      52.358
2015    5       13    11  17    3.6931   607.0    2.654      52.302
2015    5       13    11  23    3.6903   606.8    2.654      52.245
2015    5       13    11  28    3.6875   606.5    2.653      52.189
2015    5       13    11  34    3.6848   606.3    2.653      52.132
2015    5       13    11  39    3.6820   606.1    2.652      52.075
2015    5       13    11  45    3.6792   605.8    2.651      52.017
2015    5       13    11  51    3.6764   605.6    2.651      51.959
2015    5       13    11  56    3.6736   605.3    2.650      51.901
2015    5       13    12   2    3.6708   605.1    2.650      51.841
2015    5       13    12   7    3.6680   604.9    2.649      51.781
2015    5       13    12  13    3.6651   604.6    2.648      51.720
2015    5       13    12  19    3.6623   604.4    2.647      51.658
2015    5       13    12  24    3.6595   604.1    2.647      51.596
2015    5       13    12  30    3.6567   603.9    2.646      51.533
2015    5       13    12  35    3.6539   603.6    2.645      51.470
2015    5       13    12  41    3.6511   603.4    2.644      51.406
2015    5       13    12  46    3.6482   603.1    2.643      51.342
2015    5       13    12  52    3.6454   602.9    2.642      51.277
2015    5       13    12  58    3.6426   602.6    2.641      51.211
2015    5       13    13   3    3.6399   602.3    2.640      51.146
2015    5       13    13   9    3.6370   602.1    2.639      51.079
2015    5       13    13  14    3.6343   601.8    2.639      51.013
2015    5       13    13  20    3.6315   601.5    2.638      50.946
2015    5       13    13  26    3.6287   601.3    2.637      50.878
2015    5       13    13  31    3.6259   601.0    2.636      50.810
2015    5       13    13  37    3.6232   600.7    2.635      50.742
2015    5       13    13  42    3.6204   600.5    2.634      50.673
2015    5       13    13  48    3.6177   600.2    2.633      50.605
2015    5       13    13  53    3.6149   599.9    2.632      50.536
2015    5       13    13  59    3.6122   599.7    2.631      50.467
2015    5       13    14   5    3.6095   599.4    2.630      50.398
2015    5       13    14  10    3.6068   599.1    2.629      50.329
2015    5       13    14  16    3.6041   598.8    2.628      50.260
2015    5       13    14  21    3.6015   598.5    2.627      50.192
2015    5       13    14  27    3.5988   598.3    2.626      50.123
2015    5       13    14  32    3.5962   598.0    2.625      50.055
2015    5       13    14  38    3.5936   597.7    2.625      49.988
2015    5       13    14  44    3.5909   597.4    2.624      49.921
2015    5       13    14  49    3.5883   597.1    2.623      49.854
2015    5       13    14  55    3.5858   596.9    2.623      49.788
2015    5       13    15   0    3.5832   596.6    2.622      49.722
2015    5       13    15   6    3.5806   596.3    2.622      49.657
2015    5       13    15  12    3.5781   596.0    2.621      49.593
2015    5       13    15  17    3.5756   595.7    2.621      49.529
2015    5       13    15  23    3.5730   595.5    2.621      49.466
2015    5       13    15  28    3.5705   595.2    2.620      49.403
2015    5       13    15  34    3.5680   594.9    2.620      49.341
2015    5       13    15  39    3.5655   594.6    2.620      49.280
2015    5       13    15  45    3.5630   594.3    2.620      49.219
2015    5       13    15  51    3.5605   594.1    2.620      49.159
2015    5       13    15  56    3.5580   593.8    2.620      49.100
2015    5       13    16   2    3.5555   593.5    2.620      49.041
2015    5       13    16   7    3.5530   593.2    2.621      48.983
2015    5       13    16  13    3.5504   592.9    2.621      48.925
2015    5       13    16  19    3.5479   592.6    2.621      48.867
2015    5       13    16  24    3.5453   592.4    2.621      48.810
2015    5       13    16  30    3.5428   592.1    2.622      48.753
2015    5       13    16  35    3.5402   591.8    2.622      48.697
2015    5       13    16  41    3.5377   591.5    2.622      48.640
2015    5       13    16  46    3.5351   591.2    2.623      48.584
2015    5       13    16  52    3.5325   590.9    2.623      48.528
2015    5       13    16  58    3.5299   590.7    2.623      48.472
2015    5       13    17   3    3.5273   590.4    2.624      48.416
2015    5       13    17   9    3.5247   590.1    2.624      48.360
2015    5       13    17  14    3.5221   589.8    2.625      48.304
2015    5       13    17  20    3.5195   589.5    2.625      48.248
2015    5       13    17  25    3.5169   589.2    2.626      48.193
2015    5       13    17  31    3.5143   588.9    2.626      48.138
2015    5       13    17  37    3.5117   588.6    2.627      48.083
2015    5       13    17  42    3.5091   588.3    2.627      48.028
2015    5       13    17  48    3.5065   588.0    2.628      47.974
2015    5       13    17  53    3.5039   587.7    2.628      47.920
2015    5       13    17  59    3.5014   587.4    2.629      47.865
2015    5       13    18   5    3.4988   587.1    2.630      47.811
2015    5       13    18  10    3.4962   586.8    2.630      47.757
2015    5       13    18  16    3.4937   586.5    2.631      47.703
2015    5       13    18  21    3.4911   586.2    2.631      47.650
2015    5       13    18  27    3.4886   585.9    2.632      47.596
2015    5       13    18  32    3.4860   585.6    2.633      47.542
2015    5       13    18  38    3.4835   585.3    2.633      47.489
2015    5       13    18  44    3.4810   585.0    2.634      47.435
2015    5       13    18  49    3.4785   584.7    2.635      47.382
2015    5       13    18  55    3.4760   584.4    2.635      47.329
2015    5       13    19   0    3.4735   584.1    2.636      47.276
2015    5       13    19   6    3.4710   583.8    2.637      47.222
2015    5       13    19  11    3.4685   583.5    2.638      47.169
2015    5       13    19  17    3.4660   583.2    2.638      47.116
2015    5       13    19  23    3.4635   582.9    2.639      47.062
2015    5       13    19  28    3.4610   582.6    2.640      47.008
2015    5       13    19  34    3.4585   582.3    2.640      46.953
2015    5       13    19  39    3.4560   582.0    2.641      46.898
2015    5       13    19  45    3.4535   581.7    2.641      46.843
2015    5       13    19  51    3.4510   581.4    2.642      46.787
2015    5       13    19  56    3.4485   581.1    2.642      46.730
2015    5       13    20   2    3.4459   580.8    2.643      46.673
2015    5       13    20   7    3.4434   580.6    2.643      46.616
2015    5       13    20  13    3.4409   580.3    2.643      46.558
2015    5       13    20  18    3.4383   580.0    2.643      46.499
2015    5       13    20  24    3.4358   579.7    2.644      46.440
2015    5       13    20  30    3.4333   579.4    2.644      46.381
2015    5       13    20  35    3.4307   579.1    2.644      46.321
2015    5       13    20  41    3.4282   578.8    2.644      46.261
2015    5       13    20  46    3.4256   578.5    2.644      46.200
2015    5       13    20  52    3.4231   578.2    2.644      46.139
2015    5       13    20  58    3.4205   577.9    2.644      46.077
2015    5       13    21   3    3.4180   577.6    2.643      46.015
2015    5       13    21   9    3.4154   577.3    2.643      45.952
2015    5       13    21  14    3.4129   577.0    2.643      45.889
2015    5       13    21  20    3.4103   576.7    2.643      45.825
2015    5       13    21  25    3.4078   576.4    2.642      45.761
2015    5       13    21  31    3.4052   576.1    2.642      45.697
2015    5       13    21  37    3.4027   575.8    2.642      45.632
2015    5       13    21  42    3.4001   575.5    2.641      45.567
2015    5       13    21  48    3.3976   575.2    2.641      45.502
2015    5       13    21  53    3.3950   574.9    2.641      45.436
2015    5       13    21  59    3.3925   574.6    2.640      45.370
2015    5       13    22   5    3.3899   574.3    2.640      45.304
2015    5       13    22  10    3.3874   574.0    2.639      45.237
2015    5       13    22  16    3.3848   573.7    2.639      45.171
2015    5       13    22  21    3.3823   573.4    2.638      45.104
2015    5       13    22  27    3.3798   573.1    2.638      45.037
2015    5       13    22  32    3.3772   572.8    2.637      44.969
2015    5       13    22  38    3.3747   572.5    2.637      44.902
2015    5       13    22  44    3.3722   572.2    2.636      44.834
2015    5       13    22  49    3.3696   571.8    2.636      44.767
2015    5       13    22  55    3.3671   571.5    2.635      44.699
2015    5       13    23   0    3.3646   571.2    2.635      44.632
2015    5       13    23   6    3.3621   570.9    2.634      44.564
2015    5       13    23  11    3.3596   570.6    2.634      44.497
2015    5       13    23  17    3.3571   570.3    2.633      44.429
2015    5       13    23  23    3.3546   570.0    2.633      44.362
2015    5       13    23  28    3.3521   569.6    2.632      44.295
2015    5       13    23  34    3.3496   569.3    2.632      44.228
2015    5       13    23  39    3.3471   569.0    2.632      44.161
2015    5       13    23  45    3.3446   568.7    2.631      44.094
2015    5       13    23  51    3.3422   568.3    2.631      44.028
2015    5       13    23  56    3.3397   568.0    2.631      43.962
2015    5       14     0   2    3.3372   567.7    2.630      43.896
2015    5       14     0   7    3.3348   567.3    2.630      43.830
2015    5       14     0  13    3.3323   567.0    2.630      43.765
2015    5       14     0  18    3.3298   566.7    2.630      43.700
2015    5       14     0  24    3.3274   566.4    2.629      43.635
2015    5       14     0  30    3.3250   566.0    2.629      43.570
2015    5       14     0  35    3.3225   565.7    2.629      43.506
2015    5       14     0  41    3.3201   565.3    2.629      43.442
2015    5       14     0  46    3.3177   565.0    2.629      43.379
2015    5       14     0  52    3.3153   564.7    2.629      43.315
2015    5       14     0  57    3.3129   564.3    2.629      43.252
2015    5       14     1   3    3.3105   564.0    2.629      43.190
2015    5       14     1   9    3.3081   563.6    2.629      43.128
2015    5       14     1  14    3.3058   563.3    2.630      43.067
2015    5       14     1  20    3.3034   562.9    2.630      43.006
2015    5       14     1  25    3.3011   562.6    2.630      42.945
2015    5       14     1  31    3.2988   562.3    2.630      42.885
2015    5       14     1  37    3.2965   561.9    2.631      42.826
2015    5       14     1  42    3.2942   561.6    2.631      42.768
2015    5       14     1  48    3.2919   561.2    2.632      42.710
2015    5       14     1  53    3.2897   560.9    2.632      42.653
2015    5       14     1  59    3.2874   560.5    2.633      42.597
2015    5       14     2   4    3.2852   560.2    2.634      42.541
2015    5       14     2  10    3.2830   559.8    2.635      42.486
2015    5       14     2  16    3.2807   559.5    2.636      42.431
2015    5       14     2  21    3.2785   559.2    2.636      42.377
2015    5       14     2  27    3.2763   558.8    2.637      42.323
2015    5       14     2  32    3.2741   558.5    2.638      42.270
2015    5       14     2  38    3.2719   558.1    2.639      42.216
2015    5       14     2  44    3.2698   557.8    2.641      42.163
2015    5       14     2  49    3.2676   557.4    2.642      42.111
2015    5       14     2  55    3.2654   557.1    2.643      42.059
2015    5       14     3   0    3.2632   556.8    2.644      42.006
2015    5       14     3   6    3.2611   556.4    2.645      41.954
2015    5       14     3  11    3.2589   556.1    2.646      41.903
2015    5       14     3  17    3.2567   555.8    2.648      41.851
2015    5       14     3  23    3.2546   555.4    2.649      41.799
2015    5       14     3  28    3.2524   555.1    2.650      41.748
2015    5       14     3  34    3.2503   554.7    2.652      41.696
2015    5       14     3  39    3.2481   554.4    2.653      41.645
2015    5       14     3  45    3.2459   554.1    2.654      41.593
2015    5       14     3  50    3.2437   553.7    2.655      41.541
2015    5       14     3  56    3.2416   553.4    2.657      41.489
2015    5       14     4   2    3.2394   553.0    2.658      41.437
2015    5       14     4   7    3.2372   552.7    2.659      41.384
2015    5       14     4  13    3.2350   552.3    2.661      41.331
2015    5       14     4  18    3.2328   552.0    2.662      41.279
2015    5       14     4  24    3.2306   551.7    2.663      41.225
2015    5       14     4  30    3.2283   551.3    2.664      41.172
2015    5       14     4  35    3.2261   551.0    2.665      41.118
2015    5       14     4  41    3.2239   550.6    2.667      41.064
2015    5       14     4  46    3.2217   550.3    2.668      41.010
2015    5       14     4  52    3.2195   549.9    2.669      40.956
2015    5       14     4  57    3.2172   549.6    2.670      40.901
2015    5       14     5   3    3.2150   549.2    2.671      40.846
2015    5       14     5   9    3.2128   548.9    2.672      40.791
2015    5       14     5  14    3.2106   548.5    2.673      40.736
2015    5       14     5  20    3.2084   548.2    2.674      40.681
2015    5       14     5  25    3.2062   547.8    2.675      40.625
2015    5       14     5  31    3.2039   547.5    2.676      40.569
2015    5       14     5  37    3.2018   547.1    2.677      40.513
2015    5       14     5  42    3.1995   546.8    2.678      40.457
2015    5       14     5  48    3.1974   546.4    2.679      40.401
2015    5       14     5  53    3.1952   546.1    2.680      40.345
2015    5       14     5  59    3.1930   545.7    2.681      40.288
2015    5       14     6   4    3.1909   545.4    2.682      40.232
2015    5       14     6  10    3.1887   545.0    2.682      40.175
2015    5       14     6  16    3.1865   544.7    2.683      40.118
2015    5       14     6  21    3.1844   544.3    2.684      40.061
2015    5       14     6  27    3.1822   544.0    2.685      40.004
2015    5       14     6  32    3.1801   543.6    2.685      39.946
2015    5       14     6  38    3.1779   543.3    2.686      39.888
2015    5       14     6  43    3.1758   542.9    2.686      39.830
2015    5       14     6  49    3.1736   542.6    2.687      39.772
2015    5       14     6  55    3.1715   542.2    2.687      39.714
2015    5       14     7   0    3.1693   541.9    2.688      39.655
2015    5       14     7   6    3.1672   541.5    2.688      39.596
2015    5       14     7  11    3.1650   541.2    2.689      39.536
2015    5       14     7  17    3.1629   540.8    2.689      39.477
2015    5       14     7  23    3.1607   540.5    2.690      39.417
2015    5       14     7  28    3.1586   540.1    2.690      39.357
2015    5       14     7  34    3.1564   539.8    2.690      39.297
2015    5       14     7  39    3.1543   539.4    2.691      39.236
2015    5       14     7  45    3.1521   539.1    2.691      39.175
2015    5       14     7  50    3.1500   538.7    2.691      39.114
2015    5       14     7  56    3.1479   538.4    2.691      39.053
2015    5       14     8   2    3.1457   538.0    2.692      38.992
2015    5       14     8   7    3.1436   537.6    2.692      38.931
2015    5       14     8  13    3.1415   537.3    2.692      38.869
2015    5       14     8  18    3.1394   536.9    2.692      38.808
2015    5       14     8  24    3.1373   536.6    2.693      38.746
2015    5       14     8  30    3.1352   536.2    2.693      38.685
2015    5       14     8  35    3.1331   535.8    2.693      38.624
2015    5       14     8  41    3.1310   535.5    2.693      38.563
2015    5       14     8  46    3.1290   535.1    2.694      38.502
2015    5       14     8  52    3.1269   534.8    2.694      38.442
2015    5       14     8  57    3.1249   534.4    2.695      38.382
2015    5       14     9   3    3.1229   534.0    2.695      38.322
2015    5       14     9   9    3.1209   533.7    2.696      38.263
2015    5       14     9  14    3.1189   533.3    2.696      38.205
2015    5       14     9  20    3.1169   533.0    2.697      38.147
2015    5       14     9  25    3.1149   532.6    2.697      38.089
2015    5       14     9  31    3.1130   532.2    2.698      38.032
2015    5       14     9  36    3.1110   531.9    2.699      37.975
2015    5       14     9  42    3.1091   531.5    2.699      37.919
2015    5       14     9  48    3.1072   531.2    2.700      37.864
2015    5       14     9  53    3.1052   530.8    2.701      37.808
2015    5       14     9  59    3.1033   530.4    2.702      37.754
2015    5       14    10   4    3.1014   530.1    2.703      37.699
2015    5       14    10  10    3.0995   529.7    2.704      37.645
2015    5       14    10  16    3.0976   529.4    2.705      37.591
2015    5       14    10  21    3.0957   529.0    2.706      37.537
2015    5       14    10  27    3.0939   528.6    2.707      37.483
2015    5       14    10  32    3.0920   528.3    2.708      37.429
2015    5       14    10  38    3.0901   527.9    2.709      37.376
2015    5       14    10  43    3.0882   527.5    2.710      37.322
2015    5       14    10  49    3.0863   527.2    2.712      37.269
2015    5       14    10  55    3.0844   526.8    2.713      37.215
2015    5       14    11   0    3.0825   526.4    2.714      37.162
2015    5       14    11   6    3.0806   526.0    2.715      37.108
2015    5       14    11  11    3.0787   525.7    2.717      37.055
2015    5       14    11  17    3.0768   525.3    2.718      37.002
2015    5       14    11  23    3.0749   524.9    2.719      36.949
2015    5       14    11  28    3.0730   524.5    2.721      36.896
2015    5       14    11  34    3.0711   524.2    2.722      36.843
2015    5       14    11  39    3.0693   523.8    2.723      36.790
2015    5       14    11  45    3.0674   523.4    2.725      36.738
2015    5       14    11  50    3.0656   523.0    2.726      36.686
2015    5       14    11  56    3.0638   522.6    2.728      36.634
2015    5       14    12   2    3.0620   522.3    2.729      36.582
2015    5       14    12   7    3.0602   521.9    2.731      36.531
2015    5       14    12  13    3.0584   521.5    2.733      36.480
2015    5       14    12  18    3.0566   521.1    2.734      36.429
2015    5       14    12  24    3.0549   520.7    2.736      36.378
2015    5       14    12  29    3.0532   520.3    2.738      36.328
2015    5       14    12  35    3.0515   520.0    2.740      36.278
2015    5       14    12  41    3.0498   519.6    2.741      36.229
2015    5       14    12  46    3.0481   519.2    2.743      36.180
2015    5       14    12  52    3.0464   518.8    2.745      36.131
2015    5       14    12  57    3.0448   518.4    2.747      36.082
2015    5       14    13   3    3.0431   518.1    2.749      36.033
2015    5       14    13   9    3.0415   517.7    2.751      35.985
2015    5       14    13  14    3.0399   517.3    2.753      35.937
2015    5       14    13  20    3.0383   516.9    2.755      35.889
2015    5       14    13  25    3.0366   516.5    2.757      35.841
2015    5       14    13  31    3.0351   516.2    2.759      35.793
2015    5       14    13  36    3.0335   515.8    2.760      35.746
2015    5       14    13  42    3.0319   515.4    2.762      35.698
2015    5       14    13  48    3.0303   515.1    2.764      35.651
2015    5       14    13  53    3.0287   514.7    2.766      35.603
2015    5       14    13  59    3.0271   514.3    2.768      35.556
2015    5       14    14   4    3.0255   513.9    2.770      35.509
2015    5       14    14  10    3.0240   513.6    2.772      35.462
2015    5       14    14  16    3.0224   513.2    2.774      35.414
2015    5       14    14  21    3.0208   512.8    2.776      35.367
2015    5       14    14  27    3.0193   512.5    2.777      35.320
2015    5       14    14  32    3.0177   512.1    2.779      35.273
2015    5       14    14  38    3.0162   511.7    2.781      35.225
2015    5       14    14  43    3.0146   511.4    2.783      35.178
2015    5       14    14  49    3.0131   511.0    2.785      35.131
2015    5       14    14  55    3.0116   510.6    2.786      35.084
2015    5       14    15   0    3.0100   510.3    2.788      35.036
2015    5       14    15   6    3.0085   509.9    2.790      34.989
2015    5       14    15  11    3.0069   509.5    2.792      34.942
2015    5       14    15  17    3.0054   509.2    2.793      34.894
2015    5       14    15  22    3.0039   508.8    2.795      34.846
2015    5       14    15  28    3.0024   508.4    2.797      34.799
2015    5       14    15  34    3.0008   508.1    2.798      34.751
2015    5       14    15  39    2.9993   507.7    2.800      34.703
2015    5       14    15  45    2.9978   507.4    2.802      34.655
2015    5       14    15  50    2.9963   507.0    2.803      34.607
2015    5       14    15  56    2.9948   506.6    2.805      34.558
2015    5       14    16   2    2.9933   506.3    2.807      34.510
2015    5       14    16   7    2.9918   505.9    2.808      34.461
2015    5       14    16  13    2.9903   505.5    2.810      34.412
2015    5       14    16  18    2.9888   505.2    2.811      34.363
2015    5       14    16  24    2.9873   504.8    2.813      34.314
2015    5       14    16  29    2.9858   504.4    2.815      34.264
2015    5       14    16  35    2.9843   504.1    2.816      34.215
2015    5       14    16  41    2.9828   503.7    2.818      34.165
2015    5       14    16  46    2.9813   503.3    2.819      34.115
2015    5       14    16  52    2.9798   503.0    2.821      34.065
2015    5       14    16  57    2.9783   502.6    2.822      34.015
2015    5       14    17   3    2.9768   502.2    2.824      33.965
2015    5       14    17   8    2.9754   501.9    2.825      33.914
2015    5       14    17  14    2.9739   501.5    2.827      33.864
2015    5       14    17  20    2.9724   501.1    2.828      33.813
2015    5       14    17  25    2.9709   500.7    2.830      33.762
2015    5       14    17  31    2.9695   500.4    2.831      33.712
2015    5       14    17  36    2.9680   500.0    2.833      33.661
2015    5       14    17  42    2.9665   499.6    2.834      33.610
2015    5       14    17  48    2.9651   499.2    2.836      33.559
2015    5       14    17  53    2.9636   498.9    2.837      33.509
2015    5       14    17  59    2.9622   498.5    2.839      33.458
2015    5       14    18   4    2.9607   498.1    2.840      33.408
2015    5       14    18  10    2.9593   497.7    2.842      33.357
2015    5       14    18  15    2.9578   497.4    2.843      33.307
2015    5       14    18  21    2.9564   497.0    2.845      33.257
2015    5       14    18  27    2.9550   496.6    2.847      33.207
2015    5       14    18  32    2.9536   496.2    2.848      33.157
2015    5       14    18  38    2.9522   495.8    2.850      33.108
2015    5       14    18  43    2.9508   495.5    2.851      33.058
2015    5       14    18  49    2.9494   495.1    2.853      33.009
2015    5       14    18  55    2.9480   494.7    2.855      32.960
2015    5       14    19   0    2.9467   494.3    2.856      32.912
2015    5       14    19   6    2.9453   494.0    2.858      32.863
2015    5       14    19  11    2.9440   493.6    2.860      32.815
2015    5       14    19  17    2.9426   493.2    2.862      32.767
2015    5       14    19  22    2.9413   492.8    2.863      32.719
2015    5       14    19  28    2.9400   492.4    2.865      32.671
2015    5       14    19  34    2.9386   492.1    2.867      32.623
2015    5       14    19  39    2.9373   491.7    2.869      32.576
2015    5       14    19  45    2.9360   491.3    2.871      32.529
2015    5       14    19  50    2.9348   490.9    2.873      32.481
2015    5       14    19  56    2.9335   490.5    2.874      32.434
2015    5       14    20   1    2.9322   490.2    2.876      32.388
2015    5       14    20   7    2.9310   489.8    2.878      32.341
2015    5       14    20  13    2.9297   489.4    2.880      32.294
2015    5       14    20  18    2.9285   489.0    2.882      32.248
2015    5       14    20  24    2.9272   488.6    2.884      32.202
2015    5       14    20  29    2.9260   488.2    2.886      32.155
2015    5       14    20  35    2.9248   487.9    2.888      32.109
2015    5       14    20  41    2.9236   487.5    2.890      32.064
2015    5       14    20  46    2.9224   487.1    2.892      32.018
2015    5       14    20  52    2.9212   486.7    2.894      31.973
2015    5       14    20  57    2.9201   486.3    2.896      31.927
2015    5       14    21   3    2.9189   486.0    2.898      31.882
2015    5       14    21   8    2.9178   485.6    2.901      31.837
2015    5       14    21  14    2.9167   485.2    2.903      31.792
2015    5       14    21  20    2.9156   484.8    2.905      31.748
2015    5       14    21  25    2.9144   484.4    2.907      31.703
2015    5       14    21  31    2.9134   484.1    2.909      31.659
2015    5       14    21  36    2.9123   483.7    2.912      31.615
2015    5       14    21  42    2.9112   483.3    2.914      31.571
2015    5       14    21  48    2.9102   482.9    2.916      31.527
2015    5       14    21  53    2.9091   482.5    2.919      31.484
2015    5       14    21  59    2.9081   482.2    2.921      31.440
2015    5       14    22   4    2.9071   481.8    2.924      31.397
2015    5       14    22  10    2.9061   481.4    2.926      31.354
2015    5       14    22  15    2.9051   481.0    2.928      31.311
2015    5       14    22  21    2.9041   480.7    2.931      31.268
2015    5       14    22  27    2.9031   480.3    2.933      31.225
2015    5       14    22  32    2.9021   479.9    2.936      31.182
2015    5       14    22  38    2.9011   479.5    2.938      31.139
2015    5       14    22  43    2.9001   479.2    2.941      31.096
2015    5       14    22  49    2.8991   478.8    2.943      31.054
2015    5       14    22  54    2.8981   478.4    2.946      31.011
2015    5       14    23   0    2.8971   478.1    2.948      30.968
2015    5       14    23   6    2.8962   477.7    2.951      30.926
2015    5       14    23  11    2.8952   477.3    2.953      30.883
2015    5       14    23  17    2.8942   476.9    2.956      30.840
2015    5       14    23  22    2.8932   476.6    2.958      30.797
2015    5       14    23  28    2.8923   476.2    2.961      30.754
2015    5       14    23  34    2.8913   475.8    2.963      30.711
2015    5       14    23  39    2.8903   475.5    2.966      30.668
2015    5       14    23  45    2.8893   475.1    2.968      30.625
2015    5       14    23  50    2.8884   474.7    2.971      30.582
2015    5       14    23  56    2.8874   474.3    2.973      30.539
2015    5       15     0   1    2.8864   474.0    2.976      30.496
2015    5       15     0   7    2.8855   473.6    2.978      30.453
2015    5       15     0  13    2.8845   473.2    2.981      30.411
2015    5       15     0  18    2.8836   472.9    2.983      30.368
2015    5       15     0  24    2.8826   472.5    2.986      30.326
2015    5       15     0  29    2.8817   472.1    2.988      30.283
2015    5       15     0  35    2.8807   471.8    2.991      30.241
2015    5       15     0  41    2.8798   471.4    2.994      30.198
2015    5       15     0  46    2.8789   471.0    2.996      30.156
2015    5       15     0  52    2.8779   470.7    2.999      30.114
2015    5       15     0  57    2.8770   470.3    3.001      30.073
2015    5       15     1   3    2.8761   469.9    3.004      30.031
2015    5       15     1   8    2.8752   469.6    3.007      29.989
2015    5       15     1  14    2.8743   469.2    3.009      29.948
2015    5       15     1  20    2.8734   468.8    3.012      29.907
2015    5       15     1  25    2.8725   468.5    3.014      29.866
2015    5       15     1  31    2.8716   468.1    3.017      29.825
2015    5       15     1  36    2.8707   467.7    3.020      29.785
2015    5       15     1  42    2.8698   467.4    3.022      29.744
2015    5       15     1  47    2.8689   467.0    3.025      29.704
2015    5       15     1  53    2.8681   466.7    3.028      29.664
2015    5       15     1  59    2.8672   466.3    3.030      29.624
2015    5       15     2   4    2.8663   465.9    3.033      29.584
2015    5       15     2  10    2.8654   465.6    3.036      29.544
2015    5       15     2  15    2.8646   465.2    3.038      29.505
2015    5       15     2  21    2.8637   464.9    3.041      29.465
2015    5       15     2  27    2.8629   464.5    3.044      29.426
2015    5       15     2  32    2.8620   464.1    3.047      29.386
2015    5       15     2  38    2.8612   463.8    3.049      29.347
2015    5       15     2  43    2.8603   463.4    3.052      29.308
2015    5       15     2  49    2.8595   463.1    3.055      29.269
2015    5       15     2  54    2.8587   462.7    3.058      29.230
2015    5       15     3   0    2.8578   462.3    3.060      29.191
2015    5       15     3   6    2.8570   462.0    3.063      29.152
2015    5       15     3  11    2.8562   461.6    3.066      29.113
2015    5       15     3  17    2.8554   461.3    3.069      29.075
2015    5       15     3  22    2.8546   460.9    3.071      29.036
2015    5       15     3  28    2.8538   460.5    3.074      28.998
2015    5       15     3  34    2.8530   460.2    3.077      28.960
2015    5       15     3  39    2.8523   459.8    3.080      28.922
2015    5       15     3  45    2.8515   459.5    3.083      28.884
2015    5       15     3  50    2.8508   459.1    3.086      28.846
2015    5       15     3  56    2.8500   458.7    3.089      28.808
2015    5       15     4   1    2.8493   458.4    3.092      28.770
2015    5       15     4   7    2.8486   458.0    3.094      28.733
2015    5       15     4  13    2.8479   457.7    3.097      28.695
2015    5       15     4  18    2.8472   457.3    3.100      28.658
2015    5       15     4  24    2.8465   457.0    3.103      28.621
2015    5       15     4  29    2.8458   456.6    3.106      28.584
2015    5       15     4  35    2.8451   456.3    3.109      28.546
2015    5       15     4  40    2.8445   455.9    3.112      28.509
2015    5       15     4  46    2.8438   455.5    3.115      28.472
2015    5       15     4  52    2.8431   455.2    3.118      28.435
2015    5       15     4  57    2.8425   454.8    3.121      28.398
2015    5       15     5   3    2.8418   454.5    3.124      28.361
2015    5       15     5   8    2.8412   454.1    3.127      28.324
2015    5       15     5  14    2.8406   453.8    3.130      28.287
2015    5       15     5  20    2.8399   453.4    3.133      28.250
2015    5       15     5  25    2.8393   453.1    3.136      28.213
2015    5       15     5  31    2.8387   452.7    3.139      28.176
2015    5       15     5  36    2.8380   452.4    3.142      28.139
2015    5       15     5  42    2.8374   452.0    3.145      28.102
2015    5       15     5  47    2.8368   451.7    3.148      28.064
2015    5       15     5  53    2.8362   451.3    3.151      28.027
2015    5       15     5  59    2.8356   451.0    3.153      27.990
2015    5       15     6   4    2.8349   450.6    3.156      27.952
2015    5       15     6  10    2.8343   450.2    3.159      27.915
2015    5       15     6  15    2.8337   449.9    3.162      27.877
2015    5       15     6  21    2.8331   449.5    3.165      27.839
2015    5       15     6  27    2.8324   449.2    3.167      27.801
2015    5       15     6  32    2.8318   448.8    3.170      27.763
2015    5       15     6  38    2.8312   448.5    3.173      27.725
2015    5       15     6  43    2.8306   448.1    3.175      27.686
2015    5       15     6  49    2.8300   447.8    3.178      27.648
2015    5       15     6  54    2.8294   447.4    3.181      27.610
2015    5       15     7   0    2.8288   447.1    3.183      27.571
2015    5       15     7   6    2.8282   446.7    3.186      27.532
2015    5       15     7  11    2.8276   446.4    3.189      27.494
2015    5       15     7  17    2.8270   446.0    3.191      27.455
2015    5       15     7  22    2.8264   445.6    3.194      27.416
2015    5       15     7  28    2.8258   445.3    3.197      27.377
2015    5       15     7  33    2.8253   444.9    3.199      27.338
2015    5       15     7  39    2.8247   444.6    3.202      27.299
2015    5       15     7  45    2.8241   444.2    3.205      27.261
2015    5       15     7  50    2.8236   443.9    3.207      27.222
2015    5       15     7  56    2.8230   443.5    3.210      27.183
2015    5       15     8   1    2.8225   443.2    3.213      27.145
2015    5       15     8   7    2.8219   442.8    3.215      27.106
2015    5       15     8  13    2.8214   442.5    3.218      27.068
2015    5       15     8  18    2.8209   442.1    3.221      27.030
2015    5       15     8  24    2.8203   441.8    3.223      26.992
2015    5       15     8  29    2.8198   441.4    3.226      26.954
2015    5       15     8  35    2.8193   441.1    3.229      26.916
2015    5       15     8  40    2.8188   440.7    3.232      26.878
2015    5       15     8  46    2.8184   440.4    3.234      26.841
2015    5       15     8  52    2.8179   440.1    3.237      26.803
2015    5       15     8  57    2.8174   439.7    3.240      26.766
2015    5       15     9   3    2.8169   439.4    3.243      26.729
2015    5       15     9   8    2.8165   439.0    3.246      26.693
2015    5       15     9  14    2.8160   438.7    3.249      26.656
2015    5       15     9  19    2.8156   438.3    3.252      26.619
2015    5       15     9  25    2.8151   438.0    3.255      26.583
2015    5       15     9  31    2.8147   437.6    3.258      26.547
2015    5       15     9  36    2.8142   437.3    3.261      26.511
2015    5       15     9  42    2.8138   437.0    3.264      26.475
2015    5       15     9  47    2.8134   436.6    3.267      26.439
2015    5       15     9  53    2.8130   436.3    3.270      26.403
2015    5       15     9  59    2.8126   435.9    3.273      26.367
2015    5       15    10   4    2.8122   435.6    3.276      26.331
2015    5       15    10  10    2.8118   435.3    3.279      26.296
2015    5       15    10  15    2.8114   434.9    3.282      26.261
2015    5       15    10  21    2.8110   434.6    3.285      26.225
2015    5       15    10  26    2.8106   434.2    3.289      26.190
2015    5       15    10  32    2.8102   433.9    3.292      26.155
2015    5       15    10  38    2.8098   433.6    3.295      26.119
2015    5       15    10  43    2.8095   433.2    3.298      26.084
2015    5       15    10  49    2.8091   432.9    3.302      26.049
2015    5       15    10  54    2.8088   432.5    3.305      26.015
2015    5       15    11   0    2.8084   432.2    3.308      25.980
2015    5       15    11   6    2.8081   431.9    3.311      25.945
2015    5       15    11  11    2.8078   431.5    3.315      25.910
2015    5       15    11  17    2.8075   431.2    3.318      25.876
2015    5       15    11  22    2.8072   430.8    3.322      25.841
2015    5       15    11  28    2.8069   430.5    3.325      25.807
2015    5       15    11  33    2.8066   430.2    3.328      25.773
2015    5       15    11  39    2.8063   429.8    3.332      25.739
2015    5       15    11  45    2.8060   429.5    3.335      25.705
2015    5       15    11  50    2.8058   429.1    3.339      25.671
2015    5       15    11  56    2.8056   428.8    3.343      25.638
2015    5       15    12   1    2.8053   428.5    3.346      25.604
2015    5       15    12   7    2.8051   428.1    3.350      25.571
2015    5       15    12  12    2.8049   427.8    3.354      25.538
2015    5       15    12  18    2.8047   427.4    3.357      25.505
2015    5       15    12  24    2.8045   427.1    3.361      25.473
2015    5       15    12  29    2.8044   426.8    3.365      25.441
2015    5       15    12  35    2.8042   426.4    3.369      25.408
2015    5       15    12  40    2.8041   426.1    3.373      25.377
2015    5       15    12  46    2.8040   425.7    3.377      25.345
2015    5       15    12  52    2.8039   425.4    3.381      25.314
2015    5       15    12  57    2.8038   425.1    3.385      25.282
2015    5       15    13   3    2.8037   424.7    3.389      25.251
2015    5       15    13   8    2.8036   424.4    3.393      25.221
2015    5       15    13  14    2.8036   424.1    3.397      25.190
2015    5       15    13  19    2.8036   423.7    3.401      25.160
2015    5       15    13  25    2.8035   423.4    3.405      25.130
2015    5       15    13  31    2.8035   423.0    3.410      25.100
2015    5       15    13  36    2.8035   422.7    3.414      25.071
2015    5       15    13  42    2.8036   422.4    3.418      25.041
2015    5       15    13  47    2.8036   422.0    3.422      25.012
2015    5       15    13  53    2.8036   421.7    3.427      24.983
2015    5       15    13  59    2.8037   421.4    3.431      24.954
2015    5       15    14   4    2.8037   421.0    3.435      24.925
2015    5       15    14  10    2.8037   420.7    3.440      24.896
2015    5       15    14  15    2.8038   420.4    3.444      24.867
2015    5       15    14  21    2.8038   420.0    3.449      24.838
2015    5       15    14  26    2.8038   419.7    3.453      24.809
2015    5       15    14  32    2.8039   419.4    3.457      24.780
2015    5       15    14  38    2.8039   419.0    3.462      24.751
2015    5       15    14  43    2.8039   418.7    3.466      24.722
2015    5       15    14  49    2.8040   418.4    3.470      24.693
2015    5       15    14  54    2.8040   418.0    3.474      24.664
2015    5       15    15   0    2.8040   417.7    3.479      24.635
2015    5       15    15   5    2.8041   417.4    3.483      24.606
2015    5       15    15  11    2.8041   417.0    3.487      24.577
2015    5       15    15  17    2.8041   416.7    3.491      24.548
2015    5       15    15  22    2.8042   416.4    3.495      24.519
2015    5       15    15  28    2.8042   416.0    3.499      24.489
2015    5       15    15  33    2.8042   415.7    3.503      24.460
2015    5       15    15  39    2.8043   415.4    3.507      24.431
2015    5       15    15  45    2.8043   415.1    3.511      24.401
2015    5       15    15  50    2.8043   414.7    3.515      24.372
2015    5       15    15  56    2.8044   414.4    3.519      24.343
2015    5       15    16   1    2.8044   414.1    3.523      24.313
2015    5       15    16   7    2.8045   413.7    3.527      24.284
2015    5       15    16  12    2.8045   413.4    3.531      24.254
2015    5       15    16  18    2.8046   413.1    3.535      24.224
2015    5       15    16  24    2.8047   412.8    3.539      24.195
2015    5       15    16  29    2.8048   412.4    3.543      24.165
2015    5       15    16  35    2.8049   412.1    3.547      24.135
2015    5       15    16  40    2.8050   411.8    3.550      24.105
2015    5       15    16  46    2.8051   411.5    3.554      24.075
2015    5       15    16  52    2.8053   411.1    3.558      24.045
2015    5       15    16  57    2.8054   410.8    3.562      24.015
2015    5       15    17   3    2.8055   410.5    3.565      23.985
2015    5       15    17   8    2.8057   410.2    3.569      23.955
2015    5       15    17  14    2.8058   409.8    3.573      23.925
2015    5       15    17  19    2.8060   409.5    3.577      23.895
2015    5       15    17  25    2.8062   409.2    3.580      23.865
2015    5       15    17  31    2.8064   408.9    3.584      23.835
2015    5       15    17  36    2.8066   408.6    3.588      23.804
2015    5       15    17  42    2.8068   408.2    3.591      23.774
2015    5       15    17  47    2.8070   407.9    3.595      23.744
2015    5       15    17  53    2.8072   407.6    3.599      23.713
2015    5       15    17  58    2.8075   407.3    3.602      23.683
2015    5       15    18   4    2.8077   407.0    3.606      23.652
2015    5       15    18  10    2.8080   406.6    3.610      23.622
2015    5       15    18  15    2.8082   406.3    3.613      23.591
2015    5       15    18  21    2.8085   406.0    3.617      23.561
2015    5       15    18  26    2.8087   405.7    3.621      23.530
2015    5       15    18  32    2.8090   405.4    3.625      23.500
2015    5       15    18  38    2.8093   405.1    3.628      23.469
2015    5       15    18  43    2.8096   404.7    3.632      23.438
2015    5       15    18  49    2.8099   404.4    3.636      23.408
2015    5       15    18  54    2.8102   404.1    3.639      23.377
2015    5       15    19   0    2.8105   403.8    3.643      23.347
2015    5       15    19   5    2.8108   403.5    3.647      23.316
2015    5       15    19  11    2.8111   403.2    3.651      23.286
2015    5       15    19  17    2.8114   402.8    3.655      23.256
2015    5       15    19  22    2.8118   402.5    3.658      23.225
2015    5       15    19  28    2.8121   402.2    3.662      23.195
2015    5       15    19  33    2.8125   401.9    3.666      23.165
2015    5       15    19  39    2.8129   401.6    3.670      23.136
2015    5       15    19  44    2.8132   401.3    3.674      23.106
2015    5       15    19  50    2.8136   400.9    3.678      23.076
2015    5       15    19  56    2.8140   400.6    3.682      23.047
2015    5       15    20   1    2.8145   400.3    3.686      23.018
2015    5       15    20   7    2.8149   400.0    3.691      22.989
2015    5       15    20  12    2.8153   399.7    3.695      22.960
2015    5       15    20  18    2.8158   399.4    3.699      22.932
2015    5       15    20  24    2.8163   399.1    3.703      22.904
2015    5       15    20  29    2.8168   398.7    3.708      22.876
2015    5       15    20  35    2.8173   398.4    3.712      22.848
2015    5       15    20  40    2.8178   398.1    3.717      22.820
2015    5       15    20  46    2.8184   397.8    3.721      22.793
2015    5       15    20  51    2.8189   397.5    3.726      22.766
2015    5       15    20  57    2.8195   397.2    3.731      22.739
2015    5       15    21   3    2.8201   396.9    3.736      22.712
2015    5       15    21   8    2.8207   396.6    3.741      22.686
2015    5       15    21  14    2.8214   396.2    3.746      22.660
2015    5       15    21  19    2.8220   395.9    3.751      22.634
2015    5       15    21  25    2.8227   395.6    3.756      22.609
2015    5       15    21  31    2.8234   395.3    3.761      22.584
2015    5       15    21  36    2.8241   395.0    3.766      22.559
2015    5       15    21  42    2.8248   394.7    3.771      22.534
2015    5       15    21  47    2.8255   394.4    3.777      22.509
2015    5       15    21  53    2.8262   394.1    3.782      22.485
2015    5       15    21  58    2.8270   393.8    3.787      22.461
2015    5       15    22   4    2.8277   393.5    3.793      22.437
2015    5       15    22  10    2.8285   393.2    3.798      22.413
2015    5       15    22  15    2.8292   392.9    3.804      22.390
2015    5       15    22  21    2.8300   392.6    3.809      22.366
2015    5       15    22  26    2.8308   392.3    3.815      22.343
2015    5       15    22  32    2.8316   392.0    3.821      22.320
2015    5       15    22  37    2.8324   391.7    3.827      22.297
2015    5       15    22  43    2.8333   391.4    3.832      22.274
2015    5       15    22  49    2.8341   391.0    3.838      22.252
2015    5       15    22  54    2.8350   390.7    3.844      22.230
2015    5       15    23   0    2.8358   390.4    3.850      22.207
2015    5       15    23   5    2.8367   390.1    3.856      22.185
2015    5       15    23  11    2.8376   389.8    3.862      22.163
2015    5       15    23  17    2.8385   389.5    3.868      22.141
2015    5       15    23  22    2.8394   389.2    3.874      22.120
2015    5       15    23  28    2.8404   388.9    3.880      22.098
2015    5       15    23  33    2.8414   388.6    3.886      22.077
2015    5       15    23  39    2.8424   388.3    3.892      22.056
2015    5       15    23  44    2.8434   388.0    3.898      22.034
2015    5       15    23  50    2.8444   387.7    3.904      22.013
2015    5       15    23  56    2.8454   387.4    3.911      21.992
2015    5       16     0   1    2.8465   387.1    3.917      21.972
