year    month   day   hour  minute  B_enl V_enl   n_enl       T_enl
[year] [month] [day] [hour][minute] [nT]  [km/s]  [cm-3]      [kK]
2015    5        3     0   1    4.7079   508.5    4.649      48.694
2015    5        3     0   7    4.7067   508.5    4.647      48.689
2015    5        3     0  12    4.7055   508.5    4.646      48.684
2015    5        3     0  18    4.7043   508.5    4.645      48.678
2015    5        3     0  24    4.7030   508.5    4.643      48.672
2015    5        3     0  30    4.7018   508.5    4.642      48.667
2015    5        3     0  35    4.7005   508.5    4.640      48.660
2015    5        3     0  41    4.6993   508.5    4.639      48.654
2015    5        3     0  47    4.6981   508.5    4.637      48.648
2015    5        3     0  52    4.6968   508.5    4.636      48.641
2015    5        3     0  58    4.6956   508.5    4.634      48.635
2015    5        3     1   4    4.6944   508.5    4.633      48.628
2015    5        3     1  10    4.6931   508.5    4.631      48.621
2015    5        3     1  15    4.6919   508.5    4.630      48.614
2015    5        3     1  21    4.6906   508.5    4.628      48.607
2015    5        3     1  27    4.6894   508.5    4.627      48.599
2015    5        3     1  32    4.6882   508.5    4.625      48.592
2015    5        3     1  38    4.6869   508.5    4.624      48.585
2015    5        3     1  44    4.6857   508.5    4.622      48.577
2015    5        3     1  49    4.6845   508.5    4.621      48.570
2015    5        3     1  55    4.6832   508.5    4.619      48.563
2015    5        3     2   1    4.6820   508.5    4.618      48.555
2015    5        3     2   7    4.6808   508.5    4.616      48.547
2015    5        3     2  12    4.6796   508.5    4.615      48.540
2015    5        3     2  18    4.6784   508.5    4.614      48.533
2015    5        3     2  24    4.6772   508.5    4.612      48.526
2015    5        3     2  29    4.6759   508.5    4.611      48.518
2015    5        3     2  35    4.6747   508.5    4.609      48.511
2015    5        3     2  41    4.6735   508.5    4.608      48.504
2015    5        3     2  47    4.6723   508.5    4.607      48.497
2015    5        3     2  52    4.6712   508.5    4.605      48.490
2015    5        3     2  58    4.6700   508.5    4.604      48.484
2015    5        3     3   4    4.6688   508.5    4.603      48.477
2015    5        3     3   9    4.6676   508.5    4.602      48.471
2015    5        3     3  15    4.6664   508.5    4.600      48.464
2015    5        3     3  21    4.6652   508.5    4.599      48.458
2015    5        3     3  27    4.6640   508.5    4.598      48.452
2015    5        3     3  32    4.6628   508.5    4.597      48.446
2015    5        3     3  38    4.6616   508.6    4.596      48.439
2015    5        3     3  44    4.6604   508.6    4.594      48.433
2015    5        3     3  49    4.6592   508.6    4.593      48.427
2015    5        3     3  55    4.6580   508.6    4.592      48.421
2015    5        3     4   1    4.6568   508.6    4.591      48.415
2015    5        3     4   7    4.6556   508.6    4.590      48.409
2015    5        3     4  12    4.6543   508.6    4.588      48.403
2015    5        3     4  18    4.6531   508.6    4.587      48.396
2015    5        3     4  24    4.6518   508.6    4.586      48.390
2015    5        3     4  29    4.6506   508.6    4.585      48.384
2015    5        3     4  35    4.6493   508.6    4.584      48.377
2015    5        3     4  41    4.6481   508.6    4.583      48.371
2015    5        3     4  47    4.6468   508.6    4.581      48.364
2015    5        3     4  52    4.6456   508.6    4.580      48.357
2015    5        3     4  58    4.6443   508.5    4.579      48.350
2015    5        3     5   4    4.6430   508.5    4.578      48.343
2015    5        3     5   9    4.6417   508.5    4.577      48.336
2015    5        3     5  15    4.6405   508.5    4.575      48.328
2015    5        3     5  21    4.6392   508.5    4.574      48.321
2015    5        3     5  27    4.6379   508.5    4.573      48.313
2015    5        3     5  32    4.6366   508.5    4.572      48.306
2015    5        3     5  38    4.6353   508.5    4.571      48.298
2015    5        3     5  44    4.6340   508.5    4.569      48.290
2015    5        3     5  49    4.6327   508.5    4.568      48.282
2015    5        3     5  55    4.6315   508.5    4.567      48.273
2015    5        3     6   1    4.6302   508.5    4.566      48.265
2015    5        3     6   7    4.6289   508.5    4.565      48.257
2015    5        3     6  12    4.6276   508.5    4.564      48.248
2015    5        3     6  18    4.6263   508.5    4.563      48.240
2015    5        3     6  24    4.6250   508.5    4.562      48.231
2015    5        3     6  29    4.6238   508.5    4.561      48.223
2015    5        3     6  35    4.6225   508.5    4.560      48.214
2015    5        3     6  41    4.6212   508.5    4.559      48.205
2015    5        3     6  47    4.6200   508.4    4.558      48.197
2015    5        3     6  52    4.6187   508.4    4.557      48.188
2015    5        3     6  58    4.6174   508.4    4.556      48.179
2015    5        3     7   4    4.6161   508.4    4.555      48.170
2015    5        3     7   9    4.6149   508.4    4.554      48.162
2015    5        3     7  15    4.6136   508.4    4.553      48.153
2015    5        3     7  21    4.6123   508.4    4.552      48.144
2015    5        3     7  27    4.6111   508.4    4.551      48.135
2015    5        3     7  32    4.6098   508.4    4.551      48.126
2015    5        3     7  38    4.6086   508.4    4.550      48.117
2015    5        3     7  44    4.6073   508.3    4.549      48.108
2015    5        3     7  49    4.6060   508.3    4.548      48.099
2015    5        3     7  55    4.6048   508.3    4.547      48.090
2015    5        3     8   1    4.6035   508.3    4.547      48.080
2015    5        3     8   7    4.6022   508.3    4.546      48.071
2015    5        3     8  12    4.6010   508.3    4.545      48.061
2015    5        3     8  18    4.5997   508.3    4.544      48.052
2015    5        3     8  24    4.5984   508.3    4.544      48.042
2015    5        3     8  29    4.5972   508.3    4.543      48.032
2015    5        3     8  35    4.5959   508.2    4.542      48.022
2015    5        3     8  41    4.5946   508.2    4.541      48.012
2015    5        3     8  46    4.5933   508.2    4.540      48.001
2015    5        3     8  52    4.5921   508.2    4.540      47.991
2015    5        3     8  58    4.5908   508.2    4.539      47.980
2015    5        3     9   4    4.5895   508.2    4.538      47.970
2015    5        3     9   9    4.5882   508.2    4.537      47.959
2015    5        3     9  15    4.5870   508.2    4.536      47.948
2015    5        3     9  21    4.5857   508.1    4.535      47.937
2015    5        3     9  26    4.5844   508.1    4.535      47.926
2015    5        3     9  32    4.5831   508.1    4.534      47.915
2015    5        3     9  38    4.5819   508.1    4.533      47.904
2015    5        3     9  44    4.5806   508.1    4.532      47.893
2015    5        3     9  49    4.5794   508.1    4.531      47.882
2015    5        3     9  55    4.5781   508.0    4.530      47.871
2015    5        3    10   1    4.5769   508.0    4.529      47.860
2015    5        3    10   6    4.5756   508.0    4.528      47.849
2015    5        3    10  12    4.5744   508.0    4.528      47.837
2015    5        3    10  18    4.5732   508.0    4.527      47.827
2015    5        3    10  24    4.5719   508.0    4.526      47.816
2015    5        3    10  29    4.5707   508.0    4.525      47.804
2015    5        3    10  35    4.5695   507.9    4.524      47.794
2015    5        3    10  41    4.5682   507.9    4.523      47.783
2015    5        3    10  46    4.5670   507.9    4.522      47.772
2015    5        3    10  52    4.5658   507.9    4.521      47.761
2015    5        3    10  58    4.5645   507.9    4.521      47.750
2015    5        3    11   4    4.5633   507.9    4.520      47.739
2015    5        3    11   9    4.5621   507.9    4.519      47.728
2015    5        3    11  15    4.5608   507.8    4.518      47.718
2015    5        3    11  21    4.5595   507.8    4.517      47.707
2015    5        3    11  26    4.5583   507.8    4.516      47.696
2015    5        3    11  32    4.5570   507.8    4.516      47.685
2015    5        3    11  38    4.5557   507.8    4.515      47.674
2015    5        3    11  44    4.5545   507.8    4.514      47.663
2015    5        3    11  49    4.5532   507.7    4.513      47.653
2015    5        3    11  55    4.5519   507.7    4.512      47.642
2015    5        3    12   1    4.5506   507.7    4.511      47.630
2015    5        3    12   6    4.5492   507.7    4.510      47.619
2015    5        3    12  12    4.5479   507.7    4.510      47.608
2015    5        3    12  18    4.5466   507.7    4.509      47.597
2015    5        3    12  24    4.5453   507.6    4.508      47.586
2015    5        3    12  29    4.5439   507.6    4.507      47.575
2015    5        3    12  35    4.5426   507.6    4.506      47.563
2015    5        3    12  41    4.5412   507.6    4.505      47.552
2015    5        3    12  46    4.5399   507.6    4.505      47.541
2015    5        3    12  52    4.5385   507.6    4.504      47.529
2015    5        3    12  58    4.5371   507.5    4.503      47.518
2015    5        3    13   4    4.5358   507.5    4.502      47.507
2015    5        3    13   9    4.5344   507.5    4.501      47.495
2015    5        3    13  15    4.5330   507.5    4.500      47.484
2015    5        3    13  21    4.5316   507.5    4.500      47.472
2015    5        3    13  26    4.5302   507.4    4.499      47.461
2015    5        3    13  32    4.5289   507.4    4.498      47.449
2015    5        3    13  38    4.5275   507.4    4.497      47.438
2015    5        3    13  44    4.5261   507.4    4.496      47.426
2015    5        3    13  49    4.5247   507.3    4.496      47.414
2015    5        3    13  55    4.5233   507.3    4.495      47.403
2015    5        3    14   1    4.5219   507.3    4.494      47.391
2015    5        3    14   6    4.5205   507.3    4.494      47.380
2015    5        3    14  12    4.5191   507.3    4.493      47.368
2015    5        3    14  18    4.5177   507.2    4.492      47.356
2015    5        3    14  24    4.5164   507.2    4.491      47.345
2015    5        3    14  29    4.5150   507.2    4.491      47.333
2015    5        3    14  35    4.5136   507.2    4.490      47.322
2015    5        3    14  41    4.5122   507.1    4.490      47.310
2015    5        3    14  46    4.5108   507.1    4.489      47.298
2015    5        3    14  52    4.5094   507.1    4.488      47.286
2015    5        3    14  58    4.5081   507.1    4.488      47.275
2015    5        3    15   3    4.5067   507.0    4.487      47.263
2015    5        3    15   9    4.5053   507.0    4.486      47.251
2015    5        3    15  15    4.5040   507.0    4.486      47.239
2015    5        3    15  21    4.5026   507.0    4.485      47.227
2015    5        3    15  26    4.5012   506.9    4.485      47.215
2015    5        3    15  32    4.4999   506.9    4.484      47.203
2015    5        3    15  38    4.4985   506.9    4.484      47.190
2015    5        3    15  43    4.4971   506.9    4.483      47.177
2015    5        3    15  49    4.4958   506.8    4.482      47.165
2015    5        3    15  55    4.4944   506.8    4.482      47.152
2015    5        3    16   1    4.4930   506.8    4.481      47.139
2015    5        3    16   6    4.4917   506.8    4.480      47.125
2015    5        3    16  12    4.4903   506.7    4.480      47.111
2015    5        3    16  18    4.4889   506.7    4.479      47.098
2015    5        3    16  23    4.4875   506.7    4.479      47.084
2015    5        3    16  29    4.4862   506.6    4.478      47.069
2015    5        3    16  35    4.4848   506.6    4.477      47.055
2015    5        3    16  41    4.4834   506.6    4.477      47.040
2015    5        3    16  46    4.4820   506.6    4.476      47.025
2015    5        3    16  52    4.4806   506.5    4.475      47.010
2015    5        3    16  58    4.4792   506.5    4.474      46.995
2015    5        3    17   3    4.4779   506.5    4.474      46.979
2015    5        3    17   9    4.4765   506.4    4.473      46.963
2015    5        3    17  15    4.4751   506.4    4.472      46.947
2015    5        3    17  21    4.4737   506.4    4.472      46.931
2015    5        3    17  26    4.4723   506.3    4.471      46.915
2015    5        3    17  32    4.4710   506.3    4.470      46.898
2015    5        3    17  38    4.4696   506.3    4.470      46.882
2015    5        3    17  43    4.4682   506.2    4.469      46.865
2015    5        3    17  49    4.4668   506.2    4.468      46.849
2015    5        3    17  55    4.4655   506.2    4.468      46.832
2015    5        3    18   1    4.4641   506.1    4.467      46.815
2015    5        3    18   6    4.4627   506.1    4.467      46.798
2015    5        3    18  12    4.4614   506.1    4.466      46.781
2015    5        3    18  18    4.4600   506.0    4.466      46.765
2015    5        3    18  23    4.4587   506.0    4.465      46.748
2015    5        3    18  29    4.4573   506.0    4.465      46.731
2015    5        3    18  35    4.4559   505.9    4.464      46.714
2015    5        3    18  41    4.4546   505.9    4.464      46.698
2015    5        3    18  46    4.4532   505.8    4.464      46.681
2015    5        3    18  52    4.4519   505.8    4.463      46.665
2015    5        3    18  58    4.4505   505.8    4.463      46.648
2015    5        3    19   3    4.4491   505.7    4.463      46.632
2015    5        3    19   9    4.4478   505.7    4.462      46.615
2015    5        3    19  15    4.4464   505.7    4.462      46.599
2015    5        3    19  21    4.4450   505.6    4.462      46.583
2015    5        3    19  26    4.4436   505.6    4.462      46.567
2015    5        3    19  32    4.4421   505.5    4.461      46.551
2015    5        3    19  38    4.4407   505.5    4.461      46.535
2015    5        3    19  43    4.4393   505.5    4.461      46.519
2015    5        3    19  49    4.4379   505.4    4.461      46.504
2015    5        3    19  55    4.4364   505.4    4.460      46.488
2015    5        3    20   1    4.4350   505.4    4.460      46.472
2015    5        3    20   6    4.4335   505.3    4.460      46.456
2015    5        3    20  12    4.4321   505.3    4.460      46.441
2015    5        3    20  18    4.4306   505.2    4.459      46.425
2015    5        3    20  23    4.4291   505.2    4.459      46.409
2015    5        3    20  29    4.4277   505.2    4.459      46.393
2015    5        3    20  35    4.4262   505.1    4.459      46.377
2015    5        3    20  41    4.4247   505.1    4.458      46.361
2015    5        3    20  46    4.4232   505.0    4.458      46.344
2015    5        3    20  52    4.4217   505.0    4.457      46.328
2015    5        3    20  58    4.4202   504.9    4.457      46.312
2015    5        3    21   3    4.4187   504.9    4.457      46.295
2015    5        3    21   9    4.4172   504.9    4.456      46.278
2015    5        3    21  15    4.4157   504.8    4.456      46.261
2015    5        3    21  20    4.4142   504.8    4.455      46.244
2015    5        3    21  26    4.4127   504.7    4.455      46.226
2015    5        3    21  32    4.4113   504.7    4.454      46.209
2015    5        3    21  38    4.4098   504.7    4.454      46.191
2015    5        3    21  43    4.4083   504.6    4.453      46.173
2015    5        3    21  49    4.4068   504.6    4.452      46.155
2015    5        3    21  55    4.4053   504.5    4.452      46.136
2015    5        3    22   0    4.4038   504.5    4.451      46.118
2015    5        3    22   6    4.4023   504.4    4.450      46.099
2015    5        3    22  12    4.4008   504.4    4.450      46.080
2015    5        3    22  18    4.3993   504.4    4.449      46.061
2015    5        3    22  23    4.3978   504.3    4.448      46.042
2015    5        3    22  29    4.3963   504.3    4.448      46.022
2015    5        3    22  35    4.3948   504.2    4.447      46.002
2015    5        3    22  40    4.3934   504.2    4.446      45.982
2015    5        3    22  46    4.3919   504.1    4.445      45.962
2015    5        3    22  52    4.3904   504.1    4.444      45.941
2015    5        3    22  58    4.3888   504.0    4.444      45.921
2015    5        3    23   3    4.3873   504.0    4.443      45.900
2015    5        3    23   9    4.3858   503.9    4.442      45.879
2015    5        3    23  15    4.3843   503.9    4.441      45.857
2015    5        3    23  20    4.3828   503.9    4.440      45.836
2015    5        3    23  26    4.3813   503.8    4.439      45.814
2015    5        3    23  32    4.3797   503.8    4.438      45.791
2015    5        3    23  38    4.3782   503.7    4.437      45.769
2015    5        3    23  43    4.3766   503.7    4.436      45.747
2015    5        3    23  49    4.3751   503.6    4.435      45.724
2015    5        3    23  55    4.3736   503.6    4.435      45.701
2015    5        4     0   0    4.3720   503.5    4.434      45.678
2015    5        4     0   6    4.3704   503.5    4.433      45.655
2015    5        4     0  12    4.3689   503.4    4.432      45.632
2015    5        4     0  18    4.3673   503.4    4.431      45.608
2015    5        4     0  23    4.3658   503.3    4.430      45.585
2015    5        4     0  29    4.3642   503.3    4.429      45.561
2015    5        4     0  35    4.3626   503.2    4.428      45.537
2015    5        4     0  40    4.3611   503.1    4.428      45.513
2015    5        4     0  46    4.3595   503.1    4.427      45.489
2015    5        4     0  52    4.3579   503.0    4.426      45.465
2015    5        4     0  58    4.3563   503.0    4.425      45.441
2015    5        4     1   3    4.3547   502.9    4.425      45.417
2015    5        4     1   9    4.3532   502.9    4.424      45.392
2015    5        4     1  15    4.3516   502.8    4.423      45.368
2015    5        4     1  20    4.3500   502.8    4.423      45.344
2015    5        4     1  26    4.3484   502.7    4.422      45.319
2015    5        4     1  32    4.3468   502.6    4.421      45.295
2015    5        4     1  38    4.3452   502.6    4.421      45.271
2015    5        4     1  43    4.3436   502.5    4.420      45.246
2015    5        4     1  49    4.3420   502.5    4.420      45.222
2015    5        4     1  55    4.3404   502.4    4.419      45.198
2015    5        4     2   0    4.3388   502.3    4.419      45.173
2015    5        4     2   6    4.3372   502.3    4.419      45.149
2015    5        4     2  12    4.3357   502.2    4.418      45.125
2015    5        4     2  18    4.3340   502.2    4.418      45.101
2015    5        4     2  23    4.3324   502.1    4.418      45.077
2015    5        4     2  29    4.3308   502.0    4.417      45.053
2015    5        4     2  35    4.3292   502.0    4.417      45.029
2015    5        4     2  40    4.3276   501.9    4.417      45.005
2015    5        4     2  46    4.3260   501.8    4.417      44.981
2015    5        4     2  52    4.3244   501.8    4.417      44.957
2015    5        4     2  57    4.3228   501.7    4.417      44.933
2015    5        4     3   3    4.3211   501.7    4.417      44.909
2015    5        4     3   9    4.3195   501.6    4.416      44.885
2015    5        4     3  15    4.3179   501.5    4.416      44.861
2015    5        4     3  20    4.3162   501.5    4.416      44.837
2015    5        4     3  26    4.3146   501.4    4.416      44.813
2015    5        4     3  32    4.3130   501.3    4.416      44.789
2015    5        4     3  37    4.3113   501.2    4.416      44.765
2015    5        4     3  43    4.3097   501.2    4.416      44.740
2015    5        4     3  49    4.3081   501.1    4.417      44.715
2015    5        4     3  55    4.3064   501.0    4.417      44.691
2015    5        4     4   0    4.3048   501.0    4.417      44.666
2015    5        4     4   6    4.3032   500.9    4.417      44.641
2015    5        4     4  12    4.3015   500.8    4.417      44.616
2015    5        4     4  17    4.2999   500.8    4.417      44.590
2015    5        4     4  23    4.2983   500.7    4.417      44.565
2015    5        4     4  29    4.2967   500.6    4.417      44.540
2015    5        4     4  35    4.2951   500.5    4.417      44.514
2015    5        4     4  40    4.2935   500.5    4.417      44.488
2015    5        4     4  46    4.2919   500.4    4.418      44.462
2015    5        4     4  52    4.2903   500.3    4.418      44.437
2015    5        4     4  57    4.2886   500.2    4.418      44.410
2015    5        4     5   3    4.2870   500.2    4.418      44.384
2015    5        4     5   9    4.2854   500.1    4.418      44.358
2015    5        4     5  15    4.2838   500.0    4.418      44.331
2015    5        4     5  20    4.2821   499.9    4.418      44.304
2015    5        4     5  26    4.2805   499.9    4.418      44.277
2015    5        4     5  32    4.2789   499.8    4.419      44.250
2015    5        4     5  37    4.2773   499.7    4.419      44.222
2015    5        4     5  43    4.2756   499.6    4.419      44.194
2015    5        4     5  49    4.2740   499.5    4.419      44.166
2015    5        4     5  55    4.2724   499.5    4.419      44.137
2015    5        4     6   0    4.2707   499.4    4.419      44.109
2015    5        4     6   6    4.2691   499.3    4.419      44.080
2015    5        4     6  12    4.2675   499.2    4.419      44.051
2015    5        4     6  17    4.2658   499.1    4.418      44.021
2015    5        4     6  23    4.2641   499.1    4.418      43.992
2015    5        4     6  29    4.2625   499.0    4.418      43.962
2015    5        4     6  35    4.2609   498.9    4.418      43.932
2015    5        4     6  40    4.2592   498.8    4.418      43.902
2015    5        4     6  46    4.2576   498.7    4.418      43.872
2015    5        4     6  52    4.2559   498.6    4.418      43.841
2015    5        4     6  57    4.2542   498.6    4.417      43.811
2015    5        4     7   3    4.2526   498.5    4.417      43.780
2015    5        4     7   9    4.2509   498.4    4.417      43.749
2015    5        4     7  15    4.2493   498.3    4.417      43.718
2015    5        4     7  20    4.2476   498.2    4.416      43.686
2015    5        4     7  26    4.2459   498.1    4.416      43.655
2015    5        4     7  32    4.2443   498.1    4.416      43.623
2015    5        4     7  37    4.2426   498.0    4.416      43.591
2015    5        4     7  43    4.2409   497.9    4.415      43.559
2015    5        4     7  49    4.2392   497.8    4.415      43.526
2015    5        4     7  55    4.2375   497.7    4.414      43.494
2015    5        4     8   0    4.2358   497.6    4.414      43.461
2015    5        4     8   6    4.2341   497.5    4.414      43.428
2015    5        4     8  12    4.2324   497.5    4.413      43.395
2015    5        4     8  17    4.2307   497.4    4.413      43.362
2015    5        4     8  23    4.2290   497.3    4.412      43.329
2015    5        4     8  29    4.2273   497.2    4.412      43.296
2015    5        4     8  35    4.2256   497.1    4.411      43.262
2015    5        4     8  40    4.2238   497.0    4.411      43.228
2015    5        4     8  46    4.2221   496.9    4.410      43.194
2015    5        4     8  52    4.2204   496.8    4.410      43.161
2015    5        4     8  57    4.2186   496.7    4.409      43.127
2015    5        4     9   3    4.2169   496.7    4.409      43.092
2015    5        4     9   9    4.2151   496.6    4.408      43.058
2015    5        4     9  14    4.2134   496.5    4.408      43.023
2015    5        4     9  20    4.2116   496.4    4.407      42.989
2015    5        4     9  26    4.2098   496.3    4.407      42.954
2015    5        4     9  32    4.2081   496.2    4.406      42.919
2015    5        4     9  37    4.2063   496.1    4.406      42.884
2015    5        4     9  43    4.2045   496.0    4.405      42.849
2015    5        4     9  49    4.2027   495.9    4.405      42.814
2015    5        4     9  54    4.2009   495.8    4.404      42.779
2015    5        4    10   0    4.1992   495.7    4.404      42.744
2015    5        4    10   6    4.1974   495.6    4.403      42.708
2015    5        4    10  12    4.1956   495.5    4.403      42.673
2015    5        4    10  17    4.1938   495.4    4.403      42.637
2015    5        4    10  23    4.1920   495.3    4.402      42.602
2015    5        4    10  29    4.1902   495.2    4.402      42.566
2015    5        4    10  34    4.1884   495.1    4.402      42.531
2015    5        4    10  40    4.1867   495.0    4.401      42.495
2015    5        4    10  46    4.1849   494.9    4.401      42.459
2015    5        4    10  52    4.1831   494.8    4.401      42.424
2015    5        4    10  57    4.1814   494.7    4.401      42.388
2015    5        4    11   3    4.1796   494.6    4.401      42.353
2015    5        4    11   9    4.1778   494.5    4.401      42.317
2015    5        4    11  14    4.1761   494.4    4.401      42.282
2015    5        4    11  20    4.1743   494.3    4.401      42.247
2015    5        4    11  26    4.1726   494.2    4.401      42.212
2015    5        4    11  32    4.1709   494.1    4.402      42.177
2015    5        4    11  37    4.1692   494.0    4.402      42.142
2015    5        4    11  43    4.1674   493.9    4.402      42.107
2015    5        4    11  49    4.1657   493.8    4.403      42.073
2015    5        4    11  54    4.1640   493.7    4.403      42.039
2015    5        4    12   0    4.1623   493.5    4.404      42.005
2015    5        4    12   6    4.1606   493.4    4.404      41.971
2015    5        4    12  12    4.1589   493.3    4.405      41.937
2015    5        4    12  17    4.1572   493.2    4.406      41.904
2015    5        4    12  23    4.1555   493.1    4.407      41.870
2015    5        4    12  29    4.1538   493.0    4.408      41.837
2015    5        4    12  34    4.1522   492.9    4.408      41.803
2015    5        4    12  40    4.1505   492.8    4.409      41.770
2015    5        4    12  46    4.1488   492.6    4.410      41.737
2015    5        4    12  52    4.1471   492.5    4.411      41.703
2015    5        4    12  57    4.1455   492.4    4.412      41.670
2015    5        4    13   3    4.1438   492.3    4.413      41.637
2015    5        4    13   9    4.1421   492.2    4.414      41.603
2015    5        4    13  14    4.1405   492.1    4.415      41.570
2015    5        4    13  20    4.1388   491.9    4.417      41.537
2015    5        4    13  26    4.1371   491.8    4.418      41.504
2015    5        4    13  32    4.1354   491.7    4.419      41.471
2015    5        4    13  37    4.1338   491.6    4.420      41.437
2015    5        4    13  43    4.1321   491.5    4.421      41.404
2015    5        4    13  49    4.1304   491.3    4.422      41.370
2015    5        4    13  54    4.1288   491.2    4.423      41.337
2015    5        4    14   0    4.1271   491.1    4.424      41.303
2015    5        4    14   6    4.1254   491.0    4.425      41.269
2015    5        4    14  12    4.1238   490.8    4.426      41.235
2015    5        4    14  17    4.1221   490.7    4.427      41.200
2015    5        4    14  23    4.1204   490.6    4.427      41.166
2015    5        4    14  29    4.1187   490.5    4.428      41.131
2015    5        4    14  34    4.1170   490.3    4.429      41.096
2015    5        4    14  40    4.1154   490.2    4.430      41.061
2015    5        4    14  46    4.1137   490.1    4.431      41.026
2015    5        4    14  51    4.1120   490.0    4.431      40.991
2015    5        4    14  57    4.1103   489.8    4.432      40.956
2015    5        4    15   3    4.1087   489.7    4.433      40.920
2015    5        4    15   9    4.1070   489.6    4.433      40.885
2015    5        4    15  14    4.1053   489.5    4.434      40.849
2015    5        4    15  20    4.1037   489.3    4.434      40.813
2015    5        4    15  26    4.1021   489.2    4.435      40.777
2015    5        4    15  31    4.1004   489.1    4.436      40.741
2015    5        4    15  37    4.0988   488.9    4.436      40.704
2015    5        4    15  43    4.0971   488.8    4.437      40.668
2015    5        4    15  49    4.0955   488.7    4.437      40.631
2015    5        4    15  54    4.0938   488.6    4.437      40.594
2015    5        4    16   0    4.0922   488.4    4.438      40.557
2015    5        4    16   6    4.0906   488.3    4.438      40.519
2015    5        4    16  11    4.0890   488.2    4.439      40.482
2015    5        4    16  17    4.0873   488.0    4.439      40.444
2015    5        4    16  23    4.0857   487.9    4.439      40.407
2015    5        4    16  29    4.0841   487.8    4.440      40.368
2015    5        4    16  34    4.0825   487.7    4.440      40.330
2015    5        4    16  40    4.0809   487.5    4.440      40.292
2015    5        4    16  46    4.0793   487.4    4.440      40.254
2015    5        4    16  51    4.0776   487.3    4.440      40.215
2015    5        4    16  57    4.0760   487.1    4.441      40.176
2015    5        4    17   3    4.0744   487.0    4.441      40.137
2015    5        4    17   9    4.0728   486.9    4.441      40.098
2015    5        4    17  14    4.0712   486.7    4.441      40.058
2015    5        4    17  20    4.0696   486.6    4.441      40.018
2015    5        4    17  26    4.0680   486.5    4.441      39.978
2015    5        4    17  31    4.0664   486.3    4.441      39.938
2015    5        4    17  37    4.0648   486.2    4.442      39.898
2015    5        4    17  43    4.0632   486.1    4.442      39.858
2015    5        4    17  49    4.0615   485.9    4.442      39.817
2015    5        4    17  54    4.0599   485.8    4.442      39.776
2015    5        4    18   0    4.0583   485.7    4.442      39.735
2015    5        4    18   6    4.0567   485.5    4.442      39.694
2015    5        4    18  11    4.0551   485.4    4.442      39.653
2015    5        4    18  17    4.0535   485.3    4.442      39.611
2015    5        4    18  23    4.0519   485.1    4.442      39.570
2015    5        4    18  29    4.0503   485.0    4.443      39.529
2015    5        4    18  34    4.0487   484.8    4.443      39.487
2015    5        4    18  40    4.0471   484.7    4.443      39.446
2015    5        4    18  46    4.0455   484.5    4.443      39.405
2015    5        4    18  51    4.0439   484.4    4.444      39.364
2015    5        4    18  57    4.0423   484.3    4.444      39.322
2015    5        4    19   3    4.0408   484.1    4.444      39.281
2015    5        4    19   9    4.0392   484.0    4.445      39.240
2015    5        4    19  14    4.0377   483.8    4.445      39.200
2015    5        4    19  20    4.0361   483.7    4.446      39.159
2015    5        4    19  26    4.0346   483.5    4.446      39.119
2015    5        4    19  31    4.0331   483.4    4.447      39.078
2015    5        4    19  37    4.0316   483.2    4.448      39.038
2015    5        4    19  43    4.0301   483.1    4.449      38.999
2015    5        4    19  49    4.0286   482.9    4.449      38.959
2015    5        4    19  54    4.0271   482.8    4.450      38.920
2015    5        4    20   0    4.0256   482.6    4.451      38.881
2015    5        4    20   6    4.0241   482.5    4.452      38.842
2015    5        4    20  11    4.0227   482.3    4.453      38.804
2015    5        4    20  17    4.0212   482.2    4.454      38.765
2015    5        4    20  23    4.0197   482.0    4.456      38.727
2015    5        4    20  28    4.0183   481.9    4.457      38.690
2015    5        4    20  34    4.0168   481.7    4.458      38.652
2015    5        4    20  40    4.0154   481.6    4.459      38.614
2015    5        4    20  46    4.0139   481.4    4.461      38.577
2015    5        4    20  51    4.0125   481.3    4.462      38.540
2015    5        4    20  57    4.0111   481.1    4.464      38.504
2015    5        4    21   3    4.0096   480.9    4.465      38.467
2015    5        4    21   8    4.0082   480.8    4.467      38.431
2015    5        4    21  14    4.0068   480.6    4.468      38.394
2015    5        4    21  20    4.0054   480.5    4.470      38.358
2015    5        4    21  26    4.0039   480.3    4.471      38.322
2015    5        4    21  31    4.0025   480.1    4.473      38.287
2015    5        4    21  37    4.0011   480.0    4.474      38.251
2015    5        4    21  43    3.9998   479.8    4.476      38.216
2015    5        4    21  48    3.9984   479.7    4.477      38.181
2015    5        4    21  54    3.9970   479.5    4.479      38.146
2015    5        4    22   0    3.9956   479.3    4.481      38.111
2015    5        4    22   6    3.9943   479.2    4.482      38.077
2015    5        4    22  11    3.9929   479.0    4.484      38.042
2015    5        4    22  17    3.9916   478.8    4.486      38.008
2015    5        4    22  23    3.9903   478.7    4.487      37.974
2015    5        4    22  28    3.9889   478.5    4.489      37.940
2015    5        4    22  34    3.9876   478.3    4.491      37.905
2015    5        4    22  40    3.9863   478.2    4.492      37.871
2015    5        4    22  46    3.9850   478.0    4.494      37.837
2015    5        4    22  51    3.9837   477.8    4.496      37.804
2015    5        4    22  57    3.9825   477.7    4.497      37.770
2015    5        4    23   3    3.9812   477.5    4.499      37.736
2015    5        4    23   8    3.9799   477.3    4.500      37.702
2015    5        4    23  14    3.9787   477.2    4.502      37.669
2015    5        4    23  20    3.9775   477.0    4.503      37.635
2015    5        4    23  26    3.9762   476.8    4.505      37.601
2015    5        4    23  31    3.9750   476.7    4.506      37.568
2015    5        4    23  37    3.9738   476.5    4.508      37.534
2015    5        4    23  43    3.9726   476.3    4.509      37.500
2015    5        4    23  48    3.9714   476.2    4.511      37.467
2015    5        4    23  54    3.9702   476.0    4.512      37.433
2015    5        5     0   0    3.9691   475.8    4.514      37.399
2015    5        5     0   6    3.9679   475.7    4.515      37.365
2015    5        5     0  11    3.9668   475.5    4.516      37.332
2015    5        5     0  17    3.9656   475.3    4.518      37.298
2015    5        5     0  23    3.9645   475.2    4.519      37.264
2015    5        5     0  28    3.9634   475.0    4.520      37.230
2015    5        5     0  34    3.9623   474.8    4.521      37.197
2015    5        5     0  40    3.9612   474.6    4.523      37.163
2015    5        5     0  46    3.9601   474.5    4.524      37.129
2015    5        5     0  51    3.9590   474.3    4.525      37.095
2015    5        5     0  57    3.9579   474.1    4.526      37.060
2015    5        5     1   3    3.9569   474.0    4.527      37.026
2015    5        5     1   8    3.9558   473.8    4.528      36.992
2015    5        5     1  14    3.9547   473.6    4.529      36.958
2015    5        5     1  20    3.9537   473.4    4.530      36.924
2015    5        5     1  26    3.9526   473.3    4.532      36.889
2015    5        5     1  31    3.9516   473.1    4.533      36.855
2015    5        5     1  37    3.9505   472.9    4.534      36.820
2015    5        5     1  43    3.9495   472.8    4.535      36.786
2015    5        5     1  48    3.9484   472.6    4.536      36.751
2015    5        5     1  54    3.9474   472.4    4.537      36.716
2015    5        5     2   0    3.9463   472.2    4.538      36.681
2015    5        5     2   5    3.9452   472.1    4.539      36.646
2015    5        5     2  11    3.9442   471.9    4.540      36.611
2015    5        5     2  17    3.9431   471.7    4.541      36.577
2015    5        5     2  23    3.9421   471.5    4.542      36.541
2015    5        5     2  28    3.9410   471.3    4.543      36.506
2015    5        5     2  34    3.9400   471.2    4.544      36.471
2015    5        5     2  40    3.9389   471.0    4.545      36.436
2015    5        5     2  45    3.9379   470.8    4.546      36.401
2015    5        5     2  51    3.9368   470.6    4.548      36.365
2015    5        5     2  57    3.9358   470.5    4.549      36.330
2015    5        5     3   3    3.9347   470.3    4.550      36.295
2015    5        5     3   8    3.9337   470.1    4.551      36.260
2015    5        5     3  14    3.9326   469.9    4.552      36.224
2015    5        5     3  20    3.9316   469.7    4.554      36.189
2015    5        5     3  25    3.9306   469.5    4.555      36.154
2015    5        5     3  31    3.9295   469.4    4.556      36.119
2015    5        5     3  37    3.9285   469.2    4.558      36.084
2015    5        5     3  43    3.9275   469.0    4.559      36.049
2015    5        5     3  48    3.9265   468.8    4.561      36.014
2015    5        5     3  54    3.9255   468.6    4.562      35.979
2015    5        5     4   0    3.9244   468.4    4.564      35.945
2015    5        5     4   5    3.9234   468.3    4.565      35.910
2015    5        5     4  11    3.9224   468.1    4.567      35.876
2015    5        5     4  17    3.9215   467.9    4.569      35.842
2015    5        5     4  23    3.9205   467.7    4.571      35.807
2015    5        5     4  28    3.9195   467.5    4.573      35.773
2015    5        5     4  34    3.9185   467.3    4.574      35.740
2015    5        5     4  40    3.9176   467.1    4.576      35.706
2015    5        5     4  45    3.9166   466.9    4.578      35.673
2015    5        5     4  51    3.9157   466.8    4.581      35.640
2015    5        5     4  57    3.9148   466.6    4.583      35.607
2015    5        5     5   3    3.9138   466.4    4.585      35.574
2015    5        5     5   8    3.9129   466.2    4.587      35.541
2015    5        5     5  14    3.9120   466.0    4.589      35.509
2015    5        5     5  20    3.9112   465.8    4.592      35.477
2015    5        5     5  25    3.9103   465.6    4.594      35.445
2015    5        5     5  31    3.9094   465.4    4.597      35.413
2015    5        5     5  37    3.9085   465.2    4.599      35.382
2015    5        5     5  43    3.9077   465.0    4.602      35.351
2015    5        5     5  48    3.9069   464.9    4.604      35.320
2015    5        5     5  54    3.9061   464.7    4.607      35.289
2015    5        5     6   0    3.9053   464.5    4.610      35.258
2015    5        5     6   5    3.9045   464.3    4.612      35.228
2015    5        5     6  11    3.9037   464.1    4.615      35.198
2015    5        5     6  17    3.9030   463.9    4.618      35.168
2015    5        5     6  23    3.9022   463.7    4.620      35.138
2015    5        5     6  28    3.9015   463.5    4.623      35.109
2015    5        5     6  34    3.9008   463.3    4.626      35.080
2015    5        5     6  40    3.9001   463.1    4.629      35.051
2015    5        5     6  45    3.8994   462.9    4.632      35.022
2015    5        5     6  51    3.8987   462.7    4.634      34.993
2015    5        5     6  57    3.8981   462.5    4.637      34.965
2015    5        5     7   3    3.8975   462.3    4.640      34.937
2015    5        5     7   8    3.8969   462.2    4.643      34.910
2015    5        5     7  14    3.8963   462.0    4.646      34.882
2015    5        5     7  20    3.8957   461.8    4.649      34.855
2015    5        5     7  25    3.8951   461.6    4.652      34.828
2015    5        5     7  31    3.8946   461.4    4.654      34.801
2015    5        5     7  37    3.8941   461.2    4.657      34.775
2015    5        5     7  42    3.8935   461.0    4.660      34.749
2015    5        5     7  48    3.8931   460.8    4.663      34.723
2015    5        5     7  54    3.8926   460.6    4.666      34.697
2015    5        5     8   0    3.8921   460.4    4.669      34.671
2015    5        5     8   5    3.8917   460.2    4.672      34.646
2015    5        5     8  11    3.8912   460.0    4.674      34.621
2015    5        5     8  17    3.8908   459.8    4.677      34.596
2015    5        5     8  22    3.8904   459.6    4.680      34.571
2015    5        5     8  28    3.8900   459.4    4.683      34.547
2015    5        5     8  34    3.8897   459.2    4.686      34.523
2015    5        5     8  40    3.8893   459.0    4.688      34.498
2015    5        5     8  45    3.8889   458.9    4.691      34.474
2015    5        5     8  51    3.8885   458.7    4.694      34.450
2015    5        5     8  57    3.8882   458.5    4.697      34.427
2015    5        5     9   2    3.8878   458.3    4.699      34.403
2015    5        5     9   8    3.8875   458.1    4.702      34.380
2015    5        5     9  14    3.8871   457.9    4.705      34.356
2015    5        5     9  20    3.8868   457.7    4.707      34.333
2015    5        5     9  25    3.8864   457.5    4.710      34.310
2015    5        5     9  31    3.8861   457.3    4.712      34.286
2015    5        5     9  37    3.8857   457.1    4.715      34.263
2015    5        5     9  42    3.8854   456.9    4.717      34.240
2015    5        5     9  48    3.8850   456.7    4.720      34.217
2015    5        5     9  54    3.8847   456.5    4.722      34.194
2015    5        5    10   0    3.8843   456.3    4.725      34.171
2015    5        5    10   5    3.8840   456.1    4.727      34.147
2015    5        5    10  11    3.8836   455.9    4.730      34.124
2015    5        5    10  17    3.8833   455.8    4.732      34.100
2015    5        5    10  22    3.8829   455.6    4.734      34.077
2015    5        5    10  28    3.8825   455.4    4.737      34.053
2015    5        5    10  34    3.8822   455.2    4.739      34.029
2015    5        5    10  40    3.8818   455.0    4.742      34.004
2015    5        5    10  45    3.8815   454.8    4.744      33.979
2015    5        5    10  51    3.8811   454.6    4.746      33.955
2015    5        5    10  57    3.8808   454.4    4.748      33.929
2015    5        5    11   2    3.8804   454.2    4.751      33.904
2015    5        5    11   8    3.8801   454.0    4.753      33.879
2015    5        5    11  14    3.8797   453.8    4.755      33.853
2015    5        5    11  20    3.8794   453.6    4.758      33.827
2015    5        5    11  25    3.8790   453.4    4.760      33.801
2015    5        5    11  31    3.8787   453.2    4.762      33.775
2015    5        5    11  37    3.8784   453.0    4.764      33.749
2015    5        5    11  42    3.8781   452.8    4.767      33.723
2015    5        5    11  48    3.8778   452.6    4.769      33.696
2015    5        5    11  54    3.8775   452.4    4.772      33.670
2015    5        5    12   0    3.8772   452.3    4.774      33.643
2015    5        5    12   5    3.8769   452.1    4.776      33.617
2015    5        5    12  11    3.8766   451.9    4.779      33.590
2015    5        5    12  17    3.8763   451.7    4.781      33.563
2015    5        5    12  22    3.8761   451.5    4.784      33.536
2015    5        5    12  28    3.8759   451.3    4.786      33.510
2015    5        5    12  34    3.8756   451.1    4.789      33.483
2015    5        5    12  40    3.8754   450.9    4.791      33.456
2015    5        5    12  45    3.8752   450.7    4.794      33.429
2015    5        5    12  51    3.8750   450.5    4.797      33.403
2015    5        5    12  57    3.8749   450.3    4.799      33.376
2015    5        5    13   2    3.8747   450.1    4.802      33.350
2015    5        5    13   8    3.8746   449.9    4.805      33.323
2015    5        5    13  14    3.8745   449.7    4.808      33.297
2015    5        5    13  19    3.8744   449.5    4.811      33.271
2015    5        5    13  25    3.8743   449.3    4.814      33.245
2015    5        5    13  31    3.8743   449.1    4.817      33.219
2015    5        5    13  37    3.8742   448.9    4.820      33.193
2015    5        5    13  42    3.8742   448.7    4.823      33.167
2015    5        5    13  48    3.8742   448.5    4.826      33.142
2015    5        5    13  54    3.8742   448.4    4.829      33.116
2015    5        5    13  59    3.8743   448.2    4.832      33.091
2015    5        5    14   5    3.8743   448.0    4.835      33.066
2015    5        5    14  11    3.8744   447.8    4.839      33.041
2015    5        5    14  17    3.8745   447.6    4.842      33.016
2015    5        5    14  22    3.8746   447.4    4.846      32.992
2015    5        5    14  28    3.8748   447.2    4.849      32.967
2015    5        5    14  34    3.8749   447.0    4.853      32.943
2015    5        5    14  39    3.8751   446.8    4.856      32.920
2015    5        5    14  45    3.8754   446.6    4.860      32.896
2015    5        5    14  51    3.8756   446.4    4.863      32.873
2015    5        5    14  57    3.8758   446.2    4.867      32.850
2015    5        5    15   2    3.8761   446.0    4.871      32.827
2015    5        5    15   8    3.8764   445.8    4.875      32.805
2015    5        5    15  14    3.8768   445.6    4.878      32.783
2015    5        5    15  19    3.8771   445.4    4.882      32.761
2015    5        5    15  25    3.8775   445.2    4.886      32.740
2015    5        5    15  31    3.8779   445.0    4.890      32.719
2015    5        5    15  37    3.8783   444.9    4.894      32.698
2015    5        5    15  42    3.8788   444.7    4.898      32.678
2015    5        5    15  48    3.8792   444.5    4.902      32.658
2015    5        5    15  54    3.8797   444.3    4.906      32.638
2015    5        5    15  59    3.8802   444.1    4.911      32.619
2015    5        5    16   5    3.8808   443.9    4.915      32.600
2015    5        5    16  11    3.8813   443.7    4.919      32.582
2015    5        5    16  17    3.8819   443.5    4.923      32.564
2015    5        5    16  22    3.8825   443.3    4.928      32.546
2015    5        5    16  28    3.8831   443.1    4.932      32.529
2015    5        5    16  34    3.8837   442.9    4.936      32.512
2015    5        5    16  39    3.8843   442.7    4.941      32.495
2015    5        5    16  45    3.8850   442.6    4.945      32.479
2015    5        5    16  51    3.8856   442.4    4.950      32.463
2015    5        5    16  57    3.8863   442.2    4.954      32.448
2015    5        5    17   2    3.8870   442.0    4.959      32.433
2015    5        5    17   8    3.8876   441.8    4.963      32.418
2015    5        5    17  14    3.8883   441.6    4.968      32.403
2015    5        5    17  19    3.8889   441.4    4.972      32.389
2015    5        5    17  25    3.8896   441.2    4.977      32.374
2015    5        5    17  31    3.8903   441.0    4.982      32.360
2015    5        5    17  37    3.8910   440.9    4.986      32.346
2015    5        5    17  42    3.8917   440.7    4.991      32.332
2015    5        5    17  48    3.8923   440.5    4.995      32.318
2015    5        5    17  54    3.8930   440.3    5.000      32.303
2015    5        5    17  59    3.8937   440.1    5.004      32.289
2015    5        5    18   5    3.8944   439.9    5.009      32.275
2015    5        5    18  11    3.8951   439.7    5.013      32.261
2015    5        5    18  16    3.8958   439.5    5.018      32.246
2015    5        5    18  22    3.8965   439.4    5.022      32.231
2015    5        5    18  28    3.8972   439.2    5.026      32.217
2015    5        5    18  34    3.8979   439.0    5.031      32.202
2015    5        5    18  39    3.8986   438.8    5.035      32.187
2015    5        5    18  45    3.8994   438.6    5.039      32.172
2015    5        5    18  51    3.9001   438.4    5.043      32.157
2015    5        5    18  56    3.9009   438.2    5.048      32.142
2015    5        5    19   2    3.9016   438.0    5.052      32.127
2015    5        5    19   8    3.9024   437.9    5.056      32.111
2015    5        5    19  14    3.9032   437.7    5.060      32.096
2015    5        5    19  19    3.9039   437.5    5.064      32.080
2015    5        5    19  25    3.9047   437.3    5.068      32.064
2015    5        5    19  31    3.9056   437.1    5.072      32.049
2015    5        5    19  36    3.9064   436.9    5.076      32.033
2015    5        5    19  42    3.9072   436.7    5.080      32.017
2015    5        5    19  48    3.9081   436.6    5.084      32.001
2015    5        5    19  54    3.9090   436.4    5.088      31.985
2015    5        5    19  59    3.9099   436.2    5.091      31.969
2015    5        5    20   5    3.9108   436.0    5.095      31.953
2015    5        5    20  11    3.9117   435.8    5.099      31.936
2015    5        5    20  16    3.9127   435.6    5.103      31.920
2015    5        5    20  22    3.9136   435.4    5.107      31.904
2015    5        5    20  28    3.9146   435.3    5.111      31.887
2015    5        5    20  34    3.9156   435.1    5.114      31.871
2015    5        5    20  39    3.9166   434.9    5.118      31.854
2015    5        5    20  45    3.9177   434.7    5.122      31.837
2015    5        5    20  51    3.9187   434.5    5.126      31.821
2015    5        5    20  56    3.9198   434.4    5.130      31.804
2015    5        5    21   2    3.9209   434.2    5.133      31.787
2015    5        5    21   8    3.9220   434.0    5.137      31.770
2015    5        5    21  14    3.9232   433.8    5.141      31.754
2015    5        5    21  19    3.9243   433.6    5.145      31.737
2015    5        5    21  25    3.9255   433.4    5.149      31.720
2015    5        5    21  31    3.9267   433.3    5.153      31.703
2015    5        5    21  36    3.9279   433.1    5.157      31.686
2015    5        5    21  42    3.9292   432.9    5.161      31.669
2015    5        5    21  48    3.9304   432.7    5.165      31.653
2015    5        5    21  54    3.9317   432.5    5.169      31.636
2015    5        5    21  59    3.9330   432.4    5.173      31.619
2015    5        5    22   5    3.9344   432.2    5.177      31.603
2015    5        5    22  11    3.9357   432.0    5.181      31.587
2015    5        5    22  16    3.9371   431.8    5.186      31.570
2015    5        5    22  22    3.9385   431.6    5.190      31.554
2015    5        5    22  28    3.9399   431.5    5.194      31.538
2015    5        5    22  34    3.9414   431.3    5.199      31.523
2015    5        5    22  39    3.9429   431.1    5.203      31.508
2015    5        5    22  45    3.9444   430.9    5.208      31.492
2015    5        5    22  51    3.9459   430.7    5.213      31.477
2015    5        5    22  56    3.9475   430.6    5.217      31.463
2015    5        5    23   2    3.9491   430.4    5.222      31.449
2015    5        5    23   8    3.9507   430.2    5.227      31.435
2015    5        5    23  14    3.9524   430.0    5.232      31.421
2015    5        5    23  19    3.9540   429.9    5.237      31.408
2015    5        5    23  25    3.9557   429.7    5.242      31.395
2015    5        5    23  31    3.9575   429.5    5.248      31.383
2015    5        5    23  36    3.9592   429.3    5.253      31.371
2015    5        5    23  42    3.9610   429.2    5.259      31.359
2015    5        5    23  48    3.9628   429.0    5.264      31.348
2015    5        5    23  53    3.9647   428.8    5.270      31.338
2015    5        5    23  59    3.9665   428.7    5.275      31.327
2015    5        6     0   5    3.9684   428.5    5.281      31.317
2015    5        6     0  11    3.9703   428.3    5.287      31.308
2015    5        6     0  16    3.9722   428.1    5.293      31.299
2015    5        6     0  22    3.9742   428.0    5.299      31.291
2015    5        6     0  28    3.9761   427.8    5.305      31.283
2015    5        6     0  33    3.9781   427.6    5.312      31.275
2015    5        6     0  39    3.9801   427.5    5.318      31.268
2015    5        6     0  45    3.9821   427.3    5.324      31.261
2015    5        6     0  51    3.9841   427.1    5.331      31.255
2015    5        6     0  56    3.9861   427.0    5.337      31.249
2015    5        6     1   2    3.9881   426.8    5.344      31.244
2015    5        6     1   8    3.9901   426.6    5.350      31.238
2015    5        6     1  13    3.9922   426.5    5.357      31.234
2015    5        6     1  19    3.9943   426.3    5.364      31.229
2015    5        6     1  25    3.9963   426.2    5.370      31.225
2015    5        6     1  31    3.9984   426.0    5.377      31.222
2015    5        6     1  36    4.0005   425.8    5.384      31.218
2015    5        6     1  42    4.0026   425.7    5.391      31.215
2015    5        6     1  48    4.0047   425.5    5.398      31.213
2015    5        6     1  53    4.0069   425.3    5.405      31.210
2015    5        6     1  59    4.0091   425.2    5.412      31.208
2015    5        6     2   5    4.0112   425.0    5.419      31.206
2015    5        6     2  11    4.0134   424.9    5.426      31.205
2015    5        6     2  16    4.0156   424.7    5.433      31.203
2015    5        6     2  22    4.0179   424.5    5.440      31.202
2015    5        6     2  28    4.0201   424.4    5.447      31.201
2015    5        6     2  33    4.0224   424.2    5.454      31.201
2015    5        6     2  39    4.0246   424.1    5.461      31.200
2015    5        6     2  45    4.0269   423.9    5.468      31.200
2015    5        6     2  51    4.0292   423.7    5.475      31.200
2015    5        6     2  56    4.0316   423.6    5.482      31.201
2015    5        6     3   2    4.0339   423.4    5.489      31.201
2015    5        6     3   8    4.0363   423.3    5.496      31.201
2015    5        6     3  13    4.0386   423.1    5.503      31.202
2015    5        6     3  19    4.0410   423.0    5.510      31.203
2015    5        6     3  25    4.0435   422.8    5.517      31.204
2015    5        6     3  31    4.0459   422.6    5.524      31.205
2015    5        6     3  36    4.0483   422.5    5.531      31.206
2015    5        6     3  42    4.0508   422.3    5.538      31.207
2015    5        6     3  48    4.0533   422.2    5.545      31.209
2015    5        6     3  53    4.0558   422.0    5.552      31.210
2015    5        6     3  59    4.0583   421.9    5.559      31.211
2015    5        6     4   5    4.0609   421.7    5.566      31.213
2015    5        6     4  11    4.0634   421.6    5.572      31.214
2015    5        6     4  16    4.0660   421.4    5.579      31.215
2015    5        6     4  22    4.0686   421.3    5.586      31.217
2015    5        6     4  28    4.0712   421.1    5.593      31.218
2015    5        6     4  33    4.0738   421.0    5.600      31.220
2015    5        6     4  39    4.0765   420.8    5.607      31.221
2015    5        6     4  45    4.0792   420.7    5.613      31.223
2015    5        6     4  50    4.0818   420.5    5.620      31.224
2015    5        6     4  56    4.0846   420.4    5.627      31.226
2015    5        6     5   2    4.0873   420.2    5.634      31.227
2015    5        6     5   8    4.0901   420.1    5.641      31.229
2015    5        6     5  13    4.0929   419.9    5.648      31.231
2015    5        6     5  19    4.0957   419.8    5.655      31.233
2015    5        6     5  25    4.0985   419.6    5.662      31.235
2015    5        6     5  30    4.1014   419.5    5.669      31.238
2015    5        6     5  36    4.1043   419.3    5.676      31.240
2015    5        6     5  42    4.1072   419.2    5.683      31.243
2015    5        6     5  48    4.1102   419.0    5.690      31.245
2015    5        6     5  53    4.1132   418.9    5.697      31.249
2015    5        6     5  59    4.1162   418.7    5.704      31.252
2015    5        6     6   5    4.1193   418.6    5.712      31.256
2015    5        6     6  10    4.1224   418.5    5.719      31.259
2015    5        6     6  16    4.1255   418.3    5.727      31.264
2015    5        6     6  22    4.1287   418.2    5.734      31.268
2015    5        6     6  28    4.1319   418.0    5.742      31.273
2015    5        6     6  33    4.1351   417.9    5.749      31.278
2015    5        6     6  39    4.1384   417.8    5.757      31.283
2015    5        6     6  45    4.1417   417.6    5.765      31.289
2015    5        6     6  50    4.1451   417.5    5.773      31.296
2015    5        6     6  56    4.1484   417.4    5.781      31.302
2015    5        6     7   2    4.1518   417.2    5.789      31.309
2015    5        6     7   8    4.1552   417.1    5.796      31.316
2015    5        6     7  13    4.1586   417.0    5.804      31.324
2015    5        6     7  19    4.1621   416.9    5.812      31.331
2015    5        6     7  25    4.1655   416.7    5.820      31.339
2015    5        6     7  30    4.1690   416.6    5.828      31.347
2015    5        6     7  36    4.1725   416.5    5.836      31.355
2015    5        6     7  42    4.1760   416.4    5.845      31.363
2015    5        6     7  48    4.1796   416.2    5.853      31.371
2015    5        6     7  53    4.1831   416.1    5.861      31.379
2015    5        6     7  59    4.1867   416.0    5.869      31.388
2015    5        6     8   5    4.1903   415.9    5.877      31.396
2015    5        6     8  10    4.1939   415.8    5.885      31.405
2015    5        6     8  16    4.1975   415.6    5.894      31.414
2015    5        6     8  22    4.2011   415.5    5.902      31.423
2015    5        6     8  28    4.2048   415.4    5.910      31.432
2015    5        6     8  33    4.2085   415.3    5.919      31.442
2015    5        6     8  39    4.2122   415.2    5.927      31.451
2015    5        6     8  45    4.2159   415.1    5.936      31.461
2015    5        6     8  50    4.2196   415.0    5.944      31.471
2015    5        6     8  56    4.2234   414.8    5.953      31.481
2015    5        6     9   2    4.2271   414.7    5.962      31.491
2015    5        6     9   8    4.2309   414.6    5.970      31.502
2015    5        6     9  13    4.2347   414.5    5.979      31.512
2015    5        6     9  19    4.2386   414.4    5.988      31.523
2015    5        6     9  25    4.2424   414.3    5.997      31.534
2015    5        6     9  30    4.2463   414.2    6.005      31.546
2015    5        6     9  36    4.2502   414.1    6.014      31.557
2015    5        6     9  42    4.2541   414.0    6.023      31.569
2015    5        6     9  48    4.2580   413.9    6.032      31.581
2015    5        6     9  53    4.2620   413.8    6.041      31.593
2015    5        6     9  59    4.2660   413.7    6.050      31.606
2015    5        6    10   5    4.2700   413.6    6.059      31.619
2015    5        6    10  10    4.2740   413.5    6.069      31.632
2015    5        6    10  16    4.2780   413.4    6.078      31.645
2015    5        6    10  22    4.2821   413.3    6.087      31.659
2015    5        6    10  27    4.2862   413.2    6.096      31.673
2015    5        6    10  33    4.2903   413.1    6.106      31.687
2015    5        6    10  39    4.2945   413.0    6.115      31.701
2015    5        6    10  45    4.2986   412.9    6.125      31.716
2015    5        6    10  50    4.3028   412.8    6.134      31.731
2015    5        6    10  56    4.3070   412.7    6.144      31.747
2015    5        6    11   2    4.3113   412.6    6.154      31.763
2015    5        6    11   7    4.3155   412.5    6.163      31.779
2015    5        6    11  13    4.3198   412.4    6.173      31.796
2015    5        6    11  19    4.3241   412.3    6.182      31.813
2015    5        6    11  25    4.3284   412.2    6.192      31.831
2015    5        6    11  30    4.3326   412.1    6.202      31.850
2015    5        6    11  36    4.3369   412.0    6.211      31.870
2015    5        6    11  42    4.3412   412.0    6.220      31.890
2015    5        6    11  47    4.3455   411.9    6.230      31.911
2015    5        6    11  53    4.3498   411.8    6.239      31.932
2015    5        6    11  59    4.3541   411.7    6.248      31.954
2015    5        6    12   5    4.3584   411.6    6.257      31.976
2015    5        6    12  10    4.3627   411.6    6.266      31.999
2015    5        6    12  16    4.3670   411.5    6.275      32.022
2015    5        6    12  22    4.3714   411.4    6.284      32.045
2015    5        6    12  27    4.3757   411.3    6.293      32.069
2015    5        6    12  33    4.3800   411.2    6.302      32.093
2015    5        6    12  39    4.3844   411.2    6.311      32.117
2015    5        6    12  45    4.3888   411.1    6.320      32.141
2015    5        6    12  50    4.3932   411.0    6.328      32.165
2015    5        6    12  56    4.3976   410.9    6.337      32.190
2015    5        6    13   2    4.4021   410.9    6.346      32.214
2015    5        6    13   7    4.4065   410.8    6.355      32.239
2015    5        6    13  13    4.4110   410.7    6.364      32.264
2015    5        6    13  19    4.4155   410.6    6.372      32.288
2015    5        6    13  25    4.4200   410.6    6.381      32.313
2015    5        6    13  30    4.4245   410.5    6.390      32.338
2015    5        6    13  36    4.4291   410.4    6.399      32.363
2015    5        6    13  42    4.4337   410.4    6.408      32.388
2015    5        6    13  47    4.4383   410.3    6.417      32.413
2015    5        6    13  53    4.4430   410.2    6.426      32.438
2015    5        6    13  59    4.4476   410.2    6.435      32.464
2015    5        6    14   5    4.4523   410.1    6.443      32.489
2015    5        6    14  10    4.4570   410.0    6.452      32.515
2015    5        6    14  16    4.4618   410.0    6.461      32.540
2015    5        6    14  22    4.4665   409.9    6.470      32.566
2015    5        6    14  27    4.4713   409.9    6.479      32.591
2015    5        6    14  33    4.4760   409.8    6.488      32.617
2015    5        6    14  39    4.4808   409.7    6.497      32.642
2015    5        6    14  45    4.4856   409.7    6.505      32.667
2015    5        6    14  50    4.4905   409.6    6.514      32.692
2015    5        6    14  56    4.4953   409.6    6.523      32.717
2015    5        6    15   2    4.5002   409.5    6.532      32.742
2015    5        6    15   7    4.5051   409.5    6.541      32.766
2015    5        6    15  13    4.5100   409.4    6.550      32.791
2015    5        6    15  19    4.5150   409.4    6.559      32.816
2015    5        6    15  24    4.5200   409.3    6.568      32.840
2015    5        6    15  30    4.5249   409.3    6.577      32.864
2015    5        6    15  36    4.5300   409.2    6.586      32.889
2015    5        6    15  42    4.5350   409.2    6.595      32.913
2015    5        6    15  47    4.5401   409.1    6.604      32.937
2015    5        6    15  53    4.5452   409.1    6.614      32.962
2015    5        6    15  59    4.5503   409.0    6.623      32.986
2015    5        6    16   4    4.5555   409.0    6.633      33.010
2015    5        6    16  10    4.5607   408.9    6.642      33.035
2015    5        6    16  16    4.5659   408.9    6.652      33.059
2015    5        6    16  22    4.5711   408.9    6.662      33.084
2015    5        6    16  27    4.5764   408.8    6.672      33.108
2015    5        6    16  33    4.5817   408.8    6.682      33.133
2015    5        6    16  39    4.5870   408.7    6.692      33.157
2015    5        6    16  44    4.5924   408.7    6.702      33.182
2015    5        6    16  50    4.5977   408.7    6.712      33.208
2015    5        6    16  56    4.6031   408.6    6.723      33.234
2015    5        6    17   2    4.6085   408.6    6.733      33.261
2015    5        6    17   7    4.6139   408.6    6.744      33.288
2015    5        6    17  13    4.6193   408.5    6.755      33.316
2015    5        6    17  19    4.6247   408.5    6.765      33.344
2015    5        6    17  24    4.6301   408.5    6.776      33.373
2015    5        6    17  30    4.6355   408.5    6.787      33.403
2015    5        6    17  36    4.6409   408.4    6.797      33.433
2015    5        6    17  42    4.6463   408.4    6.808      33.464
2015    5        6    17  47    4.6517   408.4    6.818      33.496
2015    5        6    17  53    4.6571   408.4    6.829      33.528
2015    5        6    17  59    4.6625   408.4    6.839      33.561
2015    5        6    18   4    4.6679   408.4    6.849      33.595
2015    5        6    18  10    4.6733   408.3    6.860      33.629
2015    5        6    18  16    4.6786   408.3    6.870      33.663
2015    5        6    18  22    4.6840   408.3    6.880      33.699
2015    5        6    18  27    4.6893   408.3    6.889      33.734
2015    5        6    18  33    4.6946   408.3    6.899      33.769
2015    5        6    18  39    4.6999   408.3    6.908      33.805
2015    5        6    18  44    4.7052   408.3    6.918      33.841
2015    5        6    18  50    4.7104   408.3    6.927      33.877
2015    5        6    18  56    4.7156   408.3    6.936      33.913
2015    5        6    19   2    4.7208   408.3    6.944      33.950
2015    5        6    19   7    4.7260   408.3    6.953      33.987
2015    5        6    19  13    4.7312   408.3    6.961      34.024
2015    5        6    19  19    4.7363   408.3    6.969      34.060
2015    5        6    19  24    4.7415   408.3    6.977      34.097
2015    5        6    19  30    4.7466   408.3    6.985      34.134
2015    5        6    19  36    4.7517   408.3    6.993      34.171
2015    5        6    19  42    4.7568   408.3    7.001      34.207
2015    5        6    19  47    4.7619   408.3    7.008      34.244
2015    5        6    19  53    4.7669   408.3    7.015      34.280
2015    5        6    19  59    4.7720   408.3    7.023      34.316
2015    5        6    20   4    4.7771   408.3    7.030      34.352
2015    5        6    20  10    4.7822   408.3    7.037      34.387
2015    5        6    20  16    4.7872   408.3    7.044      34.422
2015    5        6    20  22    4.7923   408.3    7.051      34.458
2015    5        6    20  27    4.7973   408.3    7.057      34.492
2015    5        6    20  33    4.8024   408.3    7.064      34.527
2015    5        6    20  39    4.8075   408.3    7.071      34.561
2015    5        6    20  44    4.8125   408.3    7.077      34.595
2015    5        6    20  50    4.8176   408.3    7.084      34.629
2015    5        6    20  56    4.8227   408.3    7.090      34.662
2015    5        6    21   1    4.8278   408.3    7.097      34.696
2015    5        6    21   7    4.8329   408.3    7.103      34.728
2015    5        6    21  13    4.8380   408.4    7.110      34.761
2015    5        6    21  19    4.8431   408.4    7.116      34.794
2015    5        6    21  24    4.8482   408.4    7.122      34.827
2015    5        6    21  30    4.8534   408.4    7.129      34.859
2015    5        6    21  36    4.8586   408.4    7.135      34.891
2015    5        6    21  41    4.8637   408.4    7.141      34.923
2015    5        6    21  47    4.8689   408.4    7.148      34.955
2015    5        6    21  53    4.8741   408.4    7.154      34.987
2015    5        6    21  59    4.8794   408.4    7.160      35.019
2015    5        6    22   4    4.8846   408.4    7.167      35.051
2015    5        6    22  10    4.8899   408.4    7.173      35.083
2015    5        6    22  16    4.8952   408.5    7.179      35.115
2015    5        6    22  21    4.9006   408.5    7.186      35.147
2015    5        6    22  27    4.9059   408.5    7.193      35.179
2015    5        6    22  33    4.9113   408.5    7.199      35.212
2015    5        6    22  39    4.9167   408.5    7.206      35.244
2015    5        6    22  44    4.9222   408.5    7.213      35.277
2015    5        6    22  50    4.9277   408.6    7.220      35.310
2015    5        6    22  56    4.9332   408.6    7.227      35.343
2015    5        6    23   1    4.9387   408.6    7.234      35.377
2015    5        6    23   7    4.9443   408.6    7.241      35.411
2015    5        6    23  13    4.9498   408.6    7.249      35.445
2015    5        6    23  19    4.9554   408.7    7.256      35.479
2015    5        6    23  24    4.9611   408.7    7.264      35.514
2015    5        6    23  30    4.9668   408.7    7.272      35.549
2015    5        6    23  36    4.9725   408.7    7.280      35.585
2015    5        6    23  41    4.9782   408.8    7.289      35.621
2015    5        6    23  47    4.9839   408.8    7.297      35.657
2015    5        6    23  53    4.9897   408.8    7.306      35.694
2015    5        6    23  59    4.9954   408.9    7.315      35.731
2015    5        7     0   4    5.0012   408.9    7.324      35.769
2015    5        7     0  10    5.0069   408.9    7.333      35.808
2015    5        7     0  16    5.0127   409.0    7.342      35.847
2015    5        7     0  21    5.0184   409.0    7.352      35.888
2015    5        7     0  27    5.0241   409.0    7.362      35.929
2015    5        7     0  33    5.0298   409.1    7.371      35.972
2015    5        7     0  39    5.0355   409.1    7.381      36.015
2015    5        7     0  44    5.0411   409.2    7.391      36.058
2015    5        7     0  50    5.0467   409.2    7.401      36.103
2015    5        7     0  56    5.0523   409.3    7.411      36.148
2015    5        7     1   1    5.0579   409.3    7.421      36.194
2015    5        7     1   7    5.0634   409.4    7.431      36.242
2015    5        7     1  13    5.0688   409.4    7.440      36.291
2015    5        7     1  19    5.0743   409.5    7.450      36.340
2015    5        7     1  24    5.0797   409.5    7.460      36.390
2015    5        7     1  30    5.0850   409.6    7.469      36.441
2015    5        7     1  36    5.0904   409.7    7.479      36.492
2015    5        7     1  41    5.0957   409.7    7.488      36.544
2015    5        7     1  47    5.1009   409.8    7.497      36.595
2015    5        7     1  53    5.1061   409.8    7.506      36.647
2015    5        7     1  59    5.1113   409.9    7.515      36.699
2015    5        7     2   4    5.1165   410.0    7.523      36.752
2015    5        7     2  10    5.1216   410.0    7.532      36.804
2015    5        7     2  16    5.1267   410.1    7.540      36.857
2015    5        7     2  21    5.1317   410.2    7.548      36.910
2015    5        7     2  27    5.1367   410.2    7.555      36.962
2015    5        7     2  33    5.1417   410.3    7.563      37.014
2015    5        7     2  38    5.1467   410.4    7.570      37.066
2015    5        7     2  44    5.1517   410.4    7.577      37.116
2015    5        7     2  50    5.1566   410.5    7.583      37.167
2015    5        7     2  56    5.1615   410.6    7.590      37.216
2015    5        7     3   1    5.1664   410.6    7.596      37.265
2015    5        7     3   7    5.1712   410.7    7.602      37.314
2015    5        7     3  13    5.1761   410.8    7.608      37.362
2015    5        7     3  18    5.1809   410.8    7.613      37.410
2015    5        7     3  24    5.1857   410.9    7.619      37.457
2015    5        7     3  30    5.1905   411.0    7.624      37.503
2015    5        7     3  36    5.1953   411.1    7.629      37.549
2015    5        7     3  41    5.2001   411.1    7.634      37.595
2015    5        7     3  47    5.2049   411.2    7.639      37.640
2015    5        7     3  53    5.2096   411.3    7.643      37.684
2015    5        7     3  58    5.2144   411.4    7.648      37.728
2015    5        7     4   4    5.2192   411.4    7.652      37.772
2015    5        7     4  10    5.2239   411.5    7.656      37.816
2015    5        7     4  16    5.2287   411.6    7.660      37.859
2015    5        7     4  21    5.2334   411.7    7.664      37.901
2015    5        7     4  27    5.2381   411.7    7.668      37.943
2015    5        7     4  33    5.2429   411.8    7.672      37.985
2015    5        7     4  38    5.2476   411.9    7.675      38.027
2015    5        7     4  44    5.2523   412.0    7.678      38.068
2015    5        7     4  50    5.2570   412.1    7.682      38.109
2015    5        7     4  56    5.2617   412.1    7.685      38.149
2015    5        7     5   1    5.2664   412.2    7.688      38.190
2015    5        7     5   7    5.2711   412.3    7.691      38.230
2015    5        7     5  13    5.2758   412.4    7.694      38.269
2015    5        7     5  18    5.2805   412.5    7.697      38.309
2015    5        7     5  24    5.2851   412.6    7.699      38.349
2015    5        7     5  30    5.2898   412.6    7.702      38.388
2015    5        7     5  36    5.2945   412.7    7.705      38.427
2015    5        7     5  41    5.2992   412.8    7.707      38.467
2015    5        7     5  47    5.3038   412.9    7.710      38.506
2015    5        7     5  53    5.3085   413.0    7.712      38.545
2015    5        7     5  58    5.3132   413.1    7.715      38.584
2015    5        7     6   4    5.3178   413.2    7.717      38.623
2015    5        7     6  10    5.3225   413.3    7.720      38.663
2015    5        7     6  16    5.3272   413.4    7.722      38.702
2015    5        7     6  21    5.3318   413.5    7.724      38.741
2015    5        7     6  27    5.3365   413.6    7.727      38.781
2015    5        7     6  33    5.3411   413.7    7.729      38.821
2015    5        7     6  38    5.3458   413.8    7.732      38.860
2015    5        7     6  44    5.3504   413.9    7.734      38.900
2015    5        7     6  50    5.3551   414.0    7.737      38.940
2015    5        7     6  56    5.3597   414.1    7.739      38.980
2015    5        7     7   1    5.3643   414.2    7.742      39.021
2015    5        7     7   7    5.3689   414.3    7.745      39.061
2015    5        7     7  13    5.3735   414.4    7.747      39.102
2015    5        7     7  18    5.3781   414.5    7.750      39.143
2015    5        7     7  24    5.3827   414.6    7.753      39.184
2015    5        7     7  30    5.3873   414.7    7.756      39.225
2015    5        7     7  35    5.3919   414.8    7.759      39.267
2015    5        7     7  41    5.3964   414.9    7.762      39.308
2015    5        7     7  47    5.4009   415.0    7.766      39.350
2015    5        7     7  53    5.4055   415.1    7.769      39.392
2015    5        7     7  58    5.4100   415.2    7.772      39.434
2015    5        7     8   4    5.4144   415.3    7.776      39.475
2015    5        7     8  10    5.4189   415.4    7.780      39.518
2015    5        7     8  15    5.4233   415.5    7.784      39.560
2015    5        7     8  21    5.4277   415.6    7.788      39.604
2015    5        7     8  27    5.4321   415.7    7.792      39.647
2015    5        7     8  33    5.4365   415.9    7.796      39.691
2015    5        7     8  38    5.4408   416.0    7.800      39.736
2015    5        7     8  44    5.4451   416.1    7.804      39.781
2015    5        7     8  50    5.4494   416.2    7.808      39.827
2015    5        7     8  55    5.4536   416.3    7.813      39.873
2015    5        7     9   1    5.4579   416.4    7.817      39.919
2015    5        7     9   7    5.4620   416.5    7.821      39.967
2015    5        7     9  13    5.4662   416.6    7.825      40.015
2015    5        7     9  18    5.4703   416.8    7.830      40.063
2015    5        7     9  24    5.4744   416.9    7.834      40.112
2015    5        7     9  30    5.4784   417.0    7.838      40.162
2015    5        7     9  35    5.4825   417.1    7.841      40.212
2015    5        7     9  41    5.4864   417.2    7.845      40.263
2015    5        7     9  47    5.4904   417.3    7.849      40.313
2015    5        7     9  53    5.4943   417.5    7.853      40.363
2015    5        7     9  58    5.4981   417.6    7.856      40.413
2015    5        7    10   4    5.5020   417.7    7.860      40.462
2015    5        7    10  10    5.5058   417.8    7.863      40.512
2015    5        7    10  15    5.5095   417.9    7.866      40.562
2015    5        7    10  21    5.5133   418.0    7.869      40.612
2015    5        7    10  27    5.5170   418.2    7.873      40.661
2015    5        7    10  33    5.5207   418.3    7.876      40.711
2015    5        7    10  38    5.5243   418.4    7.879      40.760
2015    5        7    10  44    5.5279   418.5    7.882      40.810
2015    5        7    10  50    5.5315   418.6    7.884      40.860
2015    5        7    10  55    5.5351   418.8    7.887      40.910
2015    5        7    11   1    5.5386   418.9    7.890      40.959
2015    5        7    11   7    5.5422   419.0    7.892      41.009
2015    5        7    11  13    5.5456   419.1    7.895      41.059
2015    5        7    11  18    5.5491   419.3    7.897      41.109
2015    5        7    11  24    5.5526   419.4    7.899      41.158
2015    5        7    11  30    5.5560   419.5    7.901      41.207
2015    5        7    11  35    5.5594   419.6    7.902      41.256
2015    5        7    11  41    5.5627   419.8    7.903      41.303
2015    5        7    11  47    5.5660   419.9    7.905      41.350
2015    5        7    11  53    5.5693   420.0    7.906      41.397
2015    5        7    11  58    5.5726   420.1    7.906      41.443
2015    5        7    12   4    5.5758   420.3    7.907      41.488
2015    5        7    12  10    5.5790   420.4    7.908      41.533
2015    5        7    12  15    5.5822   420.5    7.908      41.577
2015    5        7    12  21    5.5854   420.7    7.908      41.621
2015    5        7    12  27    5.5885   420.8    7.908      41.664
2015    5        7    12  32    5.5916   420.9    7.908      41.707
2015    5        7    12  38    5.5946   421.1    7.908      41.749
2015    5        7    12  44    5.5977   421.2    7.908      41.791
2015    5        7    12  50    5.6007   421.3    7.907      41.832
2015    5        7    12  55    5.6037   421.5    7.907      41.873
2015    5        7    13   1    5.6067   421.6    7.906      41.914
2015    5        7    13   7    5.6096   421.7    7.906      41.954
2015    5        7    13  12    5.6126   421.9    7.905      41.994
2015    5        7    13  18    5.6155   422.0    7.904      42.034
2015    5        7    13  24    5.6184   422.2    7.904      42.074
2015    5        7    13  30    5.6213   422.3    7.903      42.113
2015    5        7    13  35    5.6243   422.4    7.902      42.153
2015    5        7    13  41    5.6272   422.6    7.901      42.192
2015    5        7    13  47    5.6301   422.7    7.901      42.231
2015    5        7    13  52    5.6331   422.9    7.900      42.271
2015    5        7    13  58    5.6360   423.0    7.899      42.310
2015    5        7    14   4    5.6390   423.1    7.899      42.349
2015    5        7    14  10    5.6420   423.3    7.898      42.389
2015    5        7    14  15    5.6450   423.4    7.898      42.429
2015    5        7    14  21    5.6481   423.6    7.898      42.469
2015    5        7    14  27    5.6512   423.7    7.898      42.509
2015    5        7    14  32    5.6543   423.9    7.898      42.550
2015    5        7    14  38    5.6575   424.0    7.898      42.592
2015    5        7    14  44    5.6606   424.2    7.898      42.635
2015    5        7    14  50    5.6638   424.3    7.899      42.680
2015    5        7    14  55    5.6669   424.5    7.899      42.725
2015    5        7    15   1    5.6701   424.7    7.900      42.771
2015    5        7    15   7    5.6732   424.8    7.900      42.818
2015    5        7    15  12    5.6763   425.0    7.901      42.865
2015    5        7    15  18    5.6795   425.2    7.901      42.913
2015    5        7    15  24    5.6826   425.3    7.902      42.960
2015    5        7    15  30    5.6857   425.5    7.902      43.007
2015    5        7    15  35    5.6888   425.7    7.903      43.054
2015    5        7    15  41    5.6920   425.8    7.904      43.102
2015    5        7    15  47    5.6951   426.0    7.905      43.149
2015    5        7    15  52    5.6983   426.1    7.906      43.196
2015    5        7    15  58    5.7015   426.3    7.907      43.244
2015    5        7    16   4    5.7046   426.5    7.908      43.292
2015    5        7    16  10    5.7078   426.7    7.910      43.342
2015    5        7    16  15    5.7110   426.8    7.911      43.393
2015    5        7    16  21    5.7141   427.0    7.912      43.445
2015    5        7    16  27    5.7172   427.2    7.913      43.498
2015    5        7    16  32    5.7203   427.4    7.914      43.553
2015    5        7    16  38    5.7233   427.6    7.915      43.609
2015    5        7    16  44    5.7262   427.7    7.916      43.665
2015    5        7    16  50    5.7291   427.9    7.917      43.721
2015    5        7    16  55    5.7320   428.1    7.917      43.776
2015    5        7    17   1    5.7348   428.3    7.917      43.831
2015    5        7    17   7    5.7375   428.5    7.917      43.885
2015    5        7    17  12    5.7402   428.7    7.917      43.939
2015    5        7    17  18    5.7428   428.9    7.917      43.993
2015    5        7    17  24    5.7454   429.1    7.916      44.047
2015    5        7    17  30    5.7479   429.2    7.915      44.100
2015    5        7    17  35    5.7504   429.4    7.914      44.152
2015    5        7    17  41    5.7528   429.6    7.913      44.204
2015    5        7    17  47    5.7552   429.8    7.912      44.255
2015    5        7    17  52    5.7576   430.0    7.911      44.307
2015    5        7    17  58    5.7599   430.2    7.909      44.358
2015    5        7    18   4    5.7622   430.4    7.907      44.409
2015    5        7    18   9    5.7645   430.6    7.906      44.460
2015    5        7    18  15    5.7667   430.7    7.903      44.510
2015    5        7    18  21    5.7689   430.9    7.901      44.560
2015    5        7    18  27    5.7711   431.1    7.899      44.610
2015    5        7    18  32    5.7732   431.3    7.896      44.659
2015    5        7    18  38    5.7754   431.5    7.893      44.708
2015    5        7    18  44    5.7775   431.7    7.890      44.755
2015    5        7    18  49    5.7796   431.9    7.887      44.802
2015    5        7    18  55    5.7816   432.1    7.883      44.849
2015    5        7    19   1    5.7837   432.3    7.880      44.894
2015    5        7    19   7    5.7857   432.5    7.876      44.938
2015    5        7    19  12    5.7877   432.7    7.872      44.982
2015    5        7    19  18    5.7896   432.9    7.868      45.025
2015    5        7    19  24    5.7915   433.1    7.864      45.067
2015    5        7    19  29    5.7934   433.3    7.859      45.109
2015    5        7    19  35    5.7953   433.5    7.855      45.150
2015    5        7    19  41    5.7972   433.7    7.850      45.190
2015    5        7    19  47    5.7990   433.9    7.846      45.229
2015    5        7    19  52    5.8008   434.1    7.841      45.268
2015    5        7    19  58    5.8026   434.2    7.836      45.306
2015    5        7    20   4    5.8044   434.4    7.831      45.344
2015    5        7    20   9    5.8062   434.6    7.826      45.382
2015    5        7    20  15    5.8079   434.8    7.821      45.419
2015    5        7    20  21    5.8097   435.0    7.816      45.455
2015    5        7    20  27    5.8114   435.2    7.811      45.492
2015    5        7    20  32    5.8131   435.4    7.806      45.528
2015    5        7    20  38    5.8148   435.6    7.801      45.563
2015    5        7    20  44    5.8166   435.8    7.796      45.599
2015    5        7    20  49    5.8183   436.0    7.792      45.634
2015    5        7    20  55    5.8201   436.2    7.787      45.669
2015    5        7    21   1    5.8218   436.4    7.782      45.703
2015    5        7    21   7    5.8236   436.6    7.777      45.738
2015    5        7    21  12    5.8255   436.8    7.773      45.772
2015    5        7    21  18    5.8273   437.0    7.768      45.806
2015    5        7    21  24    5.8292   437.1    7.764      45.840
2015    5        7    21  29    5.8312   437.3    7.760      45.873
2015    5        7    21  35    5.8332   437.5    7.756      45.907
2015    5        7    21  41    5.8352   437.7    7.753      45.942
2015    5        7    21  47    5.8372   437.9    7.749      45.977
2015    5        7    21  52    5.8392   438.1    7.745      46.013
2015    5        7    21  58    5.8412   438.3    7.742      46.050
2015    5        7    22   4    5.8432   438.6    7.738      46.088
2015    5        7    22   9    5.8452   438.8    7.735      46.127
2015    5        7    22  15    5.8471   439.0    7.731      46.166
2015    5        7    22  21    5.8490   439.2    7.728      46.206
2015    5        7    22  27    5.8509   439.4    7.724      46.246
2015    5        7    22  32    5.8527   439.6    7.721      46.285
2015    5        7    22  38    5.8545   439.8    7.718      46.323
2015    5        7    22  44    5.8563   440.0    7.715      46.362
2015    5        7    22  49    5.8581   440.2    7.711      46.400
2015    5        7    22  55    5.8599   440.4    7.708      46.437
2015    5        7    23   1    5.8617   440.6    7.706      46.474
2015    5        7    23   6    5.8636   440.8    7.703      46.510
2015    5        7    23  12    5.8654   441.0    7.700      46.547
2015    5        7    23  18    5.8672   441.2    7.697      46.585
2015    5        7    23  24    5.8690   441.4    7.694      46.623
2015    5        7    23  29    5.8707   441.7    7.692      46.663
2015    5        7    23  35    5.8724   441.9    7.688      46.704
2015    5        7    23  41    5.8740   442.1    7.685      46.745
2015    5        7    23  46    5.8754   442.3    7.681      46.788
2015    5        7    23  52    5.8768   442.6    7.678      46.830
2015    5        7    23  58    5.8781   442.8    7.673      46.873
2015    5        8     0   4    5.8793   443.0    7.669      46.914
2015    5        8     0   9    5.8803   443.2    7.664      46.955
2015    5        8     0  15    5.8813   443.5    7.658      46.995
2015    5        8     0  21    5.8821   443.7    7.652      47.034
2015    5        8     0  26    5.8828   443.9    7.646      47.072
2015    5        8     0  32    5.8834   444.2    7.640      47.110
2015    5        8     0  38    5.8839   444.4    7.633      47.146
2015    5        8     0  44    5.8842   444.6    7.626      47.182
2015    5        8     0  49    5.8845   444.8    7.619      47.217
2015    5        8     0  55    5.8847   445.1    7.611      47.251
2015    5        8     1   1    5.8848   445.3    7.603      47.284
2015    5        8     1   6    5.8848   445.5    7.595      47.317
2015    5        8     1  12    5.8847   445.8    7.586      47.348
2015    5        8     1  18    5.8845   446.0    7.578      47.379
2015    5        8     1  24    5.8842   446.2    7.569      47.408
2015    5        8     1  29    5.8838   446.5    7.560      47.437
2015    5        8     1  35    5.8834   446.7    7.551      47.465
2015    5        8     1  41    5.8829   446.9    7.542      47.492
2015    5        8     1  46    5.8823   447.2    7.532      47.519
2015    5        8     1  52    5.8816   447.4    7.522      47.544
2015    5        8     1  58    5.8809   447.6    7.513      47.569
2015    5        8     2   4    5.8800   447.8    7.503      47.593
2015    5        8     2   9    5.8791   448.1    7.493      47.616
2015    5        8     2  15    5.8781   448.3    7.482      47.638
2015    5        8     2  21    5.8771   448.5    7.472      47.660
2015    5        8     2  26    5.8759   448.8    7.461      47.681
2015    5        8     2  32    5.8747   449.0    7.451      47.702
2015    5        8     2  38    5.8734   449.2    7.440      47.722
2015    5        8     2  44    5.8720   449.4    7.429      47.741
2015    5        8     2  49    5.8705   449.7    7.418      47.759
2015    5        8     2  55    5.8689   449.9    7.406      47.777
2015    5        8     3   1    5.8672   450.2    7.394      47.794
2015    5        8     3   6    5.8654   450.4    7.382      47.809
2015    5        8     3  12    5.8634   450.6    7.370      47.823
2015    5        8     3  18    5.8614   450.9    7.358      47.835
2015    5        8     3  24    5.8591   451.1    7.346      47.846
2015    5        8     3  29    5.8569   451.3    7.333      47.856
2015    5        8     3  35    5.8545   451.5    7.321      47.864
2015    5        8     3  41    5.8520   451.8    7.308      47.871
2015    5        8     3  46    5.8494   452.0    7.295      47.877
2015    5        8     3  52    5.8469   452.2    7.283      47.882
2015    5        8     3  58    5.8442   452.4    7.270      47.888
2015    5        8     4   4    5.8416   452.6    7.258      47.893
2015    5        8     4   9    5.8389   452.8    7.245      47.898
2015    5        8     4  15    5.8362   453.1    7.233      47.902
2015    5        8     4  21    5.8335   453.3    7.220      47.907
2015    5        8     4  26    5.8307   453.5    7.208      47.911
2015    5        8     4  32    5.8278   453.7    7.195      47.916
2015    5        8     4  38    5.8250   454.0    7.182      47.922
2015    5        8     4  43    5.8220   454.2    7.170      47.927
2015    5        8     4  49    5.8189   454.4    7.157      47.931
2015    5        8     4  55    5.8157   454.7    7.144      47.934
2015    5        8     5   1    5.8125   454.9    7.131      47.935
2015    5        8     5   6    5.8090   455.1    7.118      47.935
2015    5        8     5  12    5.8056   455.3    7.105      47.935
2015    5        8     5  18    5.8020   455.5    7.092      47.932
2015    5        8     5  23    5.7984   455.7    7.079      47.929
2015    5        8     5  29    5.7947   455.9    7.067      47.925
2015    5        8     5  35    5.7911   456.1    7.054      47.921
2015    5        8     5  41    5.7875   456.3    7.041      47.917
2015    5        8     5  46    5.7839   456.5    7.029      47.913
2015    5        8     5  52    5.7803   456.7    7.017      47.908
2015    5        8     5  58    5.7768   456.9    7.005      47.904
2015    5        8     6   3    5.7732   457.1    6.993      47.898
2015    5        8     6   9    5.7696   457.3    6.981      47.892
2015    5        8     6  15    5.7661   457.4    6.969      47.886
2015    5        8     6  21    5.7626   457.6    6.958      47.880
2015    5        8     6  26    5.7591   457.7    6.947      47.873
2015    5        8     6  32    5.7557   457.9    6.936      47.866
2015    5        8     6  38    5.7522   458.1    6.925      47.860
2015    5        8     6  43    5.7488   458.2    6.914      47.855
2015    5        8     6  49    5.7453   458.4    6.903      47.850
2015    5        8     6  55    5.7419   458.6    6.892      47.845
2015    5        8     7   1    5.7385   458.8    6.882      47.841
2015    5        8     7   6    5.7351   458.9    6.871      47.836
2015    5        8     7  12    5.7316   459.1    6.861      47.832
2015    5        8     7  18    5.7282   459.3    6.850      47.827
2015    5        8     7  23    5.7247   459.5    6.840      47.822
2015    5        8     7  29    5.7211   459.7    6.829      47.815
2015    5        8     7  35    5.7176   459.9    6.818      47.807
2015    5        8     7  41    5.7139   460.1    6.807      47.799
2015    5        8     7  46    5.7102   460.2    6.796      47.789
2015    5        8     7  52    5.7064   460.4    6.785      47.779
2015    5        8     7  58    5.7025   460.6    6.774      47.769
2015    5        8     8   3    5.6985   460.8    6.762      47.757
2015    5        8     8   9    5.6944   461.0    6.751      47.745
2015    5        8     8  15    5.6903   461.1    6.739      47.732
2015    5        8     8  21    5.6861   461.3    6.727      47.719
2015    5        8     8  26    5.6819   461.5    6.715      47.705
2015    5        8     8  32    5.6776   461.7    6.703      47.690
2015    5        8     8  38    5.6733   461.9    6.691      47.675
2015    5        8     8  43    5.6690   462.0    6.680      47.659
2015    5        8     8  49    5.6646   462.2    6.668      47.642
2015    5        8     8  55    5.6602   462.3    6.656      47.625
2015    5        8     9   1    5.6558   462.5    6.644      47.607
2015    5        8     9   6    5.6513   462.7    6.633      47.589
2015    5        8     9  12    5.6468   462.8    6.621      47.571
2015    5        8     9  18    5.6423   463.0    6.610      47.553
2015    5        8     9  23    5.6379   463.1    6.598      47.534
2015    5        8     9  29    5.6334   463.3    6.587      47.515
2015    5        8     9  35    5.6289   463.4    6.576      47.496
2015    5        8     9  40    5.6244   463.6    6.564      47.477
2015    5        8     9  46    5.6199   463.8    6.553      47.458
2015    5        8     9  52    5.6154   463.9    6.542      47.439
2015    5        8     9  58    5.6109   464.1    6.532      47.420
2015    5        8    10   3    5.6064   464.2    6.521      47.402
2015    5        8    10   9    5.6018   464.4    6.510      47.383
2015    5        8    10  15    5.5973   464.5    6.500      47.364
2015    5        8    10  20    5.5927   464.7    6.489      47.345
2015    5        8    10  26    5.5880   464.8    6.479      47.327
2015    5        8    10  32    5.5834   465.0    6.468      47.307
2015    5        8    10  38    5.5787   465.1    6.458      47.288
2015    5        8    10  43    5.5740   465.3    6.448      47.267
2015    5        8    10  49    5.5692   465.4    6.437      47.247
2015    5        8    10  55    5.5644   465.5    6.427      47.225
2015    5        8    11   0    5.5596   465.7    6.417      47.203
2015    5        8    11   6    5.5549   465.8    6.407      47.181
2015    5        8    11  12    5.5501   465.9    6.397      47.157
2015    5        8    11  18    5.5454   466.0    6.387      47.134
2015    5        8    11  23    5.5407   466.1    6.378      47.111
2015    5        8    11  29    5.5360   466.3    6.368      47.088
2015    5        8    11  35    5.5314   466.4    6.358      47.065
2015    5        8    11  40    5.5268   466.5    6.349      47.044
2015    5        8    11  46    5.5222   466.7    6.339      47.023
2015    5        8    11  52    5.5176   466.8    6.329      47.002
2015    5        8    11  58    5.5129   466.9    6.320      46.979
2015    5        8    12   3    5.5082   467.0    6.310      46.957
2015    5        8    12   9    5.5035   467.2    6.301      46.934
2015    5        8    12  15    5.4987   467.3    6.292      46.911
2015    5        8    12  20    5.4940   467.4    6.283      46.887
2015    5        8    12  26    5.4892   467.4    6.275      46.862
2015    5        8    12  32    5.4845   467.5    6.267      46.837
2015    5        8    12  38    5.4799   467.6    6.259      46.813
2015    5        8    12  43    5.4753   467.7    6.251      46.790
2015    5        8    12  49    5.4709   467.7    6.244      46.768
2015    5        8    12  55    5.4665   467.8    6.237      46.747
2015    5        8    13   0    5.4622   467.9    6.230      46.726
2015    5        8    13   6    5.4580   467.9    6.224      46.706
2015    5        8    13  12    5.4539   467.9    6.217      46.687
2015    5        8    13  18    5.4499   468.0    6.211      46.669
2015    5        8    13  23    5.4459   468.0    6.205      46.652
2015    5        8    13  29    5.4421   468.1    6.199      46.636
2015    5        8    13  35    5.4384   468.1    6.193      46.621
2015    5        8    13  40    5.4347   468.2    6.187      46.607
2015    5        8    13  46    5.4311   468.3    6.181      46.594
2015    5        8    13  52    5.4276   468.3    6.174      46.581
2015    5        8    13  58    5.4240   468.4    6.168      46.569
2015    5        8    14   3    5.4205   468.5    6.162      46.557
2015    5        8    14   9    5.4170   468.6    6.156      46.545
2015    5        8    14  15    5.4135   468.7    6.150      46.531
2015    5        8    14  20    5.4100   468.8    6.144      46.516
2015    5        8    14  26    5.4065   468.9    6.138      46.500
2015    5        8    14  32    5.4030   468.9    6.132      46.482
2015    5        8    14  37    5.3994   469.0    6.125      46.463
2015    5        8    14  43    5.3959   469.1    6.119      46.443
2015    5        8    14  49    5.3922   469.2    6.112      46.422
2015    5        8    14  55    5.3886   469.3    6.106      46.400
2015    5        8    15   0    5.3849   469.3    6.099      46.378
2015    5        8    15   6    5.3811   469.4    6.092      46.354
2015    5        8    15  12    5.3774   469.5    6.085      46.331
2015    5        8    15  17    5.3735   469.6    6.079      46.306
2015    5        8    15  23    5.3696   469.7    6.072      46.281
2015    5        8    15  29    5.3657   469.7    6.065      46.256
2015    5        8    15  35    5.3617   469.8    6.058      46.230
2015    5        8    15  40    5.3577   469.9    6.051      46.203
2015    5        8    15  46    5.3537   469.9    6.044      46.175
2015    5        8    15  52    5.3496   470.0    6.037      46.148
2015    5        8    15  57    5.3456   470.1    6.030      46.120
2015    5        8    16   3    5.3416   470.1    6.024      46.092
2015    5        8    16   9    5.3376   470.2    6.017      46.064
2015    5        8    16  15    5.3335   470.3    6.010      46.036
2015    5        8    16  20    5.3296   470.3    6.004      46.008
2015    5        8    16  26    5.3256   470.4    5.997      45.981
2015    5        8    16  32    5.3216   470.4    5.991      45.953
2015    5        8    16  37    5.3177   470.5    5.984      45.926
2015    5        8    16  43    5.3138   470.6    5.978      45.899
2015    5        8    16  49    5.3100   470.6    5.972      45.872
2015    5        8    16  55    5.3061   470.7    5.966      45.844
2015    5        8    17   0    5.3023   470.8    5.959      45.817
2015    5        8    17   6    5.2985   470.8    5.954      45.789
2015    5        8    17  12    5.2947   470.9    5.948      45.761
2015    5        8    17  17    5.2909   470.9    5.942      45.733
2015    5        8    17  23    5.2871   471.0    5.936      45.706
2015    5        8    17  29    5.2834   471.1    5.931      45.678
2015    5        8    17  35    5.2797   471.1    5.926      45.650
2015    5        8    17  40    5.2760   471.2    5.920      45.622
2015    5        8    17  46    5.2723   471.2    5.915      45.595
2015    5        8    17  52    5.2687   471.3    5.910      45.568
2015    5        8    17  57    5.2651   471.3    5.905      45.541
2015    5        8    18   3    5.2616   471.3    5.901      45.514
2015    5        8    18   9    5.2581   471.4    5.896      45.487
2015    5        8    18  15    5.2547   471.4    5.892      45.462
2015    5        8    18  20    5.2514   471.4    5.888      45.436
2015    5        8    18  26    5.2481   471.5    5.884      45.412
2015    5        8    18  32    5.2448   471.5    5.880      45.388
2015    5        8    18  37    5.2417   471.5    5.876      45.365
2015    5        8    18  43    5.2386   471.5    5.873      45.343
2015    5        8    18  49    5.2356   471.6    5.869      45.321
2015    5        8    18  55    5.2327   471.6    5.866      45.301
2015    5        8    19   0    5.2298   471.6    5.863      45.281
2015    5        8    19   6    5.2270   471.6    5.860      45.261
2015    5        8    19  12    5.2243   471.6    5.858      45.242
2015    5        8    19  17    5.2217   471.7    5.855      45.223
2015    5        8    19  23    5.2191   471.7    5.853      45.206
2015    5        8    19  29    5.2166   471.7    5.851      45.190
2015    5        8    19  35    5.2141   471.7    5.849      45.175
2015    5        8    19  40    5.2117   471.7    5.847      45.160
2015    5        8    19  46    5.2094   471.7    5.846      45.146
2015    5        8    19  52    5.2071   471.7    5.844      45.133
2015    5        8    19  57    5.2049   471.7    5.843      45.122
2015    5        8    20   3    5.2027   471.7    5.843      45.113
2015    5        8    20   9    5.2006   471.7    5.842      45.104
2015    5        8    20  14    5.1986   471.7    5.841      45.097
2015    5        8    20  20    5.1966   471.8    5.841      45.091
2015    5        8    20  26    5.1946   471.8    5.840      45.085
2015    5        8    20  32    5.1928   471.8    5.840      45.080
2015    5        8    20  37    5.1909   471.8    5.839      45.077
2015    5        8    20  43    5.1892   471.8    5.838      45.072
2015    5        8    20  49    5.1875   471.8    5.838      45.068
2015    5        8    20  54    5.1859   471.8    5.837      45.063
2015    5        8    21   0    5.1843   471.9    5.836      45.058
2015    5        8    21   6    5.1827   471.9    5.835      45.053
2015    5        8    21  12    5.1812   471.9    5.834      45.047
2015    5        8    21  17    5.1797   471.9    5.833      45.041
2015    5        8    21  23    5.1782   471.9    5.832      45.034
2015    5        8    21  29    5.1767   471.9    5.831      45.027
2015    5        8    21  34    5.1752   472.0    5.830      45.020
2015    5        8    21  40    5.1737   472.0    5.828      45.012
2015    5        8    21  46    5.1722   472.0    5.827      45.004
2015    5        8    21  52    5.1707   472.0    5.825      44.996
2015    5        8    21  57    5.1692   472.0    5.824      44.987
2015    5        8    22   3    5.1677   472.1    5.822      44.978
2015    5        8    22   9    5.1663   472.1    5.821      44.968
2015    5        8    22  14    5.1648   472.1    5.819      44.959
2015    5        8    22  20    5.1633   472.1    5.818      44.949
2015    5        8    22  26    5.1619   472.1    5.816      44.939
2015    5        8    22  32    5.1604   472.2    5.815      44.929
2015    5        8    22  37    5.1590   472.2    5.813      44.919
2015    5        8    22  43    5.1575   472.2    5.811      44.908
2015    5        8    22  49    5.1561   472.2    5.810      44.898
2015    5        8    22  54    5.1547   472.2    5.808      44.887
2015    5        8    23   0    5.1532   472.2    5.806      44.876
2015    5        8    23   6    5.1518   472.3    5.805      44.866
2015    5        8    23  12    5.1504   472.3    5.803      44.855
2015    5        8    23  17    5.1490   472.3    5.801      44.844
2015    5        8    23  23    5.1476   472.3    5.799      44.833
2015    5        8    23  29    5.1462   472.3    5.798      44.822
2015    5        8    23  34    5.1448   472.4    5.796      44.812
2015    5        8    23  40    5.1435   472.4    5.794      44.801
2015    5        8    23  46    5.1421   472.4    5.793      44.791
2015    5        8    23  52    5.1407   472.4    5.791      44.781
2015    5        8    23  57    5.1394   472.4    5.789      44.770
2015    5        9     0   3    5.1380   472.4    5.787      44.760
2015    5        9     0   9    5.1367   472.5    5.785      44.750
2015    5        9     0  14    5.1353   472.5    5.783      44.739
2015    5        9     0  20    5.1340   472.5    5.782      44.729
2015    5        9     0  26    5.1326   472.5    5.780      44.718
2015    5        9     0  32    5.1314   472.5    5.778      44.707
2015    5        9     0  37    5.1300   472.6    5.776      44.696
2015    5        9     0  43    5.1288   472.6    5.774      44.685
2015    5        9     0  49    5.1275   472.6    5.772      44.674
2015    5        9     0  54    5.1263   472.6    5.770      44.663
2015    5        9     1   0    5.1250   472.6    5.768      44.652
2015    5        9     1   6    5.1238   472.6    5.766      44.641
2015    5        9     1  11    5.1227   472.6    5.764      44.629
2015    5        9     1  17    5.1215   472.7    5.763      44.618
2015    5        9     1  23    5.1204   472.7    5.761      44.607
2015    5        9     1  29    5.1193   472.7    5.759      44.596
2015    5        9     1  34    5.1182   472.7    5.757      44.584
2015    5        9     1  40    5.1171   472.7    5.755      44.574
2015    5        9     1  46    5.1161   472.7    5.754      44.563
2015    5        9     1  51    5.1151   472.7    5.752      44.552
2015    5        9     1  57    5.1141   472.8    5.751      44.541
2015    5        9     2   3    5.1132   472.8    5.749      44.531
2015    5        9     2   9    5.1123   472.8    5.747      44.520
2015    5        9     2  14    5.1114   472.8    5.746      44.510
2015    5        9     2  20    5.1106   472.8    5.745      44.501
2015    5        9     2  26    5.1098   472.8    5.743      44.491
2015    5        9     2  31    5.1090   472.8    5.742      44.481
2015    5        9     2  37    5.1083   472.8    5.741      44.472
2015    5        9     2  43    5.1076   472.8    5.740      44.463
2015    5        9     2  49    5.1070   472.9    5.739      44.455
2015    5        9     2  54    5.1064   472.9    5.738      44.447
2015    5        9     3   0    5.1058   472.9    5.737      44.440
2015    5        9     3   6    5.1052   472.9    5.736      44.433
2015    5        9     3  11    5.1047   472.9    5.735      44.426
2015    5        9     3  17    5.1041   472.9    5.734      44.420
2015    5        9     3  23    5.1036   472.9    5.733      44.414
2015    5        9     3  29    5.1031   472.9    5.732      44.408
2015    5        9     3  34    5.1026   472.9    5.731      44.403
2015    5        9     3  40    5.1022   472.9    5.730      44.397
2015    5        9     3  46    5.1017   473.0    5.729      44.392
2015    5        9     3  51    5.1013   473.0    5.729      44.386
2015    5        9     3  57    5.1009   473.0    5.728      44.381
2015    5        9     4   3    5.1005   473.0    5.727      44.376
2015    5        9     4   9    5.1001   473.0    5.726      44.370
2015    5        9     4  14    5.0998   473.0    5.726      44.365
2015    5        9     4  20    5.0994   473.0    5.725      44.360
2015    5        9     4  26    5.0991   473.0    5.724      44.355
2015    5        9     4  31    5.0988   473.0    5.724      44.350
2015    5        9     4  37    5.0985   473.0    5.723      44.344
2015    5        9     4  43    5.0983   473.0    5.723      44.340
2015    5        9     4  49    5.0980   473.0    5.722      44.334
2015    5        9     4  54    5.0977   473.1    5.722      44.330
2015    5        9     5   0    5.0975   473.1    5.721      44.325
2015    5        9     5   6    5.0973   473.1    5.721      44.320
2015    5        9     5  11    5.0971   473.1    5.721      44.316
2015    5        9     5  17    5.0969   473.1    5.720      44.311
2015    5        9     5  23    5.0967   473.1    5.720      44.307
2015    5        9     5  29    5.0965   473.1    5.720      44.303
2015    5        9     5  34    5.0964   473.1    5.720      44.300
2015    5        9     5  40    5.0963   473.1    5.720      44.296
2015    5        9     5  46    5.0962   473.1    5.720      44.292
2015    5        9     5  51    5.0961   473.1    5.720      44.289
2015    5        9     5  57    5.0960   473.1    5.720      44.287
2015    5        9     6   3    5.0959   473.1    5.720      44.285
2015    5        9     6   8    5.0958   473.1    5.720      44.284
2015    5        9     6  14    5.0958   473.2    5.721      44.283
2015    5        9     6  20    5.0957   473.2    5.721      44.283
2015    5        9     6  26    5.0956   473.2    5.721      44.283
2015    5        9     6  31    5.0955   473.2    5.721      44.283
2015    5        9     6  37    5.0954   473.2    5.721      44.282
2015    5        9     6  43    5.0953   473.2    5.721      44.282
2015    5        9     6  48    5.0953   473.2    5.720      44.281
2015    5        9     6  54    5.0952   473.2    5.720      44.281
2015    5        9     7   0    5.0951   473.2    5.720      44.280
2015    5        9     7   6    5.0950   473.3    5.720      44.279
2015    5        9     7  11    5.0949   473.3    5.720      44.278
2015    5        9     7  17    5.0948   473.3    5.720      44.277
2015    5        9     7  23    5.0947   473.3    5.719      44.276
2015    5        9     7  28    5.0946   473.3    5.719      44.275
2015    5        9     7  34    5.0946   473.3    5.719      44.273
2015    5        9     7  40    5.0945   473.3    5.719      44.272
2015    5        9     7  46    5.0944   473.3    5.718      44.271
2015    5        9     7  51    5.0944   473.3    5.718      44.269
2015    5        9     7  57    5.0943   473.3    5.718      44.267
2015    5        9     8   3    5.0943   473.3    5.717      44.266
2015    5        9     8   8    5.0942   473.3    5.717      44.264
2015    5        9     8  14    5.0942   473.4    5.717      44.262
2015    5        9     8  20    5.0942   473.4    5.717      44.260
2015    5        9     8  26    5.0942   473.4    5.717      44.258
2015    5        9     8  31    5.0942   473.4    5.716      44.257
2015    5        9     8  37    5.0943   473.4    5.716      44.255
2015    5        9     8  43    5.0944   473.4    5.716      44.253
2015    5        9     8  48    5.0945   473.4    5.716      44.251
2015    5        9     8  54    5.0946   473.4    5.716      44.250
2015    5        9     9   0    5.0947   473.4    5.716      44.249
2015    5        9     9   6    5.0949   473.4    5.716      44.247
2015    5        9     9  11    5.0950   473.4    5.717      44.246
2015    5        9     9  17    5.0953   473.4    5.717      44.246
2015    5        9     9  23    5.0955   473.5    5.717      44.245
2015    5        9     9  28    5.0958   473.5    5.718      44.245
2015    5        9     9  34    5.0961   473.5    5.718      44.245
2015    5        9     9  40    5.0964   473.5    5.719      44.245
2015    5        9     9  46    5.0968   473.5    5.719      44.245
2015    5        9     9  51    5.0971   473.5    5.720      44.246
2015    5        9     9  57    5.0975   473.5    5.721      44.248
2015    5        9    10   3    5.0980   473.5    5.722      44.250
2015    5        9    10   8    5.0984   473.5    5.722      44.252
2015    5        9    10  14    5.0988   473.6    5.723      44.256
2015    5        9    10  20    5.0993   473.6    5.724      44.260
2015    5        9    10  26    5.0998   473.6    5.724      44.264
2015    5        9    10  31    5.1002   473.6    5.725      44.268
2015    5        9    10  37    5.1006   473.6    5.726      44.272
2015    5        9    10  43    5.1011   473.6    5.726      44.276
2015    5        9    10  48    5.1015   473.6    5.727      44.280
2015    5        9    10  54    5.1020   473.7    5.728      44.283
2015    5        9    11   0    5.1025   473.7    5.728      44.287
2015    5        9    11   6    5.1029   473.7    5.729      44.290
2015    5        9    11  11    5.1034   473.7    5.729      44.294
2015    5        9    11  17    5.1038   473.7    5.730      44.297
2015    5        9    11  23    5.1043   473.7    5.730      44.299
2015    5        9    11  28    5.1048   473.7    5.731      44.302
2015    5        9    11  34    5.1053   473.7    5.731      44.305
2015    5        9    11  40    5.1058   473.7    5.732      44.307
2015    5        9    11  45    5.1063   473.7    5.733      44.310
2015    5        9    11  51    5.1068   473.8    5.733      44.313
2015    5        9    11  57    5.1074   473.8    5.734      44.316
2015    5        9    12   3    5.1079   473.8    5.735      44.319
2015    5        9    12   8    5.1085   473.8    5.735      44.322
2015    5        9    12  14    5.1091   473.8    5.736      44.325
2015    5        9    12  20    5.1097   473.8    5.737      44.328
2015    5        9    12  25    5.1103   473.8    5.738      44.331
2015    5        9    12  31    5.1109   473.8    5.739      44.335
2015    5        9    12  37    5.1116   473.8    5.740      44.339
2015    5        9    12  43    5.1122   473.8    5.742      44.344
2015    5        9    12  48    5.1129   473.9    5.743      44.348
2015    5        9    12  54    5.1136   473.9    5.744      44.353
2015    5        9    13   0    5.1144   473.9    5.746      44.358
2015    5        9    13   5    5.1151   473.9    5.747      44.364
2015    5        9    13  11    5.1159   473.9    5.748      44.370
2015    5        9    13  17    5.1167   473.9    5.750      44.377
2015    5        9    13  23    5.1175   473.9    5.752      44.384
2015    5        9    13  28    5.1183   473.9    5.753      44.392
2015    5        9    13  34    5.1191   474.0    5.755      44.401
2015    5        9    13  40    5.1200   474.0    5.756      44.410
2015    5        9    13  45    5.1208   474.0    5.757      44.420
2015    5        9    13  51    5.1216   474.0    5.759      44.429
2015    5        9    13  57    5.1224   474.0    5.760      44.438
2015    5        9    14   3    5.1233   474.0    5.762      44.447
2015    5        9    14   8    5.1241   474.1    5.763      44.455
2015    5        9    14  14    5.1250   474.1    5.764      44.464
2015    5        9    14  20    5.1258   474.1    5.766      44.472
2015    5        9    14  25    5.1267   474.1    5.767      44.480
2015    5        9    14  31    5.1275   474.1    5.768      44.488
2015    5        9    14  37    5.1284   474.1    5.769      44.496
2015    5        9    14  43    5.1293   474.2    5.771      44.504
2015    5        9    14  48    5.1302   474.2    5.772      44.511
2015    5        9    14  54    5.1311   474.2    5.773      44.519
2015    5        9    15   0    5.1321   474.2    5.774      44.526
2015    5        9    15   5    5.1330   474.2    5.776      44.534
2015    5        9    15  11    5.1339   474.2    5.777      44.542
2015    5        9    15  17    5.1349   474.3    5.778      44.550
2015    5        9    15  23    5.1358   474.3    5.780      44.559
2015    5        9    15  28    5.1367   474.3    5.781      44.569
2015    5        9    15  34    5.1377   474.3    5.782      44.578
2015    5        9    15  40    5.1387   474.3    5.783      44.587
2015    5        9    15  45    5.1396   474.4    5.784      44.597
2015    5        9    15  51    5.1406   474.4    5.785      44.606
2015    5        9    15  57    5.1416   474.4    5.787      44.615
2015    5        9    16   3    5.1425   474.4    5.788      44.625
2015    5        9    16   8    5.1436   474.4    5.789      44.634
2015    5        9    16  14    5.1446   474.4    5.790      44.643
2015    5        9    16  20    5.1456   474.5    5.791      44.651
2015    5        9    16  25    5.1466   474.5    5.792      44.660
2015    5        9    16  31    5.1477   474.5    5.793      44.669
2015    5        9    16  37    5.1488   474.5    5.794      44.678
2015    5        9    16  43    5.1499   474.5    5.795      44.687
2015    5        9    16  48    5.1510   474.6    5.796      44.695
2015    5        9    16  54    5.1521   474.6    5.797      44.704
2015    5        9    17   0    5.1533   474.6    5.799      44.713
2015    5        9    17   5    5.1545   474.6    5.800      44.722
2015    5        9    17  11    5.1557   474.7    5.801      44.732
2015    5        9    17  17    5.1570   474.7    5.803      44.741
2015    5        9    17  22    5.1582   474.7    5.804      44.752
2015    5        9    17  28    5.1595   474.7    5.805      44.762
2015    5        9    17  34    5.1608   474.8    5.807      44.773
2015    5        9    17  40    5.1621   474.8    5.808      44.785
2015    5        9    17  45    5.1635   474.8    5.810      44.796
2015    5        9    17  51    5.1648   474.8    5.811      44.808
2015    5        9    17  57    5.1661   474.9    5.813      44.819
2015    5        9    18   2    5.1674   474.9    5.814      44.831
2015    5        9    18   8    5.1688   474.9    5.816      44.842
2015    5        9    18  14    5.1701   474.9    5.818      44.854
2015    5        9    18  20    5.1714   475.0    5.819      44.866
2015    5        9    18  25    5.1727   475.0    5.821      44.878
2015    5        9    18  31    5.1740   475.0    5.822      44.891
2015    5        9    18  37    5.1753   475.1    5.824      44.905
2015    5        9    18  42    5.1765   475.1    5.825      44.919
2015    5        9    18  48    5.1778   475.1    5.826      44.933
2015    5        9    18  54    5.1791   475.2    5.828      44.947
2015    5        9    19   0    5.1804   475.2    5.829      44.961
2015    5        9    19   5    5.1816   475.2    5.830      44.975
2015    5        9    19  11    5.1829   475.3    5.831      44.989
2015    5        9    19  17    5.1841   475.3    5.833      45.002
2015    5        9    19  22    5.1854   475.3    5.834      45.016
2015    5        9    19  28    5.1867   475.3    5.835      45.029
2015    5        9    19  34    5.1880   475.4    5.836      45.043
2015    5        9    19  40    5.1893   475.4    5.837      45.056
2015    5        9    19  45    5.1906   475.4    5.839      45.069
2015    5        9    19  51    5.1919   475.5    5.840      45.082
2015    5        9    19  57    5.1932   475.5    5.841      45.096
2015    5        9    20   2    5.1945   475.5    5.842      45.109
2015    5        9    20   8    5.1959   475.6    5.844      45.122
2015    5        9    20  14    5.1973   475.6    5.845      45.135
2015    5        9    20  20    5.1986   475.6    5.846      45.148
2015    5        9    20  25    5.2000   475.6    5.848      45.161
2015    5        9    20  31    5.2014   475.7    5.849      45.174
2015    5        9    20  37    5.2028   475.7    5.850      45.187
2015    5        9    20  42    5.2043   475.7    5.852      45.200
2015    5        9    20  48    5.2057   475.8    5.853      45.214
2015    5        9    20  54    5.2072   475.8    5.855      45.227
2015    5        9    21   0    5.2087   475.8    5.856      45.241
2015    5        9    21   5    5.2102   475.9    5.858      45.254
2015    5        9    21  11    5.2117   475.9    5.860      45.268
2015    5        9    21  17    5.2132   475.9    5.861      45.282
2015    5        9    21  22    5.2148   476.0    5.863      45.296
2015    5        9    21  28    5.2164   476.0    5.865      45.310
2015    5        9    21  34    5.2180   476.0    5.867      45.324
2015    5        9    21  40    5.2195   476.1    5.869      45.338
2015    5        9    21  45    5.2212   476.1    5.871      45.352
2015    5        9    21  51    5.2228   476.1    5.873      45.367
2015    5        9    21  57    5.2245   476.2    5.875      45.382
2015    5        9    22   2    5.2261   476.2    5.877      45.397
2015    5        9    22   8    5.2278   476.2    5.880      45.413
2015    5        9    22  14    5.2295   476.3    5.882      45.429
2015    5        9    22  19    5.2312   476.3    5.884      45.446
2015    5        9    22  25    5.2329   476.3    5.886      45.462
2015    5        9    22  31    5.2346   476.4    5.889      45.480
2015    5        9    22  37    5.2363   476.4    5.891      45.498
2015    5        9    22  42    5.2380   476.4    5.893      45.516
2015    5        9    22  48    5.2397   476.5    5.895      45.534
2015    5        9    22  54    5.2414   476.5    5.897      45.553
2015    5        9    22  59    5.2431   476.6    5.899      45.572
2015    5        9    23   5    5.2448   476.6    5.901      45.590
2015    5        9    23  11    5.2465   476.6    5.903      45.609
2015    5        9    23  17    5.2482   476.7    5.904      45.627
2015    5        9    23  22    5.2499   476.7    5.906      45.645
2015    5        9    23  28    5.2517   476.7    5.908      45.663
2015    5        9    23  34    5.2534   476.8    5.910      45.681
2015    5        9    23  39    5.2551   476.8    5.911      45.699
2015    5        9    23  45    5.2569   476.8    5.913      45.716
2015    5        9    23  51    5.2586   476.9    5.915      45.733
2015    5        9    23  57    5.2604   476.9    5.916      45.750
2015    5       10     0   2    5.2622   476.9    5.918      45.767
2015    5       10     0   8    5.2640   477.0    5.920      45.785
2015    5       10     0  14    5.2659   477.0    5.922      45.802
2015    5       10     0  19    5.2677   477.0    5.924      45.819
2015    5       10     0  25    5.2696   477.1    5.926      45.837
2015    5       10     0  31    5.2716   477.1    5.928      45.854
2015    5       10     0  37    5.2736   477.1    5.930      45.871
2015    5       10     0  42    5.2756   477.2    5.933      45.890
2015    5       10     0  48    5.2777   477.2    5.935      45.910
2015    5       10     0  54    5.2798   477.3    5.937      45.931
2015    5       10     0  59    5.2819   477.3    5.940      45.952
2015    5       10     1   5    5.2841   477.3    5.942      45.975
2015    5       10     1  11    5.2862   477.4    5.945      45.999
2015    5       10     1  17    5.2883   477.4    5.947      46.023
2015    5       10     1  22    5.2904   477.5    5.949      46.047
2015    5       10     1  28    5.2925   477.5    5.951      46.071
2015    5       10     1  34    5.2946   477.6    5.953      46.095
2015    5       10     1  39    5.2967   477.6    5.955      46.119
2015    5       10     1  45    5.2987   477.7    5.957      46.143
2015    5       10     1  51    5.3007   477.7    5.959      46.167
2015    5       10     1  57    5.3027   477.8    5.960      46.192
2015    5       10     2   2    5.3046   477.8    5.962      46.217
2015    5       10     2   8    5.3066   477.9    5.963      46.241
2015    5       10     2  14    5.3085   477.9    5.964      46.265
2015    5       10     2  19    5.3105   478.0    5.965      46.288
2015    5       10     2  25    5.3124   478.1    5.966      46.311
2015    5       10     2  31    5.3143   478.1    5.967      46.334
2015    5       10     2  37    5.3162   478.2    5.968      46.356
2015    5       10     2  42    5.3181   478.2    5.969      46.378
2015    5       10     2  48    5.3200   478.3    5.969      46.400
2015    5       10     2  54    5.3219   478.3    5.970      46.421
2015    5       10     2  59    5.3239   478.4    5.971      46.443
2015    5       10     3   5    5.3258   478.4    5.971      46.463
2015    5       10     3  11    5.3278   478.5    5.972      46.484
2015    5       10     3  16    5.3297   478.5    5.973      46.505
2015    5       10     3  22    5.3317   478.6    5.973      46.525
2015    5       10     3  28    5.3337   478.7    5.974      46.545
2015    5       10     3  34    5.3357   478.7    5.975      46.565
2015    5       10     3  39    5.3378   478.8    5.975      46.585
2015    5       10     3  45    5.3398   478.8    5.976      46.605
2015    5       10     3  51    5.3419   478.9    5.977      46.625
2015    5       10     3  56    5.3440   478.9    5.978      46.645
2015    5       10     4   2    5.3461   479.0    5.978      46.665
2015    5       10     4   8    5.3482   479.1    5.979      46.685
2015    5       10     4  14    5.3504   479.1    5.980      46.705
2015    5       10     4  19    5.3525   479.2    5.981      46.725
2015    5       10     4  25    5.3547   479.2    5.982      46.746
2015    5       10     4  31    5.3569   479.3    5.984      46.766
2015    5       10     4  36    5.3591   479.4    5.985      46.787
2015    5       10     4  42    5.3613   479.4    5.986      46.808
2015    5       10     4  48    5.3636   479.5    5.987      46.829
2015    5       10     4  54    5.3659   479.5    5.989      46.850
2015    5       10     4  59    5.3682   479.6    5.991      46.872
2015    5       10     5   5    5.3705   479.7    5.992      46.894
2015    5       10     5  11    5.3729   479.7    5.994      46.916
2015    5       10     5  16    5.3753   479.8    5.996      46.938
2015    5       10     5  22    5.3777   479.9    5.998      46.961
2015    5       10     5  28    5.3801   479.9    6.001      46.985
2015    5       10     5  34    5.3825   480.0    6.003      47.009
2015    5       10     5  39    5.3849   480.0    6.005      47.034
2015    5       10     5  45    5.3874   480.1    6.008      47.059
2015    5       10     5  51    5.3899   480.2    6.010      47.085
2015    5       10     5  56    5.3923   480.2    6.013      47.111
2015    5       10     6   2    5.3948   480.3    6.016      47.138
2015    5       10     6   8    5.3974   480.4    6.019      47.165
2015    5       10     6  14    5.3999   480.5    6.022      47.192
2015    5       10     6  19    5.4024   480.5    6.025      47.221
2015    5       10     6  25    5.4050   480.6    6.028      47.249
2015    5       10     6  31    5.4076   480.7    6.031      47.279
2015    5       10     6  36    5.4102   480.7    6.034      47.309
2015    5       10     6  42    5.4128   480.8    6.037      47.340
2015    5       10     6  48    5.4154   480.9    6.040      47.370
2015    5       10     6  54    5.4180   480.9    6.043      47.401
2015    5       10     6  59    5.4206   481.0    6.046      47.432
2015    5       10     7   5    5.4232   481.1    6.050      47.463
2015    5       10     7  11    5.4259   481.1    6.053      47.494
2015    5       10     7  16    5.4285   481.2    6.056      47.525
2015    5       10     7  22    5.4312   481.3    6.059      47.557
2015    5       10     7  28    5.4339   481.4    6.063      47.588
2015    5       10     7  34    5.4366   481.4    6.066      47.619
2015    5       10     7  39    5.4394   481.5    6.070      47.651
2015    5       10     7  45    5.4422   481.6    6.074      47.683
2015    5       10     7  51    5.4450   481.6    6.078      47.717
2015    5       10     7  56    5.4478   481.7    6.081      47.751
2015    5       10     8   2    5.4507   481.8    6.085      47.786
2015    5       10     8   8    5.4536   481.8    6.089      47.823
2015    5       10     8  13    5.4566   481.9    6.093      47.862
2015    5       10     8  19    5.4595   482.0    6.096      47.902
2015    5       10     8  25    5.4624   482.1    6.100      47.944
2015    5       10     8  31    5.4654   482.2    6.103      47.986
2015    5       10     8  36    5.4683   482.3    6.106      48.028
2015    5       10     8  42    5.4711   482.3    6.109      48.071
2015    5       10     8  48    5.4740   482.4    6.112      48.113
2015    5       10     8  53    5.4768   482.5    6.114      48.155
2015    5       10     8  59    5.4796   482.6    6.116      48.196
2015    5       10     9   5    5.4823   482.7    6.118      48.236
2015    5       10     9  11    5.4850   482.8    6.120      48.275
2015    5       10     9  16    5.4877   482.9    6.122      48.313
2015    5       10     9  22    5.4904   483.0    6.123      48.350
2015    5       10     9  28    5.4930   483.0    6.124      48.386
2015    5       10     9  33    5.4956   483.1    6.125      48.421
2015    5       10     9  39    5.4982   483.2    6.126      48.456
2015    5       10     9  45    5.5008   483.3    6.126      48.489
2015    5       10     9  51    5.5033   483.4    6.127      48.522
2015    5       10     9  56    5.5059   483.5    6.127      48.555
2015    5       10    10   2    5.5085   483.6    6.128      48.586
2015    5       10    10   8    5.5110   483.7    6.128      48.617
2015    5       10    10  13    5.5136   483.8    6.128      48.648
2015    5       10    10  19    5.5161   483.9    6.128      48.678
2015    5       10    10  25    5.5187   484.0    6.128      48.708
2015    5       10    10  31    5.5213   484.0    6.128      48.737
2015    5       10    10  36    5.5238   484.1    6.128      48.766
2015    5       10    10  42    5.5264   484.2    6.128      48.795
2015    5       10    10  48    5.5290   484.3    6.128      48.823
2015    5       10    10  53    5.5316   484.4    6.128      48.851
2015    5       10    10  59    5.5343   484.5    6.128      48.879
2015    5       10    11   5    5.5369   484.6    6.127      48.907
2015    5       10    11  11    5.5396   484.7    6.127      48.934
2015    5       10    11  16    5.5422   484.8    6.127      48.962
2015    5       10    11  22    5.5449   484.9    6.127      48.989
2015    5       10    11  28    5.5476   485.0    6.127      49.016
2015    5       10    11  33    5.5503   485.1    6.127      49.044
2015    5       10    11  39    5.5531   485.2    6.127      49.071
2015    5       10    11  45    5.5559   485.3    6.127      49.099
2015    5       10    11  51    5.5587   485.4    6.128      49.126
2015    5       10    11  56    5.5615   485.5    6.128      49.154
2015    5       10    12   2    5.5643   485.6    6.128      49.183
2015    5       10    12   8    5.5672   485.7    6.129      49.211
2015    5       10    12  13    5.5701   485.8    6.129      49.240
2015    5       10    12  19    5.5731   485.9    6.130      49.270
2015    5       10    12  25    5.5760   486.0    6.131      49.300
2015    5       10    12  31    5.5790   486.1    6.132      49.331
2015    5       10    12  36    5.5821   486.2    6.133      49.362
2015    5       10    12  42    5.5851   486.3    6.134      49.394
2015    5       10    12  48    5.5883   486.5    6.136      49.427
2015    5       10    12  53    5.5914   486.6    6.137      49.461
2015    5       10    12  59    5.5946   486.7    6.139      49.495
2015    5       10    13   5    5.5978   486.8    6.141      49.531
2015    5       10    13  10    5.6011   486.9    6.143      49.567
2015    5       10    13  16    5.6044   487.0    6.146      49.604
2015    5       10    13  22    5.6078   487.2    6.149      49.642
2015    5       10    13  28    5.6112   487.3    6.152      49.681
2015    5       10    13  33    5.6146   487.4    6.155      49.721
2015    5       10    13  39    5.6181   487.5    6.158      49.762
2015    5       10    13  45    5.6216   487.7    6.161      49.804
2015    5       10    13  50    5.6251   487.8    6.165      49.848
2015    5       10    13  56    5.6287   487.9    6.169      49.894
2015    5       10    14   2    5.6323   488.1    6.173      49.940
2015    5       10    14   8    5.6360   488.2    6.177      49.987
2015    5       10    14  13    5.6396   488.4    6.182      50.035
2015    5       10    14  19    5.6432   488.5    6.187      50.085
2015    5       10    14  25    5.6469   488.6    6.191      50.136
2015    5       10    14  30    5.6505   488.8    6.196      50.189
2015    5       10    14  36    5.6541   489.0    6.201      50.245
2015    5       10    14  42    5.6577   489.1    6.205      50.303
2015    5       10    14  48    5.6613   489.3    6.210      50.362
2015    5       10    14  53    5.6648   489.4    6.214      50.424
2015    5       10    14  59    5.6683   489.6    6.219      50.485
2015    5       10    15   5    5.6717   489.8    6.223      50.547
2015    5       10    15  10    5.6751   489.9    6.227      50.607
2015    5       10    15  16    5.6785   490.1    6.230      50.668
2015    5       10    15  22    5.6818   490.3    6.234      50.728
2015    5       10    15  28    5.6852   490.4    6.238      50.788
2015    5       10    15  33    5.6885   490.6    6.241      50.849
2015    5       10    15  39    5.6918   490.7    6.244      50.910
2015    5       10    15  45    5.6951   490.9    6.247      50.971
2015    5       10    15  50    5.6983   491.1    6.250      51.033
2015    5       10    15  56    5.7016   491.2    6.252      51.095
2015    5       10    16   2    5.7048   491.4    6.254      51.157
2015    5       10    16   8    5.7080   491.6    6.256      51.219
2015    5       10    16  13    5.7112   491.7    6.258      51.280
2015    5       10    16  19    5.7144   491.9    6.260      51.340
2015    5       10    16  25    5.7175   492.1    6.261      51.400
2015    5       10    16  30    5.7206   492.2    6.263      51.458
2015    5       10    16  36    5.7237   492.4    6.264      51.515
2015    5       10    16  42    5.7268   492.6    6.264      51.572
2015    5       10    16  48    5.7299   492.7    6.265      51.628
2015    5       10    16  53    5.7330   492.9    6.266      51.683
2015    5       10    16  59    5.7360   493.0    6.266      51.737
2015    5       10    17   5    5.7391   493.2    6.266      51.790
2015    5       10    17  10    5.7421   493.4    6.267      51.843
2015    5       10    17  16    5.7451   493.5    6.267      51.895
2015    5       10    17  22    5.7481   493.7    6.266      51.947
2015    5       10    17  28    5.7512   493.9    6.266      51.997
2015    5       10    17  33    5.7542   494.0    6.266      52.047
2015    5       10    17  39    5.7572   494.2    6.266      52.097
2015    5       10    17  45    5.7603   494.3    6.265      52.147
2015    5       10    17  50    5.7633   494.5    6.265      52.196
2015    5       10    17  56    5.7664   494.7    6.264      52.244
2015    5       10    18   2    5.7695   494.8    6.263      52.292
2015    5       10    18   7    5.7726   495.0    6.263      52.340
2015    5       10    18  13    5.7757   495.1    6.262      52.388
2015    5       10    18  19    5.7788   495.3    6.262      52.436
2015    5       10    18  25    5.7820   495.4    6.261      52.483
2015    5       10    18  30    5.7852   495.6    6.260      52.531
2015    5       10    18  36    5.7884   495.8    6.259      52.578
2015    5       10    18  42    5.7916   495.9    6.259      52.626
2015    5       10    18  47    5.7949   496.1    6.258      52.673
2015    5       10    18  53    5.7982   496.2    6.258      52.720
2015    5       10    18  59    5.8016   496.4    6.257      52.768
2015    5       10    19   5    5.8049   496.6    6.256      52.815
2015    5       10    19  10    5.8083   496.7    6.256      52.862
2015    5       10    19  16    5.8118   496.9    6.256      52.910
2015    5       10    19  22    5.8152   497.0    6.255      52.958
2015    5       10    19  27    5.8187   497.2    6.255      53.005
2015    5       10    19  33    5.8223   497.4    6.255      53.053
2015    5       10    19  39    5.8259   497.5    6.255      53.102
2015    5       10    19  45    5.8295   497.7    6.255      53.150
2015    5       10    19  50    5.8332   497.8    6.255      53.199
2015    5       10    19  56    5.8369   498.0    6.255      53.249
2015    5       10    20   2    5.8407   498.2    6.256      53.298
2015    5       10    20   7    5.8445   498.3    6.256      53.350
2015    5       10    20  13    5.8483   498.5    6.257      53.402
2015    5       10    20  19    5.8521   498.7    6.258      53.455
2015    5       10    20  25    5.8560   498.8    6.259      53.509
2015    5       10    20  30    5.8599   499.0    6.260      53.565
2015    5       10    20  36    5.8638   499.2    6.262      53.621
2015    5       10    20  42    5.8677   499.4    6.263      53.678
2015    5       10    20  47    5.8716   499.6    6.265      53.735
2015    5       10    20  53    5.8755   499.8    6.267      53.792
2015    5       10    20  59    5.8794   500.0    6.268      53.850
2015    5       10    21   5    5.8833   500.2    6.270      53.908
2015    5       10    21  10    5.8872   500.4    6.272      53.967
2015    5       10    21  16    5.8910   500.6    6.274      54.025
2015    5       10    21  22    5.8949   500.8    6.276      54.084
2015    5       10    21  27    5.8987   501.0    6.279      54.143
2015    5       10    21  33    5.9026   501.2    6.281      54.202
2015    5       10    21  39    5.9064   501.4    6.284      54.262
2015    5       10    21  45    5.9103   501.6    6.287      54.323
2015    5       10    21  50    5.9141   501.8    6.290      54.385
2015    5       10    21  56    5.9179   502.1    6.293      54.449
2015    5       10    22   2    5.9216   502.3    6.296      54.516
2015    5       10    22   7    5.9253   502.5    6.299      54.585
2015    5       10    22  13    5.9290   502.8    6.302      54.657
2015    5       10    22  19    5.9326   503.0    6.305      54.731
2015    5       10    22  25    5.9362   503.2    6.307      54.807
2015    5       10    22  30    5.9398   503.5    6.310      54.882
2015    5       10    22  36    5.9432   503.7    6.312      54.958
2015    5       10    22  42    5.9466   503.9    6.314      55.034
2015    5       10    22  47    5.9500   504.2    6.316      55.110
2015    5       10    22  53    5.9534   504.4    6.318      55.185
2015    5       10    22  59    5.9567   504.7    6.320      55.261
2015    5       10    23   4    5.9600   504.9    6.321      55.336
2015    5       10    23  10    5.9634   505.1    6.323      55.412
2015    5       10    23  16    5.9667   505.4    6.324      55.489
2015    5       10    23  22    5.9700   505.6    6.326      55.567
2015    5       10    23  27    5.9733   505.9    6.327      55.646
2015    5       10    23  33    5.9767   506.2    6.328      55.726
2015    5       10    23  39    5.9799   506.4    6.329      55.807
2015    5       10    23  44    5.9832   506.7    6.330      55.889
2015    5       10    23  50    5.9864   507.0    6.330      55.971
2015    5       10    23  56    5.9897   507.2    6.331      56.051
2015    5       11     0   2    5.9928   507.5    6.331      56.131
2015    5       11     0   7    5.9960   507.8    6.331      56.210
2015    5       11     0  13    5.9991   508.0    6.331      56.289
2015    5       11     0  19    6.0022   508.3    6.331      56.366
2015    5       11     0  24    6.0053   508.6    6.331      56.444
2015    5       11     0  30    6.0084   508.8    6.330      56.520
2015    5       11     0  36    6.0115   509.1    6.330      56.596
2015    5       11     0  42    6.0146   509.3    6.330      56.671
2015    5       11     0  47    6.0177   509.6    6.329      56.747
2015    5       11     0  53    6.0208   509.9    6.329      56.822
2015    5       11     0  59    6.0240   510.1    6.328      56.897
2015    5       11     1   4    6.0272   510.4    6.328      56.972
2015    5       11     1  10    6.0304   510.7    6.327      57.048
2015    5       11     1  16    6.0336   510.9    6.326      57.124
2015    5       11     1  22    6.0369   511.2    6.326      57.201
2015    5       11     1  27    6.0402   511.5    6.326      57.278
2015    5       11     1  33    6.0436   511.7    6.325      57.356
2015    5       11     1  39    6.0470   512.0    6.325      57.435
2015    5       11     1  44    6.0505   512.3    6.324      57.516
2015    5       11     1  50    6.0540   512.6    6.324      57.598
2015    5       11     1  56    6.0575   512.8    6.324      57.683
2015    5       11     2   2    6.0610   513.1    6.323      57.770
2015    5       11     2   7    6.0646   513.4    6.323      57.859
2015    5       11     2  13    6.0682   513.7    6.322      57.949
2015    5       11     2  19    6.0717   514.0    6.322      58.040
2015    5       11     2  24    6.0753   514.3    6.321      58.131
2015    5       11     2  30    6.0789   514.6    6.320      58.221
2015    5       11     2  36    6.0825   514.9    6.319      58.311
2015    5       11     2  42    6.0860   515.2    6.319      58.401
2015    5       11     2  47    6.0896   515.4    6.318      58.491
2015    5       11     2  53    6.0932   515.7    6.317      58.581
2015    5       11     2  59    6.0968   516.0    6.316      58.671
2015    5       11     3   4    6.1004   516.3    6.315      58.762
2015    5       11     3  10    6.1041   516.6    6.314      58.853
2015    5       11     3  16    6.1077   516.9    6.313      58.943
2015    5       11     3  22    6.1113   517.2    6.312      59.034
2015    5       11     3  27    6.1149   517.5    6.311      59.125
2015    5       11     3  33    6.1185   517.9    6.310      59.216
2015    5       11     3  39    6.1220   518.2    6.309      59.307
2015    5       11     3  44    6.1255   518.5    6.307      59.397
2015    5       11     3  50    6.1289   518.8    6.306      59.487
2015    5       11     3  56    6.1323   519.1    6.304      59.577
2015    5       11     4   1    6.1356   519.5    6.302      59.665
2015    5       11     4   7    6.1389   519.8    6.300      59.752
2015    5       11     4  13    6.1421   520.2    6.297      59.837
2015    5       11     4  19    6.1452   520.5    6.294      59.920
2015    5       11     4  24    6.1483   520.9    6.291      60.002
2015    5       11     4  30    6.1513   521.2    6.288      60.083
2015    5       11     4  36    6.1542   521.5    6.285      60.162
2015    5       11     4  41    6.1570   521.9    6.281      60.239
2015    5       11     4  47    6.1599   522.2    6.277      60.315
2015    5       11     4  53    6.1626   522.6    6.273      60.389
2015    5       11     4  59    6.1653   522.9    6.269      60.461
2015    5       11     5   4    6.1679   523.3    6.265      60.533
2015    5       11     5  10    6.1705   523.6    6.260      60.604
2015    5       11     5  16    6.1730   524.0    6.256      60.674
2015    5       11     5  21    6.1755   524.3    6.251      60.743
2015    5       11     5  27    6.1779   524.7    6.246      60.812
2015    5       11     5  33    6.1803   525.0    6.241      60.881
2015    5       11     5  39    6.1826   525.4    6.236      60.949
2015    5       11     5  44    6.1849   525.7    6.231      61.016
2015    5       11     5  50    6.1871   526.0    6.226      61.082
2015    5       11     5  56    6.1893   526.4    6.221      61.148
2015    5       11     6   1    6.1914   526.7    6.216      61.214
2015    5       11     6   7    6.1935   527.1    6.210      61.279
2015    5       11     6  13    6.1956   527.4    6.205      61.343
2015    5       11     6  19    6.1977   527.8    6.199      61.408
2015    5       11     6  24    6.1997   528.1    6.194      61.473
2015    5       11     6  30    6.2017   528.5    6.188      61.536
2015    5       11     6  36    6.2038   528.8    6.183      61.598
2015    5       11     6  41    6.2058   529.1    6.178      61.660
2015    5       11     6  47    6.2079   529.5    6.173      61.723
2015    5       11     6  53    6.2100   529.8    6.169      61.787
2015    5       11     6  59    6.2122   530.1    6.164      61.853
2015    5       11     7   4    6.2144   530.5    6.160      61.922
2015    5       11     7  10    6.2167   530.9    6.155      61.994
2015    5       11     7  16    6.2191   531.2    6.151      62.069
2015    5       11     7  21    6.2215   531.6    6.147      62.146
2015    5       11     7  27    6.2241   532.0    6.143      62.228
2015    5       11     7  33    6.2266   532.4    6.139      62.313
2015    5       11     7  39    6.2291   532.8    6.136      62.402
2015    5       11     7  44    6.2316   533.2    6.132      62.494
2015    5       11     7  50    6.2341   533.7    6.128      62.589
2015    5       11     7  56    6.2364   534.1    6.124      62.684
2015    5       11     8   1    6.2386   534.5    6.119      62.778
2015    5       11     8   7    6.2407   535.0    6.115      62.871
2015    5       11     8  13    6.2428   535.4    6.110      62.962
2015    5       11     8  19    6.2447   535.8    6.105      63.051
2015    5       11     8  24    6.2466   536.2    6.101      63.140
2015    5       11     8  30    6.2484   536.7    6.096      63.227
2015    5       11     8  36    6.2502   537.1    6.090      63.314
2015    5       11     8  41    6.2519   537.5    6.085      63.401
2015    5       11     8  47    6.2537   537.9    6.080      63.488
2015    5       11     8  53    6.2553   538.4    6.075      63.577
2015    5       11     8  58    6.2570   538.8    6.069      63.667
2015    5       11     9   4    6.2587   539.2    6.064      63.760
2015    5       11     9  10    6.2602   539.7    6.058      63.854
2015    5       11     9  16    6.2617   540.1    6.052      63.950
2015    5       11     9  21    6.2632   540.5    6.046      64.047
2015    5       11     9  27    6.2645   541.0    6.040      64.145
2015    5       11     9  33    6.2657   541.4    6.034      64.243
2015    5       11     9  38    6.2669   541.8    6.027      64.343
2015    5       11     9  44    6.2680   542.3    6.021      64.443
2015    5       11     9  50    6.2689   542.7    6.014      64.544
2015    5       11     9  56    6.2698   543.2    6.008      64.645
2015    5       11    10   1    6.2706   543.6    6.001      64.748
2015    5       11    10   7    6.2714   544.1    5.994      64.850
2015    5       11    10  13    6.2721   544.5    5.987      64.951
2015    5       11    10  18    6.2728   544.9    5.980      65.053
2015    5       11    10  24    6.2733   545.4    5.972      65.153
2015    5       11    10  30    6.2739   545.8    5.965      65.254
2015    5       11    10  36    6.2743   546.3    5.958      65.353
2015    5       11    10  41    6.2748   546.7    5.950      65.451
2015    5       11    10  47    6.2752   547.2    5.942      65.550
2015    5       11    10  53    6.2755   547.6    5.934      65.647
2015    5       11    10  58    6.2758   548.1    5.926      65.744
2015    5       11    11   4    6.2761   548.6    5.918      65.840
2015    5       11    11  10    6.2762   549.0    5.910      65.935
2015    5       11    11  16    6.2764   549.5    5.901      66.028
2015    5       11    11  21    6.2764   550.0    5.892      66.119
2015    5       11    11  27    6.2764   550.5    5.883      66.207
2015    5       11    11  33    6.2763   550.9    5.874      66.293
2015    5       11    11  38    6.2761   551.4    5.864      66.377
2015    5       11    11  44    6.2758   551.9    5.854      66.458
2015    5       11    11  50    6.2755   552.4    5.844      66.536
2015    5       11    11  56    6.2750   552.9    5.833      66.612
2015    5       11    12   1    6.2745   553.4    5.823      66.685
2015    5       11    12   7    6.2738   554.0    5.811      66.756
2015    5       11    12  13    6.2731   554.5    5.800      66.827
2015    5       11    12  18    6.2721   555.1    5.788      66.897
2015    5       11    12  24    6.2711   555.6    5.775      66.966
2015    5       11    12  30    6.2698   556.2    5.762      67.036
2015    5       11    12  36    6.2682   556.8    5.748      67.105
2015    5       11    12  41    6.2662   557.4    5.733      67.167
2015    5       11    12  47    6.2640   557.9    5.718      67.220
2015    5       11    12  53    6.2614   558.5    5.702      67.267
2015    5       11    12  58    6.2588   559.0    5.686      67.308
2015    5       11    13   4    6.2560   559.5    5.671      67.339
2015    5       11    13  10    6.2532   559.9    5.655      67.367
2015    5       11    13  16    6.2504   560.4    5.640      67.397
2015    5       11    13  21    6.2478   560.8    5.625      67.426
2015    5       11    13  27    6.2452   561.3    5.611      67.456
2015    5       11    13  33    6.2428   561.7    5.597      67.486
2015    5       11    13  38    6.2404   562.2    5.583      67.517
2015    5       11    13  44    6.2382   562.6    5.570      67.545
2015    5       11    13  50    6.2360   563.0    5.557      67.572
2015    5       11    13  55    6.2340   563.4    5.545      67.600
2015    5       11    14   1    6.2321   563.8    5.533      67.631
2015    5       11    14   7    6.2301   564.2    5.521      67.665
2015    5       11    14  13    6.2282   564.6    5.510      67.703
2015    5       11    14  18    6.2263   565.0    5.498      67.752
2015    5       11    14  24    6.2244   565.5    5.487      67.811
2015    5       11    14  30    6.2226   566.0    5.476      67.877
2015    5       11    14  35    6.2208   566.5    5.466      67.949
2015    5       11    14  41    6.2192   566.9    5.455      68.025
2015    5       11    14  47    6.2176   567.4    5.445      68.104
2015    5       11    14  53    6.2160   567.9    5.436      68.185
2015    5       11    14  58    6.2144   568.4    5.426      68.264
2015    5       11    15   4    6.2127   568.9    5.416      68.343
2015    5       11    15  10    6.2110   569.4    5.407      68.422
2015    5       11    15  15    6.2091   569.8    5.397      68.501
2015    5       11    15  21    6.2071   570.3    5.386      68.579
2015    5       11    15  27    6.2050   570.8    5.376      68.657
2015    5       11    15  33    6.2027   571.3    5.366      68.733
2015    5       11    15  38    6.2004   571.8    5.355      68.806
2015    5       11    15  44    6.1979   572.3    5.344      68.876
2015    5       11    15  50    6.1954   572.8    5.333      68.943
2015    5       11    15  55    6.1928   573.3    5.322      69.007
2015    5       11    16   1    6.1901   573.9    5.310      69.069
2015    5       11    16   7    6.1873   574.4    5.299      69.127
2015    5       11    16  13    6.1844   574.9    5.287      69.186
2015    5       11    16  18    6.1812   575.5    5.274      69.245
2015    5       11    16  24    6.1778   576.0    5.262      69.304
2015    5       11    16  30    6.1742   576.6    5.248      69.365
2015    5       11    16  35    6.1703   577.2    5.235      69.424
2015    5       11    16  41    6.1661   577.7    5.220      69.475
2015    5       11    16  47    6.1617   578.2    5.206      69.521
2015    5       11    16  53    6.1570   578.8    5.191      69.562
2015    5       11    16  58    6.1522   579.2    5.176      69.600
2015    5       11    17   4    6.1473   579.7    5.162      69.633
2015    5       11    17  10    6.1425   580.2    5.147      69.663
2015    5       11    17  15    6.1376   580.6    5.133      69.698
2015    5       11    17  21    6.1329   581.1    5.120      69.737
2015    5       11    17  27    6.1281   581.5    5.106      69.780
2015    5       11    17  33    6.1235   582.0    5.093      69.824
2015    5       11    17  38    6.1188   582.5    5.080      69.868
2015    5       11    17  44    6.1142   582.9    5.067      69.910
2015    5       11    17  50    6.1096   583.3    5.055      69.952
2015    5       11    17  55    6.1051   583.8    5.042      69.993
2015    5       11    18   1    6.1005   584.2    5.030      70.032
2015    5       11    18   7    6.0960   584.6    5.018      70.069
2015    5       11    18  13    6.0914   585.0    5.006      70.107
2015    5       11    18  18    6.0869   585.4    4.994      70.144
2015    5       11    18  24    6.0823   585.8    4.983      70.182
2015    5       11    18  30    6.0777   586.3    4.971      70.221
2015    5       11    18  35    6.0731   586.7    4.959      70.262
2015    5       11    18  41    6.0684   587.1    4.947      70.306
2015    5       11    18  47    6.0636   587.6    4.935      70.349
2015    5       11    18  52    6.0589   588.0    4.924      70.393
2015    5       11    18  58    6.0541   588.5    4.912      70.436
2015    5       11    19   4    6.0494   589.0    4.900      70.476
2015    5       11    19  10    6.0446   589.4    4.889      70.512
2015    5       11    19  15    6.0398   589.9    4.877      70.546
2015    5       11    19  21    6.0349   590.3    4.865      70.576
2015    5       11    19  27    6.0300   590.8    4.853      70.605
2015    5       11    19  32    6.0249   591.3    4.841      70.634
2015    5       11    19  38    6.0198   591.8    4.829      70.664
2015    5       11    19  44    6.0145   592.3    4.816      70.695
2015    5       11    19  50    6.0091   592.9    4.803      70.728
2015    5       11    19  55    6.0035   593.4    4.790      70.765
2015    5       11    20   1    5.9977   594.0    4.776      70.798
2015    5       11    20   7    5.9916   594.6    4.761      70.823
2015    5       11    20  12    5.9853   595.1    4.747      70.841
2015    5       11    20  18    5.9788   595.6    4.731      70.851
2015    5       11    20  24    5.9723   596.1    4.716      70.855
2015    5       11    20  30    5.9656   596.6    4.701      70.849
2015    5       11    20  35    5.9591   597.0    4.687      70.844
2015    5       11    20  41    5.9527   597.5    4.673      70.840
2015    5       11    20  47    5.9465   597.9    4.660      70.837
2015    5       11    20  52    5.9403   598.3    4.647      70.835
2015    5       11    20  58    5.9344   598.7    4.635      70.835
2015    5       11    21   4    5.9286   599.1    4.623      70.834
2015    5       11    21  10    5.9229   599.4    4.612      70.832
2015    5       11    21  15    5.9174   599.8    4.602      70.830
2015    5       11    21  21    5.9120   600.1    4.592      70.833
2015    5       11    21  27    5.9066   600.4    4.582      70.840
2015    5       11    21  32    5.9012   600.8    4.573      70.853
2015    5       11    21  38    5.8959   601.2    4.563      70.871
2015    5       11    21  44    5.8905   601.6    4.554      70.903
2015    5       11    21  50    5.8852   602.0    4.545      70.945
2015    5       11    21  55    5.8799   602.4    4.536      70.993
2015    5       11    22   1    5.8747   602.8    4.528      71.046
2015    5       11    22   7    5.8694   603.2    4.519      71.102
2015    5       11    22  12    5.8642   603.6    4.511      71.158
2015    5       11    22  18    5.8590   604.0    4.502      71.208
2015    5       11    22  24    5.8537   604.4    4.494      71.253
2015    5       11    22  30    5.8484   604.7    4.485      71.294
2015    5       11    22  35    5.8430   605.1    4.477      71.331
2015    5       11    22  41    5.8377   605.4    4.468      71.365
2015    5       11    22  47    5.8322   605.8    4.459      71.399
2015    5       11    22  52    5.8267   606.1    4.450      71.432
2015    5       11    22  58    5.8212   606.5    4.441      71.464
2015    5       11    23   4    5.8156   606.9    4.432      71.492
2015    5       11    23   9    5.8100   607.3    4.422      71.517
2015    5       11    23  15    5.8044   607.7    4.413      71.540
2015    5       11    23  21    5.7986   608.1    4.403      71.558
2015    5       11    23  27    5.7928   608.5    4.393      71.574
2015    5       11    23  32    5.7870   608.9    4.383      71.587
2015    5       11    23  38    5.7809   609.4    4.373      71.600
2015    5       11    23  44    5.7747   609.8    4.362      71.612
2015    5       11    23  49    5.7684   610.3    4.351      71.626
2015    5       11    23  55    5.7618   610.9    4.339      71.641
2015    5       12     0   1    5.7549   611.3    4.326      71.648
2015    5       12     0   7    5.7477   611.8    4.314      71.646
2015    5       12     0  12    5.7405   612.3    4.301      71.636
2015    5       12     0  18    5.7331   612.7    4.288      71.621
2015    5       12     0  24    5.7257   613.1    4.275      71.599
2015    5       12     0  29    5.7183   613.4    4.262      71.569
2015    5       12     0  35    5.7111   613.8    4.249      71.539
2015    5       12     0  41    5.7040   614.1    4.237      71.514
2015    5       12     0  47    5.6970   614.5    4.226      71.492
2015    5       12     0  52    5.6901   614.8    4.214      71.472
2015    5       12     0  58    5.6834   615.2    4.203      71.453
2015    5       12     1   4    5.6767   615.5    4.193      71.433
2015    5       12     1   9    5.6702   615.8    4.182      71.413
2015    5       12     1  15    5.6638   616.1    4.172      71.393
2015    5       12     1  21    5.6574   616.4    4.162      71.371
2015    5       12     1  27    5.6511   616.7    4.152      71.349
2015    5       12     1  32    5.6449   617.0    4.143      71.326
2015    5       12     1  38    5.6387   617.2    4.134      71.305
2015    5       12     1  44    5.6326   617.5    4.125      71.286
2015    5       12     1  49    5.6264   617.7    4.116      71.268
2015    5       12     1  55    5.6203   618.0    4.107      71.254
2015    5       12     2   1    5.6142   618.3    4.098      71.246
2015    5       12     2   7    5.6081   618.6    4.089      71.241
2015    5       12     2  12    5.6021   618.9    4.081      71.239
2015    5       12     2  18    5.5960   619.2    4.072      71.238
2015    5       12     2  24    5.5900   619.5    4.064      71.238
2015    5       12     2  29    5.5840   619.8    4.056      71.238
2015    5       12     2  35    5.5781   620.1    4.048      71.236
2015    5       12     2  41    5.5722   620.4    4.040      71.232
2015    5       12     2  47    5.5663   620.6    4.032      71.227
2015    5       12     2  52    5.5603   620.9    4.024      71.221
2015    5       12     2  58    5.5543   621.2    4.016      71.216
2015    5       12     3   4    5.5483   621.5    4.008      71.211
2015    5       12     3   9    5.5424   621.8    4.000      71.207
2015    5       12     3  15    5.5364   622.1    3.993      71.203
2015    5       12     3  21    5.5305   622.4    3.985      71.198
2015    5       12     3  27    5.5246   622.6    3.978      71.194
2015    5       12     3  32    5.5189   622.9    3.970      71.188
2015    5       12     3  38    5.5131   623.2    3.963      71.182
2015    5       12     3  44    5.5074   623.4    3.956      71.176
2015    5       12     3  49    5.5017   623.7    3.949      71.170
2015    5       12     3  55    5.4961   624.0    3.942      71.164
2015    5       12     4   1    5.4905   624.3    3.935      71.159
2015    5       12     4   6    5.4849   624.5    3.928      71.154
2015    5       12     4  12    5.4794   624.8    3.921      71.150
2015    5       12     4  18    5.4739   625.1    3.914      71.146
2015    5       12     4  24    5.4684   625.4    3.907      71.143
2015    5       12     4  29    5.4630   625.6    3.901      71.140
2015    5       12     4  35    5.4577   625.9    3.895      71.138
2015    5       12     4  41    5.4523   626.2    3.888      71.136
2015    5       12     4  46    5.4470   626.5    3.882      71.134
2015    5       12     4  52    5.4416   626.7    3.876      71.133
2015    5       12     4  58    5.4363   627.0    3.870      71.131
2015    5       12     5   4    5.4310   627.3    3.864      71.130
2015    5       12     5   9    5.4258   627.5    3.858      71.129
2015    5       12     5  15    5.4205   627.8    3.852      71.129
2015    5       12     5  21    5.4153   628.0    3.846      71.129
2015    5       12     5  26    5.4101   628.2    3.841      71.130
2015    5       12     5  32    5.4049   628.5    3.835      71.130
2015    5       12     5  38    5.3997   628.7    3.829      71.130
2015    5       12     5  44    5.3945   629.0    3.824      71.130
2015    5       12     5  49    5.3893   629.2    3.818      71.130
2015    5       12     5  55    5.3841   629.4    3.813      71.129
2015    5       12     6   1    5.3790   629.7    3.807      71.128
2015    5       12     6   6    5.3738   629.9    3.802      71.126
2015    5       12     6  12    5.3686   630.1    3.796      71.123
2015    5       12     6  18    5.3634   630.4    3.790      71.120
2015    5       12     6  24    5.3582   630.6    3.785      71.116
2015    5       12     6  29    5.3530   630.9    3.779      71.111
2015    5       12     6  35    5.3478   631.1    3.773      71.105
2015    5       12     6  41    5.3426   631.4    3.767      71.097
2015    5       12     6  46    5.3374   631.6    3.762      71.090
2015    5       12     6  52    5.3321   631.8    3.756      71.081
2015    5       12     6  58    5.3269   632.1    3.750      71.071
2015    5       12     7   4    5.3216   632.3    3.744      71.061
2015    5       12     7   9    5.3163   632.6    3.738      71.050
2015    5       12     7  15    5.3110   632.8    3.732      71.038
2015    5       12     7  21    5.3057   633.1    3.726      71.025
2015    5       12     7  26    5.3004   633.3    3.720      71.013
2015    5       12     7  32    5.2951   633.5    3.714      70.999
2015    5       12     7  38    5.2898   633.8    3.708      70.985
2015    5       12     7  44    5.2845   634.0    3.702      70.970
2015    5       12     7  49    5.2792   634.3    3.696      70.955
2015    5       12     7  55    5.2740   634.5    3.690      70.940
2015    5       12     8   1    5.2687   634.7    3.684      70.924
2015    5       12     8   6    5.2636   635.0    3.678      70.908
2015    5       12     8  12    5.2584   635.2    3.672      70.892
2015    5       12     8  18    5.2533   635.4    3.666      70.875
2015    5       12     8  23    5.2482   635.7    3.660      70.858
2015    5       12     8  29    5.2431   635.9    3.654      70.840
2015    5       12     8  35    5.2380   636.1    3.648      70.822
2015    5       12     8  41    5.2330   636.3    3.642      70.803
2015    5       12     8  46    5.2280   636.6    3.637      70.785
2015    5       12     8  52    5.2230   636.8    3.631      70.766
2015    5       12     8  58    5.2180   637.0    3.625      70.746
2015    5       12     9   3    5.2131   637.2    3.619      70.727
2015    5       12     9   9    5.2081   637.4    3.613      70.707
2015    5       12     9  15    5.2032   637.6    3.607      70.687
2015    5       12     9  21    5.1984   637.8    3.602      70.667
2015    5       12     9  26    5.1935   638.0    3.596      70.647
2015    5       12     9  32    5.1887   638.2    3.591      70.627
2015    5       12     9  38    5.1838   638.4    3.585      70.608
2015    5       12     9  43    5.1790   638.6    3.580      70.588
2015    5       12     9  49    5.1743   638.8    3.574      70.568
2015    5       12     9  55    5.1695   639.0    3.569      70.549
2015    5       12    10   1    5.1648   639.2    3.564      70.529
2015    5       12    10   6    5.1600   639.4    3.559      70.510
2015    5       12    10  12    5.1554   639.6    3.553      70.491
2015    5       12    10  18    5.1507   639.8    3.548      70.472
2015    5       12    10  23    5.1460   639.9    3.543      70.454
2015    5       12    10  29    5.1414   640.1    3.538      70.436
2015    5       12    10  35    5.1368   640.3    3.534      70.418
2015    5       12    10  41    5.1322   640.5    3.529      70.400
2015    5       12    10  46    5.1276   640.7    3.524      70.382
2015    5       12    10  52    5.1230   640.8    3.519      70.364
2015    5       12    10  58    5.1185   641.0    3.515      70.347
2015    5       12    11   3    5.1140   641.2    3.510      70.329
2015    5       12    11   9    5.1095   641.3    3.505      70.312
2015    5       12    11  15    5.1050   641.5    3.501      70.295
2015    5       12    11  21    5.1005   641.7    3.496      70.278
2015    5       12    11  26    5.0960   641.8    3.492      70.261
2015    5       12    11  32    5.0915   642.0    3.487      70.244
2015    5       12    11  38    5.0871   642.2    3.483      70.227
2015    5       12    11  43    5.0827   642.3    3.479      70.210
2015    5       12    11  49    5.0782   642.5    3.474      70.193
2015    5       12    11  55    5.0738   642.6    3.470      70.176
2015    5       12    12   1    5.0694   642.8    3.466      70.159
2015    5       12    12   6    5.0650   642.9    3.462      70.143
2015    5       12    12  12    5.0606   643.1    3.457      70.126
2015    5       12    12  18    5.0563   643.3    3.453      70.109
2015    5       12    12  23    5.0519   643.4    3.449      70.092
2015    5       12    12  29    5.0475   643.6    3.445      70.075
2015    5       12    12  35    5.0432   643.7    3.441      70.058
2015    5       12    12  40    5.0388   643.9    3.437      70.041
2015    5       12    12  46    5.0345   644.0    3.433      70.024
2015    5       12    12  52    5.0301   644.2    3.429      70.007
2015    5       12    12  58    5.0258   644.3    3.425      69.990
2015    5       12    13   3    5.0214   644.4    3.421      69.972
2015    5       12    13   9    5.0171   644.6    3.417      69.955
2015    5       12    13  15    5.0128   644.7    3.413      69.937
2015    5       12    13  20    5.0085   644.9    3.409      69.919
2015    5       12    13  26    5.0041   645.0    3.405      69.900
2015    5       12    13  32    4.9998   645.2    3.402      69.882
2015    5       12    13  38    4.9955   645.3    3.398      69.864
2015    5       12    13  43    4.9912   645.5    3.394      69.845
2015    5       12    13  49    4.9869   645.6    3.390      69.826
2015    5       12    13  55    4.9826   645.7    3.386      69.806
2015    5       12    14   0    4.9783   645.9    3.383      69.787
2015    5       12    14   6    4.9740   646.0    3.379      69.767
2015    5       12    14  12    4.9698   646.1    3.375      69.748
2015    5       12    14  18    4.9655   646.3    3.371      69.728
2015    5       12    14  23    4.9612   646.4    3.368      69.708
2015    5       12    14  29    4.9570   646.6    3.364      69.687
2015    5       12    14  35    4.9528   646.7    3.360      69.667
2015    5       12    14  40    4.9486   646.8    3.356      69.646
2015    5       12    14  46    4.9444   647.0    3.353      69.626
2015    5       12    14  52    4.9402   647.1    3.349      69.605
2015    5       12    14  58    4.9360   647.2    3.345      69.585
2015    5       12    15   3    4.9318   647.3    3.342      69.564
2015    5       12    15   9    4.9277   647.5    3.338      69.543
2015    5       12    15  15    4.9235   647.6    3.335      69.522
2015    5       12    15  20    4.9194   647.7    3.331      69.501
2015    5       12    15  26    4.9153   647.9    3.327      69.481
2015    5       12    15  32    4.9112   648.0    3.324      69.460
2015    5       12    15  38    4.9071   648.1    3.320      69.439
2015    5       12    15  43    4.9031   648.2    3.317      69.418
2015    5       12    15  49    4.8990   648.4    3.313      69.397
2015    5       12    15  55    4.8950   648.5    3.310      69.376
2015    5       12    16   0    4.8909   648.6    3.306      69.355
2015    5       12    16   6    4.8869   648.7    3.303      69.334
2015    5       12    16  12    4.8829   648.8    3.299      69.313
2015    5       12    16  18    4.8789   648.9    3.296      69.292
2015    5       12    16  23    4.8749   649.1    3.293      69.270
2015    5       12    16  29    4.8709   649.2    3.289      69.249
2015    5       12    16  35    4.8670   649.3    3.286      69.227
2015    5       12    16  40    4.8630   649.4    3.282      69.206
2015    5       12    16  46    4.8590   649.5    3.279      69.184
2015    5       12    16  52    4.8551   649.6    3.275      69.162
2015    5       12    16  58    4.8512   649.7    3.272      69.140
2015    5       12    17   3    4.8472   649.8    3.269      69.118
2015    5       12    17   9    4.8433   649.9    3.265      69.096
2015    5       12    17  15    4.8394   650.0    3.262      69.074
2015    5       12    17  20    4.8355   650.1    3.259      69.051
2015    5       12    17  26    4.8316   650.2    3.255      69.029
2015    5       12    17  32    4.8277   650.3    3.252      69.006
2015    5       12    17  37    4.8239   650.4    3.249      68.984
2015    5       12    17  43    4.8200   650.5    3.246      68.961
2015    5       12    17  49    4.8161   650.6    3.243      68.939
2015    5       12    17  55    4.8123   650.7    3.239      68.916
2015    5       12    18   0    4.8084   650.8    3.236      68.893
2015    5       12    18   6    4.8046   650.9    3.233      68.870
2015    5       12    18  12    4.8008   651.0    3.230      68.847
2015    5       12    18  17    4.7969   651.0    3.227      68.824
2015    5       12    18  23    4.7931   651.1    3.224      68.801
2015    5       12    18  29    4.7893   651.2    3.221      68.778
2015    5       12    18  35    4.7855   651.3    3.218      68.755
2015    5       12    18  40    4.7816   651.4    3.215      68.732
2015    5       12    18  46    4.7778   651.5    3.213      68.709
2015    5       12    18  52    4.7740   651.5    3.210      68.685
2015    5       12    18  57    4.7702   651.6    3.207      68.661
2015    5       12    19   3    4.7664   651.7    3.204      68.637
2015    5       12    19   9    4.7626   651.8    3.201      68.613
2015    5       12    19  15    4.7589   651.8    3.199      68.589
2015    5       12    19  20    4.7551   651.9    3.196      68.564
2015    5       12    19  26    4.7513   652.0    3.193      68.539
2015    5       12    19  32    4.7475   652.0    3.190      68.514
2015    5       12    19  37    4.7437   652.1    3.188      68.488
2015    5       12    19  43    4.7400   652.2    3.185      68.462
2015    5       12    19  49    4.7362   652.3    3.182      68.436
2015    5       12    19  55    4.7324   652.3    3.180      68.409
2015    5       12    20   0    4.7287   652.4    3.177      68.382
2015    5       12    20   6    4.7249   652.4    3.174      68.354
2015    5       12    20  12    4.7212   652.5    3.172      68.326
2015    5       12    20  17    4.7174   652.6    3.169      68.298
2015    5       12    20  23    4.7137   652.6    3.166      68.269
2015    5       12    20  29    4.7100   652.7    3.164      68.240
2015    5       12    20  35    4.7062   652.7    3.161      68.210
2015    5       12    20  40    4.7025   652.8    3.158      68.180
2015    5       12    20  46    4.6989   652.9    3.156      68.150
2015    5       12    20  52    4.6952   652.9    3.153      68.120
2015    5       12    20  57    4.6915   653.0    3.150      68.089
2015    5       12    21   3    4.6878   653.0    3.148      68.058
2015    5       12    21   9    4.6842   653.1    3.145      68.027
2015    5       12    21  15    4.6806   653.1    3.142      67.996
2015    5       12    21  20    4.6769   653.2    3.140      67.964
2015    5       12    21  26    4.6734   653.2    3.137      67.933
2015    5       12    21  32    4.6698   653.3    3.134      67.901
2015    5       12    21  37    4.6662   653.3    3.131      67.870
2015    5       12    21  43    4.6627   653.4    3.129      67.838
2015    5       12    21  49    4.6591   653.4    3.126      67.807
2015    5       12    21  54    4.6556   653.5    3.123      67.776
2015    5       12    22   0    4.6521   653.5    3.121      67.745
2015    5       12    22   6    4.6486   653.5    3.118      67.714
2015    5       12    22  12    4.6452   653.6    3.115      67.684
2015    5       12    22  17    4.6417   653.6    3.113      67.653
2015    5       12    22  23    4.6383   653.7    3.110      67.623
2015    5       12    22  29    4.6349   653.7    3.107      67.594
2015    5       12    22  34    4.6315   653.7    3.105      67.564
2015    5       12    22  40    4.6281   653.8    3.102      67.536
2015    5       12    22  46    4.6247   653.8    3.100      67.507
2015    5       12    22  52    4.6213   653.9    3.097      67.479
2015    5       12    22  57    4.6180   653.9    3.095      67.451
2015    5       12    23   3    4.6147   653.9    3.092      67.424
2015    5       12    23   9    4.6113   654.0    3.090      67.397
2015    5       12    23  14    4.6080   654.0    3.087      67.370
2015    5       12    23  20    4.6047   654.0    3.085      67.344
2015    5       12    23  26    4.6014   654.1    3.083      67.318
2015    5       12    23  32    4.5981   654.1    3.080      67.292
2015    5       12    23  37    4.5948   654.1    3.078      67.267
2015    5       12    23  43    4.5915   654.2    3.076      67.242
2015    5       12    23  49    4.5882   654.2    3.073      67.217
2015    5       12    23  54    4.5849   654.2    3.071      67.193
2015    5       13     0   0    4.5816   654.3    3.069      67.169
