year    month   day   hour  minute  B_enl V_enl   n_enl       T_enl
[year] [month] [day] [hour][minute] [nT]  [km/s]  [cm-3]      [kK]
2014   10        2     0   0    4.49   406.3    5.9      38.276
2014   10        2     0   6    4.49   406.2    5.9      38.258
2014   10        2     0  11    4.49   406.1    5.9      38.240
2014   10        2     0  16    4.49   405.9    5.9      38.222
2014   10        2     0  22    4.49   405.8    5.9      38.205
2014   10        2     0  27    4.49   405.7    5.9      38.187
2014   10        2     0  33    4.49   405.5    5.9      38.169
2014   10        2     0  38    4.49   405.4    5.9      38.152
2014   10        2     0  43    4.50   405.3    5.9      38.134
2014   10        2     0  49    4.50   405.1    6.0      38.117
2014   10        2     0  54    4.50   405.0    6.0      38.099
2014   10        2     1   0    4.50   404.8    6.0      38.082
2014   10        2     1   5    4.50   404.7    6.0      38.065
2014   10        2     1  10    4.50   404.6    6.0      38.047
2014   10        2     1  16    4.50   404.5    6.0      38.030
2014   10        2     1  21    4.50   404.3    6.0      38.013
2014   10        2     1  27    4.51   404.2    6.0      37.996
2014   10        2     1  32    4.51   404.1    6.0      37.979
2014   10        2     1  37    4.51   403.9    6.0      37.962
2014   10        2     1  43    4.51   403.8    6.0      37.945
2014   10        2     1  48    4.51   403.7    6.0      37.928
2014   10        2     1  54    4.51   403.5    6.0      37.911
2014   10        2     1  59    4.51   403.4    6.0      37.895
2014   10        2     2   4    4.52   403.3    6.0      37.878
2014   10        2     2  10    4.52   403.1    6.0      37.861
2014   10        2     2  15    4.52   403.0    6.0      37.845
2014   10        2     2  20    4.52   402.9    6.0      37.828
2014   10        2     2  26    4.52   402.7    6.1      37.811
2014   10        2     2  31    4.52   402.6    6.1      37.795
2014   10        2     2  37    4.52   402.5    6.1      37.778
2014   10        2     2  42    4.53   402.4    6.1      37.761
2014   10        2     2  47    4.53   402.2    6.1      37.745
2014   10        2     2  53    4.53   402.1    6.1      37.728
2014   10        2     2  58    4.53   402.0    6.1      37.712
2014   10        2     3   4    4.53   401.8    6.1      37.695
2014   10        2     3   9    4.53   401.7    6.1      37.679
2014   10        2     3  14    4.53   401.6    6.1      37.662
2014   10        2     3  20    4.54   401.5    6.1      37.646
2014   10        2     3  25    4.54   401.3    6.1      37.629
2014   10        2     3  31    4.54   401.2    6.1      37.613
2014   10        2     3  36    4.54   401.1    6.1      37.596
2014   10        2     3  41    4.54   400.9    6.1      37.580
2014   10        2     3  47    4.54   400.8    6.1      37.563
2014   10        2     3  52    4.55   400.7    6.1      37.547
2014   10        2     3  58    4.55   400.6    6.2      37.531
2014   10        2     4   3    4.55   400.4    6.2      37.514
2014   10        2     4   8    4.55   400.3    6.2      37.498
2014   10        2     4  14    4.55   400.2    6.2      37.482
2014   10        2     4  19    4.55   400.1    6.2      37.466
2014   10        2     4  25    4.56   399.9    6.2      37.450
2014   10        2     4  30    4.56   399.8    6.2      37.434
2014   10        2     4  35    4.56   399.7    6.2      37.418
2014   10        2     4  41    4.56   399.5    6.2      37.402
2014   10        2     4  46    4.56   399.4    6.2      37.386
2014   10        2     4  51    4.56   399.3    6.2      37.370
2014   10        2     4  57    4.57   399.2    6.2      37.354
2014   10        2     5   2    4.57   399.0    6.2      37.339
2014   10        2     5   8    4.57   398.9    6.2      37.323
2014   10        2     5  13    4.57   398.8    6.2      37.308
2014   10        2     5  18    4.57   398.7    6.2      37.292
2014   10        2     5  24    4.57   398.5    6.3      37.277
2014   10        2     5  29    4.58   398.4    6.3      37.262
2014   10        2     5  35    4.58   398.3    6.3      37.247
2014   10        2     5  40    4.58   398.2    6.3      37.232
2014   10        2     5  45    4.58   398.1    6.3      37.217
2014   10        2     5  51    4.58   397.9    6.3      37.202
2014   10        2     5  56    4.59   397.8    6.3      37.187
2014   10        2     6   2    4.59   397.7    6.3      37.172
2014   10        2     6   7    4.59   397.6    6.3      37.157
2014   10        2     6  12    4.59   397.4    6.3      37.142
2014   10        2     6  18    4.59   397.3    6.3      37.128
2014   10        2     6  23    4.60   397.2    6.3      37.113
2014   10        2     6  29    4.60   397.1    6.3      37.099
2014   10        2     6  34    4.60   397.0    6.3      37.084
2014   10        2     6  39    4.60   396.8    6.3      37.069
2014   10        2     6  45    4.60   396.7    6.4      37.055
2014   10        2     6  50    4.61   396.6    6.4      37.040
2014   10        2     6  56    4.61   396.5    6.4      37.026
2014   10        2     7   1    4.61   396.4    6.4      37.011
2014   10        2     7   6    4.61   396.2    6.4      36.997
2014   10        2     7  12    4.61   396.1    6.4      36.983
2014   10        2     7  17    4.62   396.0    6.4      36.968
2014   10        2     7  23    4.62   395.9    6.4      36.954
2014   10        2     7  28    4.62   395.8    6.4      36.940
2014   10        2     7  33    4.62   395.7    6.4      36.925
2014   10        2     7  39    4.62   395.5    6.4      36.911
2014   10        2     7  44    4.63   395.4    6.4      36.897
2014   10        2     7  49    4.63   395.3    6.4      36.882
2014   10        2     7  55    4.63   395.2    6.4      36.868
2014   10        2     8   0    4.63   395.1    6.5      36.854
2014   10        2     8   6    4.63   394.9    6.5      36.840
2014   10        2     8  11    4.64   394.8    6.5      36.825
2014   10        2     8  16    4.64   394.7    6.5      36.812
2014   10        2     8  22    4.64   394.6    6.5      36.797
2014   10        2     8  27    4.64   394.5    6.5      36.784
2014   10        2     8  33    4.65   394.4    6.5      36.770
2014   10        2     8  38    4.65   394.3    6.5      36.756
2014   10        2     8  43    4.65   394.1    6.5      36.742
2014   10        2     8  49    4.65   394.0    6.5      36.729
2014   10        2     8  54    4.65   393.9    6.5      36.715
2014   10        2     9   0    4.66   393.8    6.5      36.702
2014   10        2     9   5    4.66   393.7    6.5      36.688
2014   10        2     9  10    4.66   393.6    6.5      36.675
2014   10        2     9  16    4.66   393.5    6.6      36.662
2014   10        2     9  21    4.67   393.4    6.6      36.649
2014   10        2     9  27    4.67   393.2    6.6      36.636
2014   10        2     9  32    4.67   393.1    6.6      36.624
2014   10        2     9  37    4.67   393.0    6.6      36.611
2014   10        2     9  43    4.68   392.9    6.6      36.599
2014   10        2     9  48    4.68   392.8    6.6      36.586
2014   10        2     9  53    4.68   392.7    6.6      36.574
2014   10        2     9  59    4.68   392.6    6.6      36.562
2014   10        2    10   4    4.69   392.5    6.6      36.550
2014   10        2    10  10    4.69   392.4    6.6      36.538
2014   10        2    10  15    4.69   392.3    6.6      36.527
2014   10        2    10  20    4.69   392.2    6.6      36.515
2014   10        2    10  26    4.70   392.0    6.7      36.504
2014   10        2    10  31    4.70   391.9    6.7      36.493
2014   10        2    10  37    4.70   391.8    6.7      36.481
2014   10        2    10  42    4.70   391.7    6.7      36.471
2014   10        2    10  47    4.71   391.6    6.7      36.460
2014   10        2    10  53    4.71   391.5    6.7      36.449
2014   10        2    10  58    4.71   391.4    6.7      36.438
2014   10        2    11   4    4.71   391.3    6.7      36.428
2014   10        2    11   9    4.72   391.2    6.7      36.418
2014   10        2    11  14    4.72   391.1    6.7      36.407
2014   10        2    11  20    4.72   391.0    6.7      36.397
2014   10        2    11  25    4.73   390.9    6.7      36.388
2014   10        2    11  31    4.73   390.8    6.8      36.378
2014   10        2    11  36    4.73   390.7    6.8      36.368
2014   10        2    11  41    4.73   390.6    6.8      36.358
2014   10        2    11  47    4.74   390.5    6.8      36.349
2014   10        2    11  52    4.74   390.4    6.8      36.340
2014   10        2    11  58    4.74   390.3    6.8      36.331
2014   10        2    12   3    4.75   390.2    6.8      36.321
2014   10        2    12   8    4.75   390.1    6.8      36.312
2014   10        2    12  14    4.75   390.0    6.8      36.303
2014   10        2    12  19    4.75   389.9    6.8      36.295
2014   10        2    12  24    4.76   389.8    6.8      36.286
2014   10        2    12  30    4.76   389.7    6.8      36.277
2014   10        2    12  35    4.76   389.6    6.9      36.269
2014   10        2    12  41    4.77   389.5    6.9      36.261
2014   10        2    12  46    4.77   389.4    6.9      36.252
2014   10        2    12  51    4.77   389.3    6.9      36.244
2014   10        2    12  57    4.77   389.2    6.9      36.236
2014   10        2    13   2    4.78   389.1    6.9      36.228
2014   10        2    13   8    4.78   389.1    6.9      36.220
2014   10        2    13  13    4.78   389.0    6.9      36.212
2014   10        2    13  18    4.79   388.9    6.9      36.204
2014   10        2    13  24    4.79   388.8    6.9      36.196
2014   10        2    13  29    4.79   388.7    6.9      36.188
2014   10        2    13  35    4.80   388.6    6.9      36.180
2014   10        2    13  40    4.80   388.5    7.0      36.172
2014   10        2    13  45    4.80   388.4    7.0      36.165
2014   10        2    13  51    4.80   388.3    7.0      36.157
2014   10        2    13  56    4.81   388.2    7.0      36.149
2014   10        2    14   2    4.81   388.1    7.0      36.142
2014   10        2    14   7    4.81   388.1    7.0      36.134
2014   10        2    14  12    4.82   388.0    7.0      36.126
2014   10        2    14  18    4.82   387.9    7.0      36.119
2014   10        2    14  23    4.82   387.8    7.0      36.111
2014   10        2    14  29    4.83   387.7    7.0      36.103
2014   10        2    14  34    4.83   387.6    7.0      36.096
2014   10        2    14  39    4.83   387.5    7.0      36.088
2014   10        2    14  45    4.84   387.5    7.1      36.081
2014   10        2    14  50    4.84   387.4    7.1      36.073
2014   10        2    14  55    4.84   387.3    7.1      36.066
2014   10        2    15   1    4.84   387.2    7.1      36.058
2014   10        2    15   6    4.85   387.1    7.1      36.050
2014   10        2    15  12    4.85   387.0    7.1      36.043
2014   10        2    15  17    4.85   386.9    7.1      36.035
2014   10        2    15  22    4.86   386.9    7.1      36.028
2014   10        2    15  28    4.86   386.8    7.1      36.021
2014   10        2    15  33    4.86   386.7    7.1      36.013
2014   10        2    15  39    4.87   386.6    7.1      36.006
2014   10        2    15  44    4.87   386.5    7.1      35.999
2014   10        2    15  49    4.87   386.5    7.2      35.992
2014   10        2    15  55    4.88   386.4    7.2      35.984
2014   10        2    16   0    4.88   386.3    7.2      35.977
2014   10        2    16   6    4.88   386.2    7.2      35.971
2014   10        2    16  11    4.89   386.1    7.2      35.964
2014   10        2    16  16    4.89   386.1    7.2      35.957
2014   10        2    16  22    4.89   386.0    7.2      35.950
2014   10        2    16  27    4.90   385.9    7.2      35.944
2014   10        2    16  33    4.90   385.8    7.2      35.937
2014   10        2    16  38    4.90   385.7    7.2      35.931
2014   10        2    16  43    4.91   385.7    7.2      35.925
2014   10        2    16  49    4.91   385.6    7.2      35.918
2014   10        2    16  54    4.91   385.5    7.3      35.913
2014   10        2    17   0    4.92   385.4    7.3      35.907
2014   10        2    17   5    4.92   385.4    7.3      35.901
2014   10        2    17  10    4.92   385.3    7.3      35.895
2014   10        2    17  16    4.93   385.2    7.3      35.890
2014   10        2    17  21    4.93   385.1    7.3      35.885
2014   10        2    17  26    4.94   385.1    7.3      35.880
2014   10        2    17  32    4.94   385.0    7.3      35.875
2014   10        2    17  37    4.94   384.9    7.3      35.870
2014   10        2    17  43    4.95   384.9    7.3      35.865
2014   10        2    17  48    4.95   384.8    7.3      35.861
2014   10        2    17  53    4.95   384.7    7.4      35.857
2014   10        2    17  59    4.96   384.7    7.4      35.853
2014   10        2    18   4    4.96   384.6    7.4      35.849
2014   10        2    18  10    4.96   384.5    7.4      35.845
2014   10        2    18  15    4.97   384.5    7.4      35.841
2014   10        2    18  20    4.97   384.4    7.4      35.838
2014   10        2    18  26    4.97   384.3    7.4      35.834
2014   10        2    18  31    4.98   384.3    7.4      35.831
2014   10        2    18  37    4.98   384.2    7.4      35.828
2014   10        2    18  42    4.99   384.1    7.4      35.826
2014   10        2    18  47    4.99   384.1    7.4      35.823
2014   10        2    18  53    4.99   384.0    7.4      35.820
2014   10        2    18  58    5.00   383.9    7.5      35.818
2014   10        2    19   4    5.00   383.9    7.5      35.816
2014   10        2    19   9    5.00   383.8    7.5      35.814
2014   10        2    19  14    5.01   383.7    7.5      35.812
2014   10        2    19  20    5.01   383.7    7.5      35.810
2014   10        2    19  25    5.02   383.6    7.5      35.808
2014   10        2    19  31    5.02   383.6    7.5      35.807
2014   10        2    19  36    5.02   383.5    7.5      35.805
2014   10        2    19  41    5.03   383.4    7.5      35.804
2014   10        2    19  47    5.03   383.4    7.5      35.803
2014   10        2    19  52    5.04   383.3    7.5      35.801
2014   10        2    19  57    5.04   383.3    7.6      35.800
2014   10        2    20   3    5.04   383.2    7.6      35.799
2014   10        2    20   8    5.05   383.2    7.6      35.798
2014   10        2    20  14    5.05   383.1    7.6      35.797
2014   10        2    20  19    5.05   383.1    7.6      35.796
2014   10        2    20  24    5.06   383.0    7.6      35.795
2014   10        2    20  30    5.06   382.9    7.6      35.794
2014   10        2    20  35    5.07   382.9    7.6      35.793
2014   10        2    20  41    5.07   382.8    7.6      35.792
2014   10        2    20  46    5.07   382.8    7.6      35.791
2014   10        2    20  51    5.08   382.7    7.6      35.790
2014   10        2    20  57    5.08   382.7    7.7      35.789
2014   10        2    21   2    5.09   382.6    7.7      35.788
2014   10        2    21   8    5.09   382.6    7.7      35.787
2014   10        2    21  13    5.09   382.5    7.7      35.786
2014   10        2    21  18    5.10   382.5    7.7      35.785
2014   10        2    21  24    5.10   382.4    7.7      35.785
2014   10        2    21  29    5.11   382.4    7.7      35.784
2014   10        2    21  35    5.11   382.3    7.7      35.783
2014   10        2    21  40    5.11   382.3    7.7      35.782
2014   10        2    21  45    5.12   382.2    7.7      35.782
2014   10        2    21  51    5.12   382.2    7.7      35.781
2014   10        2    21  56    5.13   382.1    7.7      35.780
2014   10        2    22   2    5.13   382.1    7.8      35.779
2014   10        2    22   7    5.13   382.0    7.8      35.779
2014   10        2    22  12    5.14   382.0    7.8      35.779
2014   10        2    22  18    5.14   381.9    7.8      35.778
2014   10        2    22  23    5.15   381.9    7.8      35.778
2014   10        2    22  28    5.15   381.8    7.8      35.778
2014   10        2    22  34    5.15   381.8    7.8      35.777
2014   10        2    22  39    5.16   381.7    7.8      35.777
2014   10        2    22  45    5.16   381.7    7.8      35.778
2014   10        2    22  50    5.17   381.6    7.8      35.778
2014   10        2    22  55    5.17   381.6    7.8      35.778
2014   10        2    23   1    5.17   381.5    7.8      35.779
2014   10        2    23   6    5.18   381.5    7.9      35.779
2014   10        2    23  12    5.18   381.5    7.9      35.780
2014   10        2    23  17    5.19   381.4    7.9      35.781
2014   10        2    23  22    5.19   381.4    7.9      35.782
2014   10        2    23  28    5.19   381.3    7.9      35.783
2014   10        2    23  33    5.20   381.3    7.9      35.785
2014   10        2    23  39    5.20   381.2    7.9      35.787
2014   10        2    23  44    5.21   381.2    7.9      35.789
2014   10        2    23  49    5.21   381.2    7.9      35.791
2014   10        2    23  55    5.21   381.1    7.9      35.793
2014   10        3     0   0    5.22   381.1    7.9      35.795
2014   10        3     0   6    5.22   381.0    7.9      35.798
2014   10        3     0  11    5.23   381.0    8.0      35.801
2014   10        3     0  16    5.23   381.0    8.0      35.803
2014   10        3     0  22    5.24   380.9    8.0      35.806
2014   10        3     0  27    5.24   380.9    8.0      35.809
2014   10        3     0  33    5.24   380.9    8.0      35.813
2014   10        3     0  38    5.25   380.8    8.0      35.816
2014   10        3     0  43    5.25   380.8    8.0      35.819
2014   10        3     0  49    5.26   380.7    8.0      35.822
2014   10        3     0  54    5.26   380.7    8.0      35.825
2014   10        3     0  59    5.26   380.7    8.0      35.829
2014   10        3     1   5    5.27   380.6    8.0      35.832
2014   10        3     1  10    5.27   380.6    8.0      35.836
2014   10        3     1  16    5.28   380.6    8.0      35.839
2014   10        3     1  21    5.28   380.5    8.1      35.842
2014   10        3     1  26    5.28   380.5    8.1      35.845
2014   10        3     1  32    5.29   380.5    8.1      35.849
2014   10        3     1  37    5.29   380.4    8.1      35.852
2014   10        3     1  43    5.30   380.4    8.1      35.855
2014   10        3     1  48    5.30   380.4    8.1      35.859
2014   10        3     1  53    5.31   380.3    8.1      35.862
2014   10        3     1  59    5.31   380.3    8.1      35.866
2014   10        3     2   4    5.31   380.3    8.1      35.869
2014   10        3     2  10    5.32   380.3    8.1      35.873
2014   10        3     2  15    5.32   380.2    8.1      35.876
2014   10        3     2  20    5.33   380.2    8.1      35.880
2014   10        3     2  26    5.33   380.2    8.1      35.883
2014   10        3     2  31    5.34   380.1    8.2      35.887
2014   10        3     2  37    5.34   380.1    8.2      35.891
2014   10        3     2  42    5.34   380.1    8.2      35.895
2014   10        3     2  47    5.35   380.1    8.2      35.899
2014   10        3     2  53    5.35   380.0    8.2      35.903
2014   10        3     2  58    5.36   380.0    8.2      35.907
2014   10        3     3   4    5.36   380.0    8.2      35.911
2014   10        3     3   9    5.37   380.0    8.2      35.915
2014   10        3     3  14    5.37   379.9    8.2      35.919
2014   10        3     3  20    5.37   379.9    8.2      35.924
2014   10        3     3  25    5.38   379.9    8.2      35.928
2014   10        3     3  30    5.38   379.9    8.2      35.933
2014   10        3     3  36    5.39   379.8    8.2      35.938
2014   10        3     3  41    5.39   379.8    8.2      35.943
2014   10        3     3  47    5.40   379.8    8.3      35.948
2014   10        3     3  52    5.40   379.8    8.3      35.953
2014   10        3     3  57    5.40   379.8    8.3      35.958
2014   10        3     4   3    5.41   379.7    8.3      35.963
2014   10        3     4   8    5.41   379.7    8.3      35.969
2014   10        3     4  14    5.42   379.7    8.3      35.974
2014   10        3     4  19    5.42   379.7    8.3      35.980
2014   10        3     4  24    5.43   379.7    8.3      35.986
2014   10        3     4  30    5.43   379.6    8.3      35.992
2014   10        3     4  35    5.44   379.6    8.3      35.998
2014   10        3     4  41    5.44   379.6    8.3      36.004
2014   10        3     4  46    5.44   379.6    8.3      36.010
2014   10        3     4  51    5.45   379.6    8.3      36.016
2014   10        3     4  57    5.45   379.6    8.3      36.022
2014   10        3     5   2    5.46   379.6    8.4      36.029
2014   10        3     5   8    5.46   379.5    8.4      36.036
2014   10        3     5  13    5.47   379.5    8.4      36.042
2014   10        3     5  18    5.47   379.5    8.4      36.049
2014   10        3     5  24    5.47   379.5    8.4      36.056
2014   10        3     5  29    5.48   379.5    8.4      36.064
2014   10        3     5  35    5.48   379.5    8.4      36.071
2014   10        3     5  40    5.49   379.5    8.4      36.079
2014   10        3     5  45    5.49   379.5    8.4      36.087
2014   10        3     5  51    5.50   379.4    8.4      36.095
2014   10        3     5  56    5.50   379.4    8.4      36.103
2014   10        3     6   1    5.50   379.4    8.4      36.112
2014   10        3     6   7    5.51   379.4    8.4      36.121
2014   10        3     6  12    5.51   379.4    8.5      36.130
2014   10        3     6  18    5.52   379.4    8.5      36.139
2014   10        3     6  23    5.52   379.4    8.5      36.149
2014   10        3     6  28    5.53   379.4    8.5      36.159
2014   10        3     6  34    5.53   379.4    8.5      36.169
2014   10        3     6  39    5.53   379.4    8.5      36.180
2014   10        3     6  45    5.54   379.4    8.5      36.190
2014   10        3     6  50    5.54   379.4    8.5      36.201
2014   10        3     6  55    5.55   379.4    8.5      36.211
2014   10        3     7   1    5.55   379.4    8.5      36.222
2014   10        3     7   6    5.56   379.3    8.5      36.233
2014   10        3     7  12    5.56   379.3    8.5      36.243
2014   10        3     7  17    5.56   379.3    8.5      36.254
2014   10        3     7  22    5.57   379.3    8.5      36.265
2014   10        3     7  28    5.57   379.3    8.5      36.276
2014   10        3     7  33    5.58   379.3    8.5      36.287
2014   10        3     7  39    5.58   379.3    8.6      36.298
2014   10        3     7  44    5.59   379.3    8.6      36.309
2014   10        3     7  49    5.59   379.3    8.6      36.320
2014   10        3     7  55    5.59   379.3    8.6      36.331
2014   10        3     8   0    5.60   379.3    8.6      36.342
2014   10        3     8   5    5.60   379.3    8.6      36.353
2014   10        3     8  11    5.61   379.3    8.6      36.363
2014   10        3     8  16    5.61   379.3    8.6      36.374
2014   10        3     8  22    5.61   379.3    8.6      36.385
2014   10        3     8  27    5.62   379.3    8.6      36.396
2014   10        3     8  32    5.62   379.3    8.6      36.406
2014   10        3     8  38    5.63   379.3    8.6      36.417
2014   10        3     8  43    5.63   379.3    8.6      36.428
2014   10        3     8  49    5.63   379.3    8.6      36.438
2014   10        3     8  54    5.64   379.3    8.6      36.449
2014   10        3     8  59    5.64   379.3    8.6      36.460
2014   10        3     9   5    5.65   379.3    8.6      36.471
2014   10        3     9  10    5.65   379.3    8.7      36.481
2014   10        3     9  16    5.66   379.3    8.7      36.492
2014   10        3     9  21    5.66   379.3    8.7      36.504
2014   10        3     9  26    5.66   379.3    8.7      36.515
2014   10        3     9  32    5.67   379.3    8.7      36.527
2014   10        3     9  37    5.67   379.3    8.7      36.539
2014   10        3     9  43    5.68   379.3    8.7      36.551
2014   10        3     9  48    5.68   379.3    8.7      36.564
2014   10        3     9  53    5.68   379.3    8.7      36.576
2014   10        3     9  59    5.69   379.4    8.7      36.589
2014   10        3    10   4    5.69   379.4    8.7      36.602
2014   10        3    10  10    5.70   379.4    8.7      36.614
2014   10        3    10  15    5.70   379.4    8.7      36.627
2014   10        3    10  20    5.71   379.4    8.7      36.639
2014   10        3    10  26    5.71   379.4    8.7      36.652
2014   10        3    10  31    5.71   379.4    8.7      36.664
2014   10        3    10  36    5.72   379.4    8.7      36.676
2014   10        3    10  42    5.72   379.4    8.7      36.689
2014   10        3    10  47    5.73   379.4    8.7      36.701
2014   10        3    10  53    5.73   379.5    8.8      36.713
2014   10        3    10  58    5.73   379.5    8.8      36.726
2014   10        3    11   3    5.74   379.5    8.8      36.738
2014   10        3    11   9    5.74   379.5    8.8      36.750
2014   10        3    11  14    5.74   379.5    8.8      36.763
2014   10        3    11  20    5.75   379.5    8.8      36.775
2014   10        3    11  25    5.75   379.5    8.8      36.787
2014   10        3    11  30    5.76   379.5    8.8      36.800
2014   10        3    11  36    5.76   379.6    8.8      36.812
2014   10        3    11  41    5.76   379.6    8.8      36.824
2014   10        3    11  47    5.77   379.6    8.8      36.837
2014   10        3    11  52    5.77   379.6    8.8      36.849
2014   10        3    11  57    5.78   379.6    8.8      36.861
2014   10        3    12   3    5.78   379.6    8.8      36.873
2014   10        3    12   8    5.78   379.7    8.8      36.886
2014   10        3    12  14    5.79   379.7    8.8      36.898
2014   10        3    12  19    5.79   379.7    8.8      36.910
2014   10        3    12  24    5.80   379.7    8.8      36.922
2014   10        3    12  30    5.80   379.7    8.8      36.935
2014   10        3    12  35    5.80   379.7    8.8      36.947
2014   10        3    12  40    5.81   379.8    8.8      36.959
2014   10        3    12  46    5.81   379.8    8.8      36.972
2014   10        3    12  51    5.81   379.8    8.8      36.984
2014   10        3    12  57    5.82   379.8    8.8      36.997
2014   10        3    13   2    5.82   379.8    8.8      37.010
2014   10        3    13   7    5.83   379.9    8.8      37.022
2014   10        3    13  13    5.83   379.9    8.9      37.035
2014   10        3    13  18    5.83   379.9    8.9      37.048
2014   10        3    13  24    5.84   379.9    8.9      37.061
2014   10        3    13  29    5.84   379.9    8.9      37.074
2014   10        3    13  34    5.84   380.0    8.9      37.087
2014   10        3    13  40    5.85   380.0    8.9      37.100
2014   10        3    13  45    5.85   380.0    8.9      37.114
2014   10        3    13  51    5.86   380.0    8.9      37.127
2014   10        3    13  56    5.86   380.0    8.9      37.141
2014   10        3    14   1    5.86   380.1    8.9      37.154
2014   10        3    14   7    5.87   380.1    8.9      37.168
2014   10        3    14  12    5.87   380.1    8.9      37.182
2014   10        3    14  18    5.87   380.1    8.9      37.196
2014   10        3    14  23    5.88   380.2    8.9      37.211
2014   10        3    14  28    5.88   380.2    8.9      37.225
2014   10        3    14  34    5.88   380.2    8.9      37.240
2014   10        3    14  39    5.89   380.2    8.9      37.255
2014   10        3    14  44    5.89   380.3    8.9      37.270
2014   10        3    14  50    5.90   380.3    8.9      37.286
2014   10        3    14  55    5.90   380.3    8.9      37.302
2014   10        3    15   1    5.90   380.3    8.9      37.318
2014   10        3    15   6    5.91   380.4    8.9      37.335
2014   10        3    15  11    5.91   380.4    8.9      37.351
2014   10        3    15  17    5.91   380.4    8.9      37.368
2014   10        3    15  22    5.92   380.4    8.9      37.386
2014   10        3    15  28    5.92   380.5    8.9      37.404
2014   10        3    15  33    5.93   380.5    8.9      37.421
2014   10        3    15  38    5.93   380.5    9.0      37.439
2014   10        3    15  44    5.93   380.6    9.0      37.458
2014   10        3    15  49    5.94   380.6    9.0      37.476
2014   10        3    15  55    5.94   380.6    9.0      37.494
2014   10        3    16   0    5.94   380.7    9.0      37.513
2014   10        3    16   5    5.95   380.7    9.0      37.532
2014   10        3    16  11    5.95   380.7    9.0      37.550
2014   10        3    16  16    5.96   380.7    9.0      37.569
2014   10        3    16  22    5.96   380.8    9.0      37.589
2014   10        3    16  27    5.96   380.8    9.0      37.609
2014   10        3    16  32    5.97   380.8    9.0      37.629
2014   10        3    16  38    5.97   380.9    9.0      37.649
2014   10        3    16  43    5.97   380.9    9.0      37.670
2014   10        3    16  48    5.98   380.9    9.0      37.691
2014   10        3    16  54    5.98   381.0    9.0      37.712
2014   10        3    16  59    5.98   381.0    9.0      37.734
2014   10        3    17   5    5.99   381.0    9.0      37.755
2014   10        3    17  10    5.99   381.1    9.0      37.778
2014   10        3    17  15    5.99   381.1    9.0      37.801
2014   10        3    17  21    6.00   381.1    9.0      37.824
2014   10        3    17  26    6.00   381.2    9.0      37.848
2014   10        3    17  32    6.00   381.2    9.0      37.872
2014   10        3    17  37    6.01   381.2    9.0      37.897
2014   10        3    17  42    6.01   381.3    9.0      37.921
2014   10        3    17  48    6.01   381.3    9.0      37.946
2014   10        3    17  53    6.02   381.3    9.0      37.971
2014   10        3    17  59    6.02   381.4    9.0      37.995
2014   10        3    18   4    6.02   381.4    9.0      38.020
2014   10        3    18   9    6.03   381.4    9.0      38.044
2014   10        3    18  15    6.03   381.5    9.0      38.067
2014   10        3    18  20    6.03   381.5    9.0      38.091
2014   10        3    18  26    6.04   381.6    9.0      38.114
2014   10        3    18  31    6.04   381.6    9.1      38.137
2014   10        3    18  36    6.04   381.6    9.1      38.159
2014   10        3    18  42    6.04   381.7    9.1      38.182
2014   10        3    18  47    6.05   381.7    9.1      38.204
2014   10        3    18  53    6.05   381.7    9.1      38.226
2014   10        3    18  58    6.05   381.8    9.1      38.247
2014   10        3    19   3    6.06   381.8    9.1      38.269
2014   10        3    19   9    6.06   381.9    9.1      38.290
2014   10        3    19  14    6.06   381.9    9.1      38.311
2014   10        3    19  19    6.06   381.9    9.1      38.331
2014   10        3    19  25    6.07   382.0    9.1      38.351
2014   10        3    19  30    6.07   382.0    9.1      38.371
2014   10        3    19  36    6.07   382.1    9.1      38.391
2014   10        3    19  41    6.08   382.1    9.1      38.410
2014   10        3    19  46    6.08   382.1    9.1      38.429
2014   10        3    19  52    6.08   382.2    9.1      38.448
2014   10        3    19  57    6.08   382.2    9.1      38.466
2014   10        3    20   3    6.09   382.3    9.1      38.484
2014   10        3    20   8    6.09   382.3    9.1      38.502
2014   10        3    20  13    6.09   382.3    9.1      38.520
2014   10        3    20  19    6.10   382.4    9.1      38.538
2014   10        3    20  24    6.10   382.4    9.1      38.555
2014   10        3    20  30    6.10   382.5    9.1      38.572
2014   10        3    20  35    6.10   382.5    9.1      38.589
2014   10        3    20  40    6.11   382.5    9.1      38.605
2014   10        3    20  46    6.11   382.6    9.1      38.622
2014   10        3    20  51    6.11   382.6    9.1      38.639
2014   10        3    20  57    6.12   382.7    9.1      38.655
2014   10        3    21   2    6.12   382.7    9.1      38.671
2014   10        3    21   7    6.12   382.7    9.1      38.688
2014   10        3    21  13    6.12   382.8    9.1      38.704
2014   10        3    21  18    6.13   382.8    9.1      38.720
2014   10        3    21  23    6.13   382.9    9.1      38.736
2014   10        3    21  29    6.13   382.9    9.1      38.752
2014   10        3    21  34    6.13   382.9    9.1      38.768
2014   10        3    21  40    6.14   383.0    9.1      38.784
2014   10        3    21  45    6.14   383.0    9.1      38.800
2014   10        3    21  50    6.14   383.1    9.1      38.816
2014   10        3    21  56    6.15   383.1    9.1      38.832
2014   10        3    22   1    6.15   383.2    9.1      38.849
2014   10        3    22   7    6.15   383.2    9.1      38.865
2014   10        3    22  12    6.15   383.2    9.1      38.882
2014   10        3    22  17    6.16   383.3    9.1      38.898
2014   10        3    22  23    6.16   383.3    9.1      38.915
2014   10        3    22  28    6.16   383.4    9.1      38.932
2014   10        3    22  34    6.17   383.4    9.1      38.949
2014   10        3    22  39    6.17   383.5    9.1      38.967
2014   10        3    22  44    6.17   383.5    9.1      38.984
2014   10        3    22  50    6.17   383.6    9.1      39.002
2014   10        3    22  55    6.18   383.6    9.1      39.020
2014   10        3    23   1    6.18   383.7    9.1      39.039
2014   10        3    23   6    6.18   383.7    9.1      39.058
2014   10        3    23  11    6.19   383.7    9.1      39.077
2014   10        3    23  17    6.19   383.8    9.1      39.097
2014   10        3    23  22    6.19   383.8    9.1      39.118
2014   10        3    23  28    6.20   383.9    9.1      39.139
2014   10        3    23  33    6.20   383.9    9.1      39.160
2014   10        3    23  38    6.20   384.0    9.1      39.182
2014   10        3    23  44    6.20   384.0    9.1      39.206
2014   10        3    23  49    6.21   384.1    9.1      39.230
2014   10        3    23  54    6.21   384.1    9.1      39.254
2014   10        4     0   0    6.21   384.2    9.1      39.280
2014   10        4     0   5    6.21   384.3    9.1      39.307
2014   10        4     0  11    6.22   384.3    9.1      39.335
2014   10        4     0  16    6.22   384.4    9.1      39.364
2014   10        4     0  21    6.22   384.4    9.1      39.394
2014   10        4     0  27    6.22   384.5    9.1      39.425
2014   10        4     0  32    6.23   384.5    9.1      39.456
2014   10        4     0  38    6.23   384.6    9.1      39.488
2014   10        4     0  43    6.23   384.7    9.1      39.520
2014   10        4     0  48    6.23   384.7    9.1      39.553
2014   10        4     0  54    6.24   384.8    9.1      39.585
2014   10        4     0  59    6.24   384.8    9.1      39.617
2014   10        4     1   5    6.24   384.9    9.1      39.650
2014   10        4     1  10    6.24   385.0    9.1      39.682
2014   10        4     1  15    6.25   385.0    9.1      39.714
2014   10        4     1  21    6.25   385.1    9.1      39.746
2014   10        4     1  26    6.25   385.1    9.1      39.777
2014   10        4     1  32    6.25   385.2    9.1      39.807
2014   10        4     1  37    6.25   385.2    9.1      39.837
2014   10        4     1  42    6.26   385.3    9.1      39.867
2014   10        4     1  48    6.26   385.4    9.1      39.896
2014   10        4     1  53    6.26   385.4    9.1      39.925
2014   10        4     1  58    6.26   385.5    9.1      39.953
2014   10        4     2   4    6.26   385.5    9.1      39.981
2014   10        4     2   9    6.27   385.6    9.1      40.008
2014   10        4     2  15    6.27   385.7    9.1      40.035
2014   10        4     2  20    6.27   385.7    9.1      40.062
2014   10        4     2  25    6.27   385.8    9.1      40.089
2014   10        4     2  31    6.27   385.8    9.1      40.115
2014   10        4     2  36    6.28   385.9    9.1      40.140
2014   10        4     2  42    6.28   386.0    9.1      40.166
2014   10        4     2  47    6.28   386.0    9.1      40.191
2014   10        4     2  52    6.28   386.1    9.1      40.215
2014   10        4     2  58    6.28   386.1    9.1      40.240
2014   10        4     3   3    6.28   386.2    9.1      40.264
2014   10        4     3   9    6.29   386.3    9.1      40.288
2014   10        4     3  14    6.29   386.3    9.1      40.311
2014   10        4     3  19    6.29   386.4    9.1      40.334
2014   10        4     3  25    6.29   386.4    9.1      40.358
2014   10        4     3  30    6.29   386.5    9.1      40.380
2014   10        4     3  36    6.30   386.6    9.1      40.403
2014   10        4     3  41    6.30   386.6    9.1      40.425
2014   10        4     3  46    6.30   386.7    9.1      40.447
2014   10        4     3  52    6.30   386.8    9.1      40.469
2014   10        4     3  57    6.30   386.8    9.1      40.491
2014   10        4     4   2    6.30   386.9    9.1      40.512
2014   10        4     4   8    6.31   386.9    9.1      40.534
2014   10        4     4  13    6.31   387.0    9.1      40.555
2014   10        4     4  19    6.31   387.1    9.1      40.576
2014   10        4     4  24    6.31   387.1    9.1      40.597
2014   10        4     4  29    6.31   387.2    9.1      40.617
2014   10        4     4  35    6.31   387.3    9.1      40.638
2014   10        4     4  40    6.32   387.3    9.1      40.658
2014   10        4     4  46    6.32   387.4    9.1      40.679
2014   10        4     4  51    6.32   387.5    9.1      40.699
2014   10        4     4  56    6.32   387.5    9.1      40.719
2014   10        4     5   2    6.32   387.6    9.1      40.739
2014   10        4     5   7    6.32   387.7    9.1      40.759
2014   10        4     5  13    6.33   387.7    9.1      40.779
2014   10        4     5  18    6.33   387.8    9.1      40.798
2014   10        4     5  23    6.33   387.9    9.1      40.817
2014   10        4     5  29    6.33   387.9    9.1      40.837
2014   10        4     5  34    6.33   388.0    9.1      40.856
2014   10        4     5  40    6.33   388.1    9.1      40.875
2014   10        4     5  45    6.34   388.1    9.1      40.894
2014   10        4     5  50    6.34   388.2    9.1      40.913
2014   10        4     5  56    6.34   388.3    9.1      40.931
2014   10        4     6   1    6.34   388.3    9.1      40.950
2014   10        4     6   6    6.34   388.4    9.1      40.968
2014   10        4     6  12    6.34   388.5    9.1      40.987
2014   10        4     6  17    6.34   388.5    9.1      41.005
2014   10        4     6  23    6.35   388.6    9.0      41.024
2014   10        4     6  28    6.35   388.7    9.0      41.043
2014   10        4     6  33    6.35   388.7    9.0      41.062
2014   10        4     6  39    6.35   388.8    9.0      41.081
2014   10        4     6  44    6.35   388.9    9.0      41.101
2014   10        4     6  50    6.35   388.9    9.0      41.120
2014   10        4     6  55    6.35   389.0    9.0      41.140
2014   10        4     7   0    6.36   389.1    9.0      41.160
2014   10        4     7   6    6.36   389.2    9.0      41.180
2014   10        4     7  11    6.36   389.2    9.0      41.201
2014   10        4     7  17    6.36   389.3    9.0      41.223
2014   10        4     7  22    6.36   389.4    9.0      41.245
2014   10        4     7  27    6.36   389.5    9.0      41.268
2014   10        4     7  33    6.36   389.5    9.0      41.291
2014   10        4     7  38    6.36   389.6    9.0      41.315
2014   10        4     7  44    6.36   389.7    9.0      41.339
2014   10        4     7  49    6.37   389.8    9.0      41.363
2014   10        4     7  54    6.37   389.8    9.0      41.387
2014   10        4     8   0    6.37   389.9    9.0      41.411
2014   10        4     8   5    6.37   390.0    9.0      41.434
2014   10        4     8  11    6.37   390.1    9.0      41.457
2014   10        4     8  16    6.37   390.2    9.0      41.480
2014   10        4     8  21    6.37   390.2    9.0      41.503
2014   10        4     8  27    6.37   390.3    9.0      41.525
2014   10        4     8  32    6.37   390.4    9.0      41.547
2014   10        4     8  37    6.37   390.5    9.0      41.569
2014   10        4     8  43    6.37   390.5    9.0      41.590
2014   10        4     8  48    6.37   390.6    9.0      41.611
2014   10        4     8  54    6.37   390.7    9.0      41.632
2014   10        4     8  59    6.38   390.8    9.0      41.653
2014   10        4     9   4    6.38   390.8    9.0      41.674
2014   10        4     9  10    6.38   390.9    9.0      41.694
2014   10        4     9  15    6.38   391.0    9.0      41.714
2014   10        4     9  21    6.38   391.1    9.0      41.734
2014   10        4     9  26    6.38   391.1    9.0      41.753
2014   10        4     9  31    6.38   391.2    9.0      41.773
2014   10        4     9  37    6.38   391.3    9.0      41.792
2014   10        4     9  42    6.38   391.4    9.0      41.811
2014   10        4     9  48    6.38   391.4    8.9      41.830
2014   10        4     9  53    6.38   391.5    8.9      41.848
2014   10        4     9  58    6.38   391.6    8.9      41.866
2014   10        4    10   4    6.38   391.7    8.9      41.884
2014   10        4    10   9    6.38   391.7    8.9      41.902
2014   10        4    10  15    6.38   391.8    8.9      41.920
2014   10        4    10  20    6.38   391.9    8.9      41.937
2014   10        4    10  25    6.38   391.9    8.9      41.954
2014   10        4    10  31    6.38   392.0    8.9      41.971
2014   10        4    10  36    6.38   392.1    8.9      41.988
2014   10        4    10  41    6.38   392.2    8.9      42.005
2014   10        4    10  47    6.38   392.2    8.9      42.021
2014   10        4    10  52    6.38   392.3    8.9      42.038
2014   10        4    10  58    6.38   392.4    8.9      42.054
2014   10        4    11   3    6.38   392.5    8.9      42.070
2014   10        4    11   8    6.38   392.5    8.9      42.086
2014   10        4    11  14    6.38   392.6    8.9      42.101
2014   10        4    11  19    6.38   392.7    8.9      42.117
2014   10        4    11  25    6.38   392.7    8.9      42.132
2014   10        4    11  30    6.38   392.8    8.9      42.148
2014   10        4    11  35    6.38   392.9    8.9      42.163
2014   10        4    11  41    6.39   392.9    8.9      42.178
2014   10        4    11  46    6.39   393.0    8.8      42.193
2014   10        4    11  52    6.39   393.1    8.8      42.209
2014   10        4    11  57    6.39   393.1    8.8      42.224
2014   10        4    12   2    6.39   393.2    8.8      42.239
2014   10        4    12   8    6.39   393.3    8.8      42.254
2014   10        4    12  13    6.39   393.4    8.8      42.269
2014   10        4    12  19    6.39   393.4    8.8      42.284
2014   10        4    12  24    6.39   393.5    8.8      42.299
2014   10        4    12  29    6.39   393.6    8.8      42.314
2014   10        4    12  35    6.39   393.6    8.8      42.330
2014   10        4    12  40    6.38   393.7    8.8      42.345
2014   10        4    12  45    6.38   393.8    8.8      42.360
2014   10        4    12  51    6.38   393.8    8.8      42.375
2014   10        4    12  56    6.38   393.9    8.8      42.390
2014   10        4    13   2    6.38   394.0    8.8      42.404
2014   10        4    13   7    6.38   394.1    8.8      42.419
2014   10        4    13  12    6.38   394.1    8.8      42.433
2014   10        4    13  18    6.38   394.2    8.8      42.447
2014   10        4    13  23    6.38   394.3    8.8      42.460
2014   10        4    13  29    6.38   394.3    8.8      42.474
2014   10        4    13  34    6.38   394.4    8.8      42.487
2014   10        4    13  39    6.38   394.5    8.7      42.500
2014   10        4    13  45    6.38   394.5    8.7      42.513
2014   10        4    13  50    6.38   394.6    8.7      42.526
2014   10        4    13  56    6.38   394.7    8.7      42.539
2014   10        4    14   1    6.38   394.8    8.7      42.551
2014   10        4    14   6    6.38   394.8    8.7      42.563
2014   10        4    14  12    6.38   394.9    8.7      42.576
2014   10        4    14  17    6.38   394.9    8.7      42.588
2014   10        4    14  23    6.38   395.0    8.7      42.600
2014   10        4    14  28    6.38   395.1    8.7      42.612
2014   10        4    14  33    6.38   395.1    8.7      42.624
2014   10        4    14  39    6.38   395.2    8.7      42.635
2014   10        4    14  44    6.37   395.3    8.7      42.647
2014   10        4    14  50    6.37   395.3    8.7      42.658
2014   10        4    14  55    6.37   395.4    8.7      42.670
2014   10        4    15   0    6.37   395.5    8.7      42.681
2014   10        4    15   6    6.37   395.5    8.7      42.693
2014   10        4    15  11    6.37   395.6    8.7      42.704
2014   10        4    15  16    6.37   395.6    8.6      42.715
2014   10        4    15  22    6.37   395.7    8.6      42.726
2014   10        4    15  27    6.37   395.8    8.6      42.737
2014   10        4    15  33    6.37   395.8    8.6      42.748
2014   10        4    15  38    6.37   395.9    8.6      42.759
2014   10        4    15  43    6.37   395.9    8.6      42.770
2014   10        4    15  49    6.36   396.0    8.6      42.780
2014   10        4    15  54    6.36   396.1    8.6      42.791
2014   10        4    16   0    6.36   396.1    8.6      42.801
2014   10        4    16   5    6.36   396.2    8.6      42.811
2014   10        4    16  10    6.36   396.2    8.6      42.821
2014   10        4    16  16    6.36   396.3    8.6      42.831
2014   10        4    16  21    6.36   396.4    8.6      42.841
2014   10        4    16  27    6.36   396.4    8.6      42.851
2014   10        4    16  32    6.36   396.5    8.6      42.860
2014   10        4    16  37    6.36   396.5    8.6      42.870
2014   10        4    16  43    6.35   396.6    8.6      42.879
2014   10        4    16  48    6.35   396.6    8.6      42.888
2014   10        4    16  54    6.35   396.7    8.5      42.896
2014   10        4    16  59    6.35   396.8    8.5      42.905
2014   10        4    17   4    6.35   396.8    8.5      42.913
2014   10        4    17  10    6.35   396.9    8.5      42.921
2014   10        4    17  15    6.35   396.9    8.5      42.929
2014   10        4    17  20    6.35   397.0    8.5      42.937
2014   10        4    17  26    6.34   397.0    8.5      42.944
2014   10        4    17  31    6.34   397.1    8.5      42.952
2014   10        4    17  37    6.34   397.1    8.5      42.959
2014   10        4    17  42    6.34   397.2    8.5      42.966
2014   10        4    17  47    6.34   397.2    8.5      42.972
2014   10        4    17  53    6.34   397.3    8.5      42.978
2014   10        4    17  58    6.34   397.3    8.5      42.985
2014   10        4    18   4    6.34   397.4    8.5      42.991
2014   10        4    18   9    6.33   397.4    8.5      42.996
2014   10        4    18  14    6.33   397.5    8.5      43.002
2014   10        4    18  20    6.33   397.5    8.5      43.007
2014   10        4    18  25    6.33   397.6    8.5      43.013
2014   10        4    18  31    6.33   397.6    8.4      43.018
2014   10        4    18  36    6.33   397.7    8.4      43.023
2014   10        4    18  41    6.33   397.7    8.4      43.027
2014   10        4    18  47    6.32   397.8    8.4      43.032
2014   10        4    18  52    6.32   397.8    8.4      43.036
2014   10        4    18  58    6.32   397.9    8.4      43.040
2014   10        4    19   3    6.32   397.9    8.4      43.044
2014   10        4    19   8    6.32   398.0    8.4      43.048
2014   10        4    19  14    6.32   398.0    8.4      43.052
2014   10        4    19  19    6.32   398.1    8.4      43.056
2014   10        4    19  24    6.31   398.1    8.4      43.059
2014   10        4    19  30    6.31   398.2    8.4      43.063
2014   10        4    19  35    6.31   398.2    8.4      43.066
2014   10        4    19  41    6.31   398.2    8.4      43.070
2014   10        4    19  46    6.31   398.3    8.4      43.073
2014   10        4    19  51    6.31   398.3    8.4      43.076
2014   10        4    19  57    6.30   398.4    8.4      43.079
2014   10        4    20   2    6.30   398.4    8.4      43.082
2014   10        4    20   8    6.30   398.5    8.4      43.085
2014   10        4    20  13    6.30   398.5    8.3      43.088
2014   10        4    20  18    6.30   398.5    8.3      43.091
2014   10        4    20  24    6.30   398.6    8.3      43.093
2014   10        4    20  29    6.29   398.6    8.3      43.096
2014   10        4    20  35    6.29   398.7    8.3      43.099
2014   10        4    20  40    6.29   398.7    8.3      43.102
2014   10        4    20  45    6.29   398.7    8.3      43.105
2014   10        4    20  51    6.29   398.8    8.3      43.107
2014   10        4    20  56    6.29   398.8    8.3      43.110
2014   10        4    21   2    6.28   398.9    8.3      43.113
2014   10        4    21   7    6.28   398.9    8.3      43.116
2014   10        4    21  12    6.28   398.9    8.3      43.119
2014   10        4    21  18    6.28   399.0    8.3      43.122
2014   10        4    21  23    6.28   399.0    8.3      43.125
2014   10        4    21  28    6.27   399.0    8.3      43.128
2014   10        4    21  34    6.27   399.1    8.3      43.131
2014   10        4    21  39    6.27   399.1    8.3      43.135
2014   10        4    21  45    6.27   399.1    8.3      43.138
2014   10        4    21  50    6.27   399.2    8.3      43.142
2014   10        4    21  55    6.27   399.2    8.3      43.145
2014   10        4    22   1    6.26   399.2    8.2      43.149
2014   10        4    22   6    6.26   399.3    8.2      43.153
2014   10        4    22  12    6.26   399.3    8.2      43.158
2014   10        4    22  17    6.26   399.3    8.2      43.162
2014   10        4    22  22    6.26   399.4    8.2      43.167
2014   10        4    22  28    6.26   399.4    8.2      43.171
2014   10        4    22  33    6.25   399.4    8.2      43.176
2014   10        4    22  39    6.25   399.5    8.2      43.181
2014   10        4    22  44    6.25   399.5    8.2      43.186
2014   10        4    22  49    6.25   399.5    8.2      43.191
2014   10        4    22  55    6.25   399.6    8.2      43.196
2014   10        4    23   0    6.24   399.6    8.2      43.202
2014   10        4    23   6    6.24   399.6    8.2      43.207
2014   10        4    23  11    6.24   399.7    8.2      43.212
2014   10        4    23  16    6.24   399.7    8.2      43.218
2014   10        4    23  22    6.24   399.7    8.2      43.224
2014   10        4    23  27    6.23   399.7    8.2      43.230
2014   10        4    23  33    6.23   399.8    8.2      43.235
2014   10        4    23  38    6.23   399.8    8.2      43.240
2014   10        4    23  43    6.23   399.8    8.2      43.246
2014   10        4    23  49    6.23   399.9    8.2      43.251
2014   10        4    23  54    6.22   399.9    8.2      43.255
2014   10        4    23  59    6.22   399.9    8.2      43.260
2014   10        5     0   5    6.22   399.9    8.1      43.265
2014   10        5     0  10    6.22   400.0    8.1      43.269
2014   10        5     0  16    6.22   400.0    8.1      43.273
2014   10        5     0  21    6.21   400.0    8.1      43.277
2014   10        5     0  26    6.21   400.0    8.1      43.281
2014   10        5     0  32    6.21   400.1    8.1      43.284
2014   10        5     0  37    6.21   400.1    8.1      43.287
2014   10        5     0  43    6.21   400.1    8.1      43.290
2014   10        5     0  48    6.20   400.1    8.1      43.293
2014   10        5     0  53    6.20   400.2    8.1      43.296
2014   10        5     0  59    6.20   400.2    8.1      43.298
2014   10        5     1   4    6.20   400.2    8.1      43.300
2014   10        5     1  10    6.19   400.2    8.1      43.302
2014   10        5     1  15    6.19   400.3    8.1      43.304
2014   10        5     1  20    6.19   400.3    8.1      43.306
2014   10        5     1  26    6.19   400.3    8.1      43.307
2014   10        5     1  31    6.19   400.3    8.1      43.308
2014   10        5     1  36    6.18   400.4    8.1      43.309
2014   10        5     1  42    6.18   400.4    8.1      43.310
2014   10        5     1  47    6.18   400.4    8.1      43.310
2014   10        5     1  53    6.18   400.4    8.1      43.310
2014   10        5     1  58    6.18   400.4    8.1      43.310
2014   10        5     2   3    6.17   400.5    8.1      43.310
2014   10        5     2   9    6.17   400.5    8.0      43.310
2014   10        5     2  14    6.17   400.5    8.0      43.310
2014   10        5     2  20    6.17   400.5    8.0      43.309
2014   10        5     2  25    6.16   400.5    8.0      43.308
2014   10        5     2  30    6.16   400.6    8.0      43.307
2014   10        5     2  36    6.16   400.6    8.0      43.306
2014   10        5     2  41    6.16   400.6    8.0      43.306
2014   10        5     2  47    6.16   400.6    8.0      43.304
2014   10        5     2  52    6.15   400.6    8.0      43.303
2014   10        5     2  57    6.15   400.7    8.0      43.301
2014   10        5     3   3    6.15   400.7    8.0      43.300
2014   10        5     3   8    6.15   400.7    8.0      43.298
2014   10        5     3  14    6.14   400.7    8.0      43.297
2014   10        5     3  19    6.14   400.7    8.0      43.295
2014   10        5     3  24    6.14   400.7    8.0      43.293
2014   10        5     3  30    6.14   400.8    8.0      43.291
2014   10        5     3  35    6.14   400.8    8.0      43.289
2014   10        5     3  40    6.13   400.8    8.0      43.287
2014   10        5     3  46    6.13   400.8    8.0      43.285
2014   10        5     3  51    6.13   400.8    8.0      43.283
2014   10        5     3  57    6.13   400.9    8.0      43.281
2014   10        5     4   2    6.12   400.9    8.0      43.279
2014   10        5     4   7    6.12   400.9    8.0      43.277
2014   10        5     4  13    6.12   400.9    8.0      43.275
2014   10        5     4  18    6.12   400.9    8.0      43.273
2014   10        5     4  24    6.12   400.9    8.0      43.272
2014   10        5     4  29    6.11   400.9    8.0      43.270
2014   10        5     4  34    6.11   401.0    7.9      43.268
2014   10        5     4  40    6.11   401.0    7.9      43.266
2014   10        5     4  45    6.11   401.0    7.9      43.265
2014   10        5     4  51    6.11   401.0    7.9      43.263
2014   10        5     4  56    6.10   401.0    7.9      43.262
2014   10        5     5   1    6.10   401.0    7.9      43.260
2014   10        5     5   7    6.10   401.1    7.9      43.259
2014   10        5     5  12    6.10   401.1    7.9      43.258
2014   10        5     5  18    6.10   401.1    7.9      43.257
2014   10        5     5  23    6.09   401.1    7.9      43.256
2014   10        5     5  28    6.09   401.1    7.9      43.255
2014   10        5     5  34    6.09   401.1    7.9      43.255
2014   10        5     5  39    6.09   401.1    7.9      43.254
2014   10        5     5  45    6.09   401.1    7.9      43.254
2014   10        5     5  50    6.08   401.2    7.9      43.254
2014   10        5     5  55    6.08   401.2    7.9      43.254
2014   10        5     6   1    6.08   401.2    7.9      43.254
2014   10        5     6   6    6.08   401.2    7.9      43.254
2014   10        5     6  11    6.08   401.2    7.9      43.255
2014   10        5     6  17    6.07   401.2    7.9      43.256
2014   10        5     6  22    6.07   401.2    7.9      43.257
2014   10        5     6  28    6.07   401.3    7.9      43.258
2014   10        5     6  33    6.07   401.3    7.9      43.259
2014   10        5     6  38    6.07   401.3    7.9      43.260
2014   10        5     6  44    6.06   401.3    7.9      43.262
2014   10        5     6  49    6.06   401.3    7.9      43.264
2014   10        5     6  55    6.06   401.3    7.9      43.265
2014   10        5     7   0    6.06   401.3    7.9      43.267
2014   10        5     7   5    6.05   401.3    7.9      43.270
2014   10        5     7  11    6.05   401.4    7.9      43.272
2014   10        5     7  16    6.05   401.4    7.9      43.274
2014   10        5     7  22    6.05   401.4    7.9      43.276
2014   10        5     7  27    6.05   401.4    7.9      43.278
2014   10        5     7  32    6.04   401.4    7.9      43.281
2014   10        5     7  38    6.04   401.4    7.9      43.283
2014   10        5     7  43    6.04   401.4    7.9      43.285
2014   10        5     7  48    6.04   401.4    7.9      43.286
2014   10        5     7  54    6.04   401.5    7.9      43.288
2014   10        5     7  59    6.03   401.5    7.9      43.289
2014   10        5     8   5    6.03   401.5    7.9      43.290
2014   10        5     8  10    6.03   401.5    7.9      43.291
2014   10        5     8  15    6.03   401.5    7.8      43.292
2014   10        5     8  21    6.02   401.5    7.8      43.292
2014   10        5     8  26    6.02   401.5    7.8      43.293
2014   10        5     8  32    6.02   401.5    7.8      43.293
2014   10        5     8  37    6.02   401.5    7.8      43.293
2014   10        5     8  42    6.02   401.5    7.8      43.293
2014   10        5     8  48    6.01   401.6    7.8      43.292
2014   10        5     8  53    6.01   401.6    7.8      43.291
2014   10        5     8  59    6.01   401.6    7.8      43.291
2014   10        5     9   4    6.01   401.6    7.8      43.289
2014   10        5     9   9    6.01   401.6    7.8      43.288
2014   10        5     9  15    6.00   401.6    7.8      43.287
2014   10        5     9  20    6.00   401.6    7.8      43.285
2014   10        5     9  26    6.00   401.6    7.8      43.283
2014   10        5     9  31    6.00   401.6    7.8      43.282
2014   10        5     9  36    5.99   401.6    7.8      43.279
2014   10        5     9  42    5.99   401.6    7.8      43.277
2014   10        5     9  47    5.99   401.6    7.8      43.275
2014   10        5     9  52    5.99   401.6    7.8      43.272
2014   10        5     9  58    5.99   401.7    7.8      43.269
2014   10        5    10   3    5.98   401.7    7.8      43.266
2014   10        5    10   9    5.98   401.7    7.8      43.263
2014   10        5    10  14    5.98   401.7    7.8      43.260
2014   10        5    10  19    5.98   401.7    7.8      43.256
2014   10        5    10  25    5.97   401.7    7.8      43.253
2014   10        5    10  30    5.97   401.7    7.8      43.249
2014   10        5    10  36    5.97   401.7    7.8      43.245
2014   10        5    10  41    5.97   401.7    7.8      43.242
2014   10        5    10  46    5.97   401.7    7.8      43.237
2014   10        5    10  52    5.96   401.7    7.8      43.233
2014   10        5    10  57    5.96   401.7    7.8      43.229
2014   10        5    11   3    5.96   401.7    7.8      43.225
2014   10        5    11   8    5.96   401.7    7.8      43.221
2014   10        5    11  13    5.96   401.7    7.8      43.216
2014   10        5    11  19    5.95   401.7    7.8      43.212
2014   10        5    11  24    5.95   401.8    7.8      43.207
2014   10        5    11  30    5.95   401.8    7.7      43.203
2014   10        5    11  35    5.95   401.8    7.7      43.198
2014   10        5    11  40    5.95   401.8    7.7      43.193
2014   10        5    11  46    5.94   401.8    7.7      43.189
2014   10        5    11  51    5.94   401.8    7.7      43.184
2014   10        5    11  56    5.94   401.8    7.7      43.179
2014   10        5    12   2    5.94   401.8    7.7      43.175
2014   10        5    12   7    5.94   401.8    7.7      43.170
2014   10        5    12  13    5.93   401.8    7.7      43.165
2014   10        5    12  18    5.93   401.8    7.7      43.160
2014   10        5    12  23    5.93   401.8    7.7      43.156
2014   10        5    12  29    5.93   401.8    7.7      43.151
2014   10        5    12  34    5.93   401.8    7.7      43.146
2014   10        5    12  40    5.92   401.8    7.7      43.142
2014   10        5    12  45    5.92   401.8    7.7      43.137
2014   10        5    12  50    5.92   401.8    7.7      43.133
2014   10        5    12  56    5.92   401.8    7.7      43.128
2014   10        5    13   1    5.92   401.8    7.7      43.124
2014   10        5    13   7    5.91   401.9    7.7      43.119
2014   10        5    13  12    5.91   401.9    7.7      43.115
2014   10        5    13  17    5.91   401.9    7.7      43.111
2014   10        5    13  23    5.91   401.9    7.7      43.107
2014   10        5    13  28    5.91   401.9    7.7      43.103
2014   10        5    13  34    5.91   401.9    7.7      43.099
2014   10        5    13  39    5.90   401.9    7.7      43.095
2014   10        5    13  44    5.90   401.9    7.7      43.091
2014   10        5    13  50    5.90   401.9    7.7      43.087
2014   10        5    13  55    5.90   401.9    7.7      43.084
2014   10        5    14   1    5.90   401.9    7.7      43.080
2014   10        5    14   6    5.89   401.9    7.7      43.077
2014   10        5    14  11    5.89   401.9    7.7      43.073
2014   10        5    14  17    5.89   401.9    7.7      43.070
2014   10        5    14  22    5.89   401.9    7.7      43.067
2014   10        5    14  27    5.89   401.9    7.7      43.064
2014   10        5    14  33    5.88   401.9    7.7      43.061
2014   10        5    14  38    5.88   401.9    7.7      43.058
2014   10        5    14  44    5.88   401.9    7.7      43.055
2014   10        5    14  49    5.88   401.9    7.7      43.053
2014   10        5    14  54    5.88   401.9    7.7      43.050
2014   10        5    15   0    5.88   401.9    7.7      43.047
2014   10        5    15   5    5.87   401.9    7.7      43.045
2014   10        5    15  11    5.87   401.9    7.7      43.042
2014   10        5    15  16    5.87   401.9    7.7      43.040
2014   10        5    15  21    5.87   401.9    7.7      43.037
2014   10        5    15  27    5.87   401.9    7.7      43.035
2014   10        5    15  32    5.86   401.9    7.7      43.032
2014   10        5    15  38    5.86   401.9    7.7      43.029
2014   10        5    15  43    5.86   402.0    7.7      43.027
2014   10        5    15  48    5.86   402.0    7.7      43.024
2014   10        5    15  54    5.86   402.0    7.7      43.021
2014   10        5    15  59    5.85   402.0    7.7      43.018
2014   10        5    16   5    5.85   402.0    7.6      43.015
2014   10        5    16  10    5.85   402.0    7.6      43.011
2014   10        5    16  15    5.85   402.0    7.6      43.008
2014   10        5    16  21    5.85   402.0    7.6      43.004
2014   10        5    16  26    5.84   402.0    7.6      43.000
2014   10        5    16  31    5.84   402.0    7.6      42.995
2014   10        5    16  37    5.84   402.0    7.6      42.991
2014   10        5    16  42    5.84   402.0    7.6      42.986
2014   10        5    16  48    5.84   401.9    7.6      42.981
2014   10        5    16  53    5.83   401.9    7.6      42.976
2014   10        5    16  58    5.83   401.9    7.6      42.971
2014   10        5    17   4    5.83   401.9    7.6      42.966
2014   10        5    17   9    5.83   401.9    7.6      42.960
2014   10        5    17  15    5.83   401.9    7.6      42.954
2014   10        5    17  20    5.82   401.9    7.6      42.948
2014   10        5    17  25    5.82   401.9    7.6      42.942
2014   10        5    17  31    5.82   401.9    7.6      42.935
2014   10        5    17  36    5.82   401.9    7.6      42.929
2014   10        5    17  42    5.82   401.9    7.6      42.922
2014   10        5    17  47    5.81   401.9    7.6      42.915
2014   10        5    17  52    5.81   401.9    7.6      42.908
2014   10        5    17  58    5.81   401.9    7.6      42.901
2014   10        5    18   3    5.81   401.9    7.6      42.894
2014   10        5    18   8    5.81   401.9    7.6      42.887
2014   10        5    18  14    5.80   401.9    7.6      42.879
2014   10        5    18  19    5.80   401.9    7.6      42.872
2014   10        5    18  25    5.80   401.9    7.6      42.864
2014   10        5    18  30    5.80   401.9    7.6      42.856
2014   10        5    18  35    5.80   401.9    7.6      42.849
2014   10        5    18  41    5.79   401.8    7.6      42.841
2014   10        5    18  46    5.79   401.8    7.6      42.833
2014   10        5    18  52    5.79   401.8    7.6      42.825
2014   10        5    18  57    5.79   401.8    7.6      42.817
2014   10        5    19   2    5.79   401.8    7.6      42.809
2014   10        5    19   8    5.79   401.8    7.6      42.801
2014   10        5    19  13    5.78   401.8    7.6      42.793
2014   10        5    19  19    5.78   401.8    7.6      42.785
2014   10        5    19  24    5.78   401.8    7.6      42.776
2014   10        5    19  29    5.78   401.8    7.6      42.769
2014   10        5    19  35    5.78   401.8    7.6      42.760
2014   10        5    19  40    5.78   401.8    7.6      42.752
2014   10        5    19  46    5.78   401.8    7.6      42.744
2014   10        5    19  51    5.77   401.8    7.6      42.736
2014   10        5    19  56    5.77   401.7    7.6      42.728
2014   10        5    20   2    5.77   401.7    7.6      42.720
2014   10        5    20   7    5.77   401.7    7.6      42.712
2014   10        5    20  12    5.77   401.7    7.6      42.704
2014   10        5    20  18    5.77   401.7    7.6      42.697
2014   10        5    20  23    5.76   401.7    7.6      42.689
2014   10        5    20  29    5.76   401.7    7.6      42.681
2014   10        5    20  34    5.76   401.7    7.6      42.673
2014   10        5    20  39    5.76   401.7    7.6      42.665
2014   10        5    20  45    5.76   401.7    7.6      42.658
2014   10        5    20  50    5.76   401.7    7.6      42.650
2014   10        5    20  56    5.76   401.7    7.6      42.642
2014   10        5    21   1    5.76   401.7    7.6      42.635
2014   10        5    21   6    5.75   401.7    7.6      42.627
2014   10        5    21  12    5.75   401.7    7.6      42.620
2014   10        5    21  17    5.75   401.7    7.6      42.612
2014   10        5    21  23    5.75   401.6    7.6      42.605
2014   10        5    21  28    5.75   401.6    7.6      42.597
2014   10        5    21  33    5.75   401.6    7.6      42.590
2014   10        5    21  39    5.75   401.6    7.6      42.583
2014   10        5    21  44    5.74   401.6    7.6      42.576
2014   10        5    21  50    5.74   401.6    7.6      42.568
2014   10        5    21  55    5.74   401.6    7.6      42.561
2014   10        5    22   0    5.74   401.6    7.6      42.554
2014   10        5    22   6    5.74   401.6    7.6      42.547
2014   10        5    22  11    5.74   401.6    7.6      42.540
2014   10        5    22  16    5.74   401.6    7.6      42.533
2014   10        5    22  22    5.73   401.6    7.6      42.526
2014   10        5    22  27    5.73   401.6    7.6      42.519
2014   10        5    22  33    5.73   401.6    7.6      42.512
2014   10        5    22  38    5.73   401.5    7.6      42.505
2014   10        5    22  43    5.73   401.5    7.6      42.498
2014   10        5    22  49    5.73   401.5    7.6      42.491
2014   10        5    22  54    5.73   401.5    7.6      42.484
2014   10        5    23   0    5.72   401.5    7.6      42.478
2014   10        5    23   5    5.72   401.5    7.6      42.471
2014   10        5    23  10    5.72   401.5    7.6      42.464
2014   10        5    23  16    5.72   401.5    7.6      42.458
2014   10        5    23  21    5.72   401.5    7.5      42.451
2014   10        5    23  27    5.72   401.5    7.5      42.444
2014   10        5    23  32    5.72   401.5    7.5      42.438
2014   10        5    23  37    5.72   401.5    7.5      42.431
2014   10        5    23  43    5.71   401.4    7.5      42.425
2014   10        5    23  48    5.71   401.4    7.5      42.418
2014   10        5    23  54    5.71   401.4    7.5      42.411
2014   10        5    23  59    5.71   401.4    7.5      42.405
2014   10        6     0   4    5.71   401.4    7.5      42.398
2014   10        6     0  10    5.71   401.4    7.5      42.391
2014   10        6     0  15    5.71   401.4    7.5      42.385
2014   10        6     0  20    5.70   401.4    7.5      42.378
2014   10        6     0  26    5.70   401.4    7.5      42.371
2014   10        6     0  31    5.70   401.3    7.5      42.364
2014   10        6     0  37    5.70   401.3    7.5      42.358
2014   10        6     0  42    5.70   401.3    7.5      42.351
2014   10        6     0  47    5.70   401.3    7.5      42.344
2014   10        6     0  53    5.70   401.3    7.5      42.337
2014   10        6     0  58    5.69   401.3    7.5      42.329
2014   10        6     1   4    5.69   401.3    7.5      42.322
2014   10        6     1   9    5.69   401.3    7.5      42.315
2014   10        6     1  14    5.69   401.3    7.5      42.307
2014   10        6     1  20    5.69   401.2    7.5      42.300
2014   10        6     1  25    5.69   401.2    7.5      42.292
2014   10        6     1  31    5.69   401.2    7.5      42.284
2014   10        6     1  36    5.69   401.2    7.5      42.276
2014   10        6     1  41    5.68   401.2    7.5      42.268
2014   10        6     1  47    5.68   401.2    7.5      42.260
2014   10        6     1  52    5.68   401.2    7.5      42.252
2014   10        6     1  58    5.68   401.1    7.5      42.243
2014   10        6     2   3    5.68   401.1    7.5      42.235
2014   10        6     2   8    5.68   401.1    7.5      42.226
2014   10        6     2  14    5.68   401.1    7.5      42.218
2014   10        6     2  19    5.68   401.1    7.5      42.209
2014   10        6     2  24    5.68   401.1    7.5      42.200
2014   10        6     2  30    5.67   401.1    7.5      42.191
2014   10        6     2  35    5.67   401.0    7.5      42.182
2014   10        6     2  41    5.67   401.0    7.5      42.172
2014   10        6     2  46    5.67   401.0    7.5      42.163
2014   10        6     2  51    5.67   401.0    7.5      42.153
2014   10        6     2  57    5.67   401.0    7.5      42.144
2014   10        6     3   2    5.67   401.0    7.5      42.134
2014   10        6     3   8    5.67   400.9    7.5      42.124
2014   10        6     3  13    5.67   400.9    7.5      42.114
2014   10        6     3  18    5.67   400.9    7.5      42.104
2014   10        6     3  24    5.66   400.9    7.5      42.094
2014   10        6     3  29    5.66   400.9    7.5      42.084
2014   10        6     3  35    5.66   400.9    7.5      42.074
2014   10        6     3  40    5.66   400.8    7.5      42.063
2014   10        6     3  45    5.66   400.8    7.5      42.053
2014   10        6     3  51    5.66   400.8    7.5      42.042
2014   10        6     3  56    5.66   400.8    7.5      42.032
2014   10        6     4   2    5.66   400.8    7.5      42.021
2014   10        6     4   7    5.66   400.7    7.5      42.011
2014   10        6     4  12    5.66   400.7    7.5      42.000
2014   10        6     4  18    5.66   400.7    7.5      41.989
2014   10        6     4  23    5.66   400.7    7.5      41.978
2014   10        6     4  28    5.66   400.7    7.5      41.968
2014   10        6     4  34    5.65   400.7    7.5      41.957
2014   10        6     4  39    5.65   400.6    7.5      41.946
2014   10        6     4  45    5.65   400.6    7.5      41.936
2014   10        6     4  50    5.65   400.6    7.5      41.925
2014   10        6     4  55    5.65   400.6    7.5      41.915
2014   10        6     5   1    5.65   400.6    7.5      41.904
2014   10        6     5   6    5.65   400.5    7.5      41.894
2014   10        6     5  12    5.65   400.5    7.5      41.884
2014   10        6     5  17    5.65   400.5    7.5      41.874
2014   10        6     5  22    5.65   400.5    7.5      41.864
2014   10        6     5  28    5.65   400.5    7.5      41.854
2014   10        6     5  33    5.65   400.5    7.5      41.844
2014   10        6     5  39    5.65   400.4    7.5      41.834
2014   10        6     5  44    5.65   400.4    7.5      41.825
2014   10        6     5  49    5.65   400.4    7.5      41.816
2014   10        6     5  55    5.65   400.4    7.5      41.806
2014   10        6     6   0    5.65   400.4    7.5      41.797
2014   10        6     6   6    5.64   400.3    7.5      41.789
2014   10        6     6  11    5.64   400.3    7.5      41.780
2014   10        6     6  16    5.64   400.3    7.5      41.771
2014   10        6     6  22    5.64   400.3    7.5      41.763
2014   10        6     6  27    5.64   400.3    7.5      41.755
2014   10        6     6  32    5.64   400.3    7.5      41.747
2014   10        6     6  38    5.64   400.2    7.5      41.739
2014   10        6     6  43    5.64   400.2    7.5      41.731
2014   10        6     6  49    5.64   400.2    7.5      41.723
2014   10        6     6  54    5.64   400.2    7.5      41.715
2014   10        6     6  59    5.64   400.2    7.5      41.708
2014   10        6     7   5    5.64   400.1    7.5      41.700
2014   10        6     7  10    5.64   400.1    7.5      41.693
2014   10        6     7  16    5.64   400.1    7.5      41.686
2014   10        6     7  21    5.64   400.1    7.5      41.678
2014   10        6     7  26    5.64   400.1    7.5      41.671
2014   10        6     7  32    5.64   400.0    7.5      41.664
2014   10        6     7  37    5.64   400.0    7.5      41.657
2014   10        6     7  43    5.64   400.0    7.5      41.650
2014   10        6     7  48    5.64   400.0    7.5      41.642
2014   10        6     7  53    5.64   399.9    7.5      41.635
2014   10        6     7  59    5.63   399.9    7.5      41.628
2014   10        6     8   4    5.63   399.9    7.5      41.620
2014   10        6     8  10    5.63   399.9    7.5      41.613
2014   10        6     8  15    5.63   399.8    7.5      41.605
2014   10        6     8  20    5.63   399.8    7.5      41.597
2014   10        6     8  26    5.63   399.8    7.5      41.590
2014   10        6     8  31    5.63   399.8    7.5      41.581
2014   10        6     8  36    5.63   399.7    7.5      41.573
2014   10        6     8  42    5.63   399.7    7.5      41.565
2014   10        6     8  47    5.63   399.7    7.5      41.556
2014   10        6     8  53    5.63   399.7    7.6      41.548
2014   10        6     8  58    5.63   399.6    7.6      41.539
2014   10        6     9   3    5.63   399.6    7.6      41.530
2014   10        6     9   9    5.63   399.6    7.6      41.520
2014   10        6     9  14    5.63   399.6    7.6      41.511
2014   10        6     9  20    5.63   399.5    7.6      41.502
2014   10        6     9  25    5.63   399.5    7.6      41.492
2014   10        6     9  30    5.63   399.5    7.6      41.482
2014   10        6     9  36    5.63   399.4    7.6      41.472
2014   10        6     9  41    5.63   399.4    7.6      41.462
2014   10        6     9  47    5.63   399.4    7.6      41.451
2014   10        6     9  52    5.63   399.4    7.6      41.441
2014   10        6     9  57    5.63   399.3    7.6      41.430
2014   10        6    10   3    5.63   399.3    7.6      41.419
2014   10        6    10   8    5.63   399.3    7.6      41.408
2014   10        6    10  14    5.63   399.2    7.6      41.397
2014   10        6    10  19    5.63   399.2    7.6      41.385
2014   10        6    10  24    5.63   399.2    7.6      41.374
2014   10        6    10  30    5.63   399.2    7.6      41.362
2014   10        6    10  35    5.63   399.1    7.6      41.350
2014   10        6    10  40    5.63   399.1    7.6      41.338
2014   10        6    10  46    5.63   399.1    7.6      41.326
2014   10        6    10  51    5.63   399.0    7.6      41.313
2014   10        6    10  57    5.63   399.0    7.6      41.301
2014   10        6    11   2    5.63   399.0    7.6      41.288
2014   10        6    11   7    5.63   398.9    7.6      41.275
2014   10        6    11  13    5.63   398.9    7.6      41.262
2014   10        6    11  18    5.63   398.9    7.6      41.249
2014   10        6    11  24    5.63   398.9    7.6      41.236
2014   10        6    11  29    5.63   398.8    7.6      41.222
2014   10        6    11  34    5.63   398.8    7.6      41.209
2014   10        6    11  40    5.63   398.8    7.6      41.195
2014   10        6    11  45    5.63   398.7    7.6      41.181
2014   10        6    11  51    5.63   398.7    7.6      41.167
2014   10        6    11  56    5.63   398.7    7.6      41.154
2014   10        6    12   1    5.63   398.6    7.6      41.139
2014   10        6    12   7    5.63   398.6    7.6      41.126
2014   10        6    12  12    5.63   398.6    7.6      41.111
2014   10        6    12  18    5.63   398.5    7.6      41.097
2014   10        6    12  23    5.63   398.5    7.6      41.083
2014   10        6    12  28    5.63   398.5    7.6      41.069
2014   10        6    12  34    5.63   398.4    7.6      41.055
2014   10        6    12  39    5.63   398.4    7.6      41.041
2014   10        6    12  44    5.63   398.4    7.6      41.028
2014   10        6    12  50    5.63   398.3    7.6      41.014
2014   10        6    12  55    5.63   398.3    7.6      41.000
2014   10        6    13   1    5.63   398.3    7.6      40.986
2014   10        6    13   6    5.63   398.2    7.6      40.973
2014   10        6    13  11    5.63   398.2    7.6      40.960
2014   10        6    13  17    5.63   398.2    7.6      40.947
2014   10        6    13  22    5.63   398.1    7.6      40.934
2014   10        6    13  28    5.63   398.1    7.6      40.921
2014   10        6    13  33    5.63   398.1    7.6      40.908
2014   10        6    13  38    5.63   398.0    7.6      40.895
2014   10        6    13  44    5.63   398.0    7.6      40.883
2014   10        6    13  49    5.63   398.0    7.6      40.871
2014   10        6    13  55    5.64   397.9    7.6      40.859
2014   10        6    14   0    5.64   397.9    7.6      40.847
2014   10        6    14   5    5.64   397.9    7.6      40.836
2014   10        6    14  11    5.64   397.8    7.6      40.825
2014   10        6    14  16    5.64   397.8    7.6      40.814
2014   10        6    14  22    5.64   397.8    7.6      40.803
2014   10        6    14  27    5.64   397.7    7.6      40.792
2014   10        6    14  32    5.64   397.7    7.6      40.782
2014   10        6    14  38    5.64   397.7    7.7      40.772
2014   10        6    14  43    5.64   397.6    7.7      40.762
2014   10        6    14  48    5.64   397.6    7.7      40.753
2014   10        6    14  54    5.64   397.5    7.7      40.743
2014   10        6    14  59    5.64   397.5    7.7      40.734
2014   10        6    15   5    5.64   397.5    7.7      40.726
2014   10        6    15  10    5.65   397.4    7.7      40.717
2014   10        6    15  15    5.65   397.4    7.7      40.709
2014   10        6    15  21    5.65   397.4    7.7      40.701
2014   10        6    15  26    5.65   397.3    7.7      40.693
2014   10        6    15  32    5.65   397.3    7.7      40.686
2014   10        6    15  37    5.65   397.2    7.7      40.679
2014   10        6    15  42    5.65   397.2    7.7      40.672
2014   10        6    15  48    5.65   397.2    7.7      40.665
2014   10        6    15  53    5.65   397.1    7.7      40.658
2014   10        6    15  59    5.65   397.1    7.7      40.652
2014   10        6    16   4    5.66   397.0    7.7      40.646
2014   10        6    16   9    5.66   397.0    7.7      40.640
2014   10        6    16  15    5.66   397.0    7.7      40.635
2014   10        6    16  20    5.66   396.9    7.7      40.629
2014   10        6    16  25    5.66   396.9    7.8      40.623
2014   10        6    16  31    5.66   396.9    7.8      40.618
2014   10        6    16  36    5.66   396.8    7.8      40.612
2014   10        6    16  42    5.66   396.8    7.8      40.607
2014   10        6    16  47    5.66   396.8    7.8      40.602
2014   10        6    16  52    5.67   396.7    7.8      40.596
2014   10        6    16  58    5.67   396.7    7.8      40.591
2014   10        6    17   3    5.67   396.7    7.8      40.586
2014   10        6    17   9    5.67   396.6    7.8      40.581
2014   10        6    17  14    5.67   396.6    7.8      40.575
2014   10        6    17  19    5.67   396.6    7.8      40.569
2014   10        6    17  25    5.67   396.5    7.8      40.563
2014   10        6    17  30    5.67   396.5    7.8      40.556
2014   10        6    17  36    5.68   396.5    7.8      40.549
2014   10        6    17  41    5.68   396.4    7.8      40.542
2014   10        6    17  46    5.68   396.4    7.8      40.535
2014   10        6    17  52    5.68   396.4    7.8      40.527
2014   10        6    17  57    5.68   396.3    7.8      40.520
2014   10        6    18   3    5.68   396.3    7.8      40.512
2014   10        6    18   8    5.68   396.3    7.9      40.504
2014   10        6    18  13    5.68   396.2    7.9      40.496
2014   10        6    18  19    5.69   396.2    7.9      40.487
2014   10        6    18  24    5.69   396.2    7.9      40.479
2014   10        6    18  30    5.69   396.1    7.9      40.470
2014   10        6    18  35    5.69   396.1    7.9      40.461
2014   10        6    18  40    5.69   396.1    7.9      40.452
2014   10        6    18  46    5.69   396.0    7.9      40.443
2014   10        6    18  51    5.69   396.0    7.9      40.434
2014   10        6    18  56    5.69   396.0    7.9      40.425
2014   10        6    19   2    5.70   395.9    7.9      40.416
2014   10        6    19   7    5.70   395.9    7.9      40.406
2014   10        6    19  13    5.70   395.9    7.9      40.397
2014   10        6    19  18    5.70   395.8    7.9      40.388
2014   10        6    19  23    5.70   395.8    7.9      40.378
2014   10        6    19  29    5.70   395.8    7.9      40.369
2014   10        6    19  34    5.71   395.8    7.9      40.359
2014   10        6    19  40    5.71   395.7    7.9      40.350
2014   10        6    19  45    5.71   395.7    7.9      40.341
2014   10        6    19  50    5.71   395.7    7.9      40.332
2014   10        6    19  56    5.71   395.6    7.9      40.323
2014   10        6    20   1    5.71   395.6    8.0      40.314
2014   10        6    20   7    5.72   395.6    8.0      40.306
2014   10        6    20  12    5.72   395.6    8.0      40.297
2014   10        6    20  17    5.72   395.5    8.0      40.289
2014   10        6    20  23    5.72   395.5    8.0      40.281
2014   10        6    20  28    5.72   395.5    8.0      40.273
2014   10        6    20  33    5.73   395.5    8.0      40.266
2014   10        6    20  39    5.73   395.4    8.0      40.259
2014   10        6    20  44    5.73   395.4    8.0      40.253
2014   10        6    20  50    5.73   395.4    8.0      40.246
2014   10        6    20  55    5.73   395.4    8.0      40.240
2014   10        6    21   0    5.74   395.3    8.0      40.235
2014   10        6    21   6    5.74   395.3    8.0      40.230
2014   10        6    21  11    5.74   395.3    8.0      40.225
2014   10        6    21  17    5.74   395.3    8.0      40.221
2014   10        6    21  22    5.75   395.3    8.0      40.218
2014   10        6    21  27    5.75   395.2    8.1      40.215
2014   10        6    21  33    5.75   395.2    8.1      40.212
2014   10        6    21  38    5.75   395.2    8.1      40.210
2014   10        6    21  44    5.76   395.2    8.1      40.209
2014   10        6    21  49    5.76   395.2    8.1      40.208
2014   10        6    21  54    5.76   395.2    8.1      40.207
2014   10        6    22   0    5.77   395.2    8.1      40.207
2014   10        6    22   5    5.77   395.1    8.1      40.207
2014   10        6    22  11    5.77   395.1    8.1      40.208
2014   10        6    22  16    5.77   395.1    8.1      40.209
2014   10        6    22  21    5.78   395.1    8.1      40.211
2014   10        6    22  27    5.78   395.1    8.1      40.213
2014   10        6    22  32    5.78   395.1    8.1      40.215
2014   10        6    22  37    5.79   395.1    8.2      40.217
2014   10        6    22  43    5.79   395.1    8.2      40.219
2014   10        6    22  48    5.79   395.1    8.2      40.221
2014   10        6    22  54    5.80   395.1    8.2      40.223
2014   10        6    22  59    5.80   395.1    8.2      40.225
2014   10        6    23   4    5.80   395.1    8.2      40.227
2014   10        6    23  10    5.81   395.1    8.2      40.229
2014   10        6    23  15    5.81   395.0    8.2      40.231
2014   10        6    23  21    5.81   395.0    8.2      40.233
2014   10        6    23  26    5.82   395.0    8.2      40.236
2014   10        6    23  31    5.82   395.0    8.2      40.238
2014   10        6    23  37    5.82   395.0    8.2      40.240
2014   10        6    23  42    5.83   395.0    8.3      40.242
2014   10        6    23  48    5.83   395.0    8.3      40.244
2014   10        6    23  53    5.83   395.0    8.3      40.246
2014   10        6    23  58    5.84   395.0    8.3      40.249
2014   10        7     0   4    5.84   395.0    8.3      40.251
2014   10        7     0   9    5.84   395.0    8.3      40.252
2014   10        7     0  15    5.85   395.0    8.3      40.254
2014   10        7     0  20    5.85   395.0    8.3      40.256
2014   10        7     0  25    5.85   395.0    8.3      40.258
2014   10        7     0  31    5.86   395.0    8.3      40.259
2014   10        7     0  36    5.86   395.0    8.3      40.261
2014   10        7     0  41    5.86   395.0    8.3      40.262
2014   10        7     0  47    5.87   395.0    8.4      40.264
2014   10        7     0  52    5.87   394.9    8.4      40.265
2014   10        7     0  58    5.87   394.9    8.4      40.267
2014   10        7     1   3    5.88   394.9    8.4      40.269
2014   10        7     1   8    5.88   394.9    8.4      40.271
2014   10        7     1  14    5.88   394.9    8.4      40.273
2014   10        7     1  19    5.89   394.9    8.4      40.276
2014   10        7     1  25    5.89   394.9    8.4      40.278
2014   10        7     1  30    5.90   394.9    8.4      40.282
2014   10        7     1  35    5.90   394.9    8.4      40.285
2014   10        7     1  41    5.90   395.0    8.4      40.289
2014   10        7     1  46    5.91   395.0    8.5      40.293
2014   10        7     1  52    5.91   395.0    8.5      40.298
2014   10        7     1  57    5.91   395.0    8.5      40.304
2014   10        7     2   2    5.92   395.0    8.5      40.309
2014   10        7     2   8    5.92   395.0    8.5      40.316
2014   10        7     2  13    5.93   395.0    8.5      40.323
2014   10        7     2  19    5.93   395.0    8.5      40.331
2014   10        7     2  24    5.93   395.0    8.5      40.339
2014   10        7     2  29    5.94   395.0    8.5      40.349
2014   10        7     2  35    5.94   395.0    8.5      40.360
2014   10        7     2  40    5.95   395.1    8.6      40.372
2014   10        7     2  45    5.95   395.1    8.6      40.384
2014   10        7     2  51    5.95   395.1    8.6      40.397
2014   10        7     2  56    5.96   395.1    8.6      40.411
2014   10        7     3   2    5.96   395.1    8.6      40.426
2014   10        7     3   7    5.97   395.1    8.6      40.443
2014   10        7     3  12    5.97   395.2    8.6      40.460
2014   10        7     3  18    5.97   395.2    8.6      40.479
2014   10        7     3  23    5.98   395.2    8.6      40.499
2014   10        7     3  29    5.98   395.3    8.7      40.520
2014   10        7     3  34    5.99   395.3    8.7      40.541
2014   10        7     3  39    5.99   395.3    8.7      40.564
2014   10        7     3  45    5.99   395.4    8.7      40.587
2014   10        7     3  50    6.00   395.4    8.7      40.609
2014   10        7     3  56    6.00   395.4    8.7      40.631
2014   10        7     4   1    6.01   395.5    8.7      40.653
2014   10        7     4   6    6.01   395.5    8.7      40.674
2014   10        7     4  12    6.01   395.5    8.7      40.695
2014   10        7     4  17    6.02   395.6    8.8      40.715
2014   10        7     4  23    6.02   395.6    8.8      40.736
2014   10        7     4  28    6.03   395.7    8.8      40.756
2014   10        7     4  33    6.03   395.7    8.8      40.776
2014   10        7     4  39    6.03   395.7    8.8      40.796
2014   10        7     4  44    6.04   395.8    8.8      40.816
2014   10        7     4  49    6.04   395.8    8.8      40.835
2014   10        7     4  55    6.05   395.9    8.8      40.854
2014   10        7     5   0    6.05   395.9    8.8      40.873
2014   10        7     5   6    6.05   396.0    8.8      40.892
2014   10        7     5  11    6.06   396.0    8.9      40.911
2014   10        7     5  16    6.06   396.1    8.9      40.930
2014   10        7     5  22    6.06   396.1    8.9      40.949
2014   10        7     5  27    6.07   396.2    8.9      40.968
2014   10        7     5  33    6.07   396.2    8.9      40.986
2014   10        7     5  38    6.08   396.3    8.9      41.005
2014   10        7     5  43    6.08   396.3    8.9      41.024
2014   10        7     5  49    6.08   396.4    8.9      41.042
2014   10        7     5  54    6.09   396.4    8.9      41.060
2014   10        7     6   0    6.09   396.5    8.9      41.077
2014   10        7     6   5    6.09   396.6    8.9      41.093
2014   10        7     6  10    6.10   396.6    8.9      41.109
2014   10        7     6  16    6.10   396.7    8.9      41.124
2014   10        7     6  21    6.10   396.7    8.9      41.139
2014   10        7     6  27    6.11   396.8    9.0      41.153
2014   10        7     6  32    6.11   396.8    9.0      41.166
2014   10        7     6  37    6.11   396.9    9.0      41.179
2014   10        7     6  43    6.12   396.9    9.0      41.192
2014   10        7     6  48    6.12   397.0    9.0      41.204
2014   10        7     6  53    6.12   397.1    9.0      41.216
2014   10        7     6  59    6.13   397.1    9.0      41.227
2014   10        7     7   4    6.13   397.2    9.0      41.239
2014   10        7     7  10    6.13   397.2    9.0      41.249
2014   10        7     7  15    6.14   397.3    9.0      41.260
2014   10        7     7  20    6.14   397.3    9.0      41.270
2014   10        7     7  26    6.14   397.4    9.0      41.280
2014   10        7     7  31    6.15   397.5    9.0      41.290
2014   10        7     7  37    6.15   397.5    9.0      41.299
2014   10        7     7  42    6.15   397.6    9.0      41.309
2014   10        7     7  47    6.15   397.6    9.0      41.318
2014   10        7     7  53    6.16   397.7    9.0      41.327
2014   10        7     7  58    6.16   397.7    9.0      41.335
2014   10        7     8   4    6.16   397.8    9.0      41.344
2014   10        7     8   9    6.17   397.9    9.1      41.352
2014   10        7     8  14    6.17   397.9    9.1      41.361
2014   10        7     8  20    6.17   398.0    9.1      41.369
2014   10        7     8  25    6.18   398.0    9.1      41.377
2014   10        7     8  31    6.18   398.1    9.1      41.384
2014   10        7     8  36    6.18   398.1    9.1      41.392
2014   10        7     8  41    6.19   398.2    9.1      41.400
2014   10        7     8  47    6.19   398.3    9.1      41.407
2014   10        7     8  52    6.19   398.3    9.1      41.414
2014   10        7     8  57    6.19   398.4    9.1      41.421
2014   10        7     9   3    6.20   398.4    9.1      41.428
2014   10        7     9   8    6.20   398.5    9.1      41.435
2014   10        7     9  14    6.20   398.5    9.1      41.442
2014   10        7     9  19    6.21   398.6    9.1      41.449
2014   10        7     9  24    6.21   398.6    9.1      41.456
2014   10        7     9  30    6.21   398.7    9.1      41.463
2014   10        7     9  35    6.21   398.7    9.1      41.469
2014   10        7     9  41    6.22   398.8    9.1      41.476
2014   10        7     9  46    6.22   398.8    9.1      41.483
2014   10        7     9  51    6.22   398.9    9.1      41.490
2014   10        7     9  57    6.22   399.0    9.1      41.498
2014   10        7    10   2    6.23   399.0    9.1      41.505
2014   10        7    10   8    6.23   399.1    9.1      41.513
2014   10        7    10  13    6.23   399.1    9.1      41.521
2014   10        7    10  18    6.23   399.2    9.2      41.529
2014   10        7    10  24    6.24   399.2    9.2      41.538
2014   10        7    10  29    6.24   399.3    9.2      41.548
2014   10        7    10  34    6.24   399.3    9.2      41.557
2014   10        7    10  40    6.24   399.4    9.2      41.568
2014   10        7    10  45    6.25   399.4    9.2      41.578
2014   10        7    10  51    6.25   399.5    9.2      41.590
2014   10        7    10  56    6.25   399.5    9.2      41.601
2014   10        7    11   1    6.25   399.6    9.2      41.613
2014   10        7    11   7    6.26   399.6    9.2      41.625
2014   10        7    11  12    6.26   399.7    9.2      41.637
2014   10        7    11  18    6.26   399.7    9.2      41.650
2014   10        7    11  23    6.26   399.8    9.2      41.662
2014   10        7    11  28    6.27   399.8    9.2      41.675
2014   10        7    11  34    6.27   399.9    9.2      41.688
2014   10        7    11  39    6.27   399.9    9.2      41.702
2014   10        7    11  45    6.27   400.0    9.2      41.715
2014   10        7    11  50    6.28   400.0    9.2      41.729
2014   10        7    11  55    6.28   400.1    9.2      41.742
2014   10        7    12   1    6.28   400.1    9.2      41.756
2014   10        7    12   6    6.28   400.2    9.2      41.770
2014   10        7    12  12    6.28   400.3    9.2      41.783
2014   10        7    12  17    6.29   400.3    9.2      41.796
2014   10        7    12  22    6.29   400.4    9.2      41.809
2014   10        7    12  28    6.29   400.4    9.2      41.821
2014   10        7    12  33    6.29   400.5    9.2      41.833
2014   10        7    12  38    6.30   400.5    9.2      41.845
2014   10        7    12  44    6.30   400.6    9.2      41.856
2014   10        7    12  49    6.30   400.6    9.2      41.867
2014   10        7    12  55    6.30   400.7    9.2      41.878
2014   10        7    13   0    6.31   400.8    9.2      41.889
2014   10        7    13   5    6.31   400.8    9.2      41.899
2014   10        7    13  11    6.31   400.9    9.2      41.909
2014   10        7    13  16    6.31   400.9    9.2      41.919
2014   10        7    13  22    6.32   401.0    9.2      41.929
2014   10        7    13  27    6.32   401.0    9.2      41.938
2014   10        7    13  32    6.32   401.1    9.2      41.947
2014   10        7    13  38    6.32   401.2    9.2      41.957
2014   10        7    13  43    6.32   401.2    9.2      41.966
2014   10        7    13  49    6.33   401.3    9.2      41.975
2014   10        7    13  54    6.33   401.3    9.2      41.983
2014   10        7    13  59    6.33   401.4    9.2      41.992
2014   10        7    14   5    6.33   401.4    9.2      42.001
2014   10        7    14  10    6.34   401.5    9.2      42.010
2014   10        7    14  16    6.34   401.6    9.2      42.018
2014   10        7    14  21    6.34   401.6    9.2      42.027
2014   10        7    14  26    6.34   401.7    9.3      42.036
2014   10        7    14  32    6.34   401.7    9.3      42.045
2014   10        7    14  37    6.35   401.8    9.3      42.055
2014   10        7    14  42    6.35   401.8    9.3      42.065
2014   10        7    14  48    6.35   401.9    9.3      42.075
2014   10        7    14  53    6.35   401.9    9.3      42.085
2014   10        7    14  59    6.35   402.0    9.3      42.096
2014   10        7    15   4    6.36   402.0    9.3      42.108
2014   10        7    15   9    6.36   402.1    9.3      42.120
2014   10        7    15  15    6.36   402.2    9.3      42.132
2014   10        7    15  20    6.36   402.2    9.3      42.146
2014   10        7    15  26    6.37   402.3    9.3      42.160
2014   10        7    15  31    6.37   402.3    9.3      42.175
2014   10        7    15  36    6.37   402.4    9.3      42.191
2014   10        7    15  42    6.37   402.4    9.3      42.208
2014   10        7    15  47    6.38   402.5    9.3      42.226
2014   10        7    15  53    6.38   402.6    9.3      42.246
2014   10        7    15  58    6.38   402.6    9.3      42.267
2014   10        7    16   3    6.38   402.7    9.3      42.290
2014   10        7    16   9    6.39   402.8    9.3      42.313
2014   10        7    16  14    6.39   402.8    9.3      42.337
2014   10        7    16  20    6.39   402.9    9.3      42.362
2014   10        7    16  25    6.40   402.9    9.3      42.389
2014   10        7    16  30    6.40   403.0    9.3      42.418
2014   10        7    16  36    6.40   403.1    9.4      42.449
2014   10        7    16  41    6.40   403.2    9.4      42.481
2014   10        7    16  46    6.41   403.2    9.4      42.514
2014   10        7    16  52    6.41   403.3    9.4      42.547
2014   10        7    16  57    6.41   403.4    9.4      42.582
2014   10        7    17   3    6.42   403.5    9.4      42.618
2014   10        7    17   8    6.42   403.6    9.4      42.654
2014   10        7    17  13    6.42   403.7    9.4      42.690
2014   10        7    17  19    6.42   403.8    9.4      42.726
2014   10        7    17  24    6.43   403.9    9.4      42.761
2014   10        7    17  30    6.43   404.0    9.4      42.795
2014   10        7    17  35    6.43   404.0    9.4      42.829
2014   10        7    17  40    6.43   404.1    9.4      42.863
2014   10        7    17  46    6.43   404.2    9.4      42.895
2014   10        7    17  51    6.44   404.3    9.4      42.927
2014   10        7    17  57    6.44   404.4    9.4      42.958
2014   10        7    18   2    6.44   404.5    9.5      42.987
2014   10        7    18   7    6.44   404.6    9.5      43.015
2014   10        7    18  13    6.44   404.7    9.5      43.041
2014   10        7    18  18    6.45   404.8    9.5      43.067
2014   10        7    18  24    6.45   404.9    9.5      43.092
2014   10        7    18  29    6.45   405.0    9.5      43.116
2014   10        7    18  34    6.45   405.1    9.5      43.139
2014   10        7    18  40    6.45   405.2    9.5      43.160
2014   10        7    18  45    6.45   405.3    9.5      43.181
2014   10        7    18  50    6.46   405.4    9.5      43.202
2014   10        7    18  56    6.46   405.5    9.5      43.221
2014   10        7    19   1    6.46   405.6    9.5      43.239
2014   10        7    19   7    6.46   405.7    9.5      43.257
2014   10        7    19  12    6.46   405.8    9.5      43.274
2014   10        7    19  17    6.46   405.9    9.5      43.291
2014   10        7    19  23    6.46   406.0    9.5      43.306
2014   10        7    19  28    6.47   406.1    9.5      43.322
2014   10        7    19  34    6.47   406.2    9.5      43.336
2014   10        7    19  39    6.47   406.3    9.4      43.350
2014   10        7    19  44    6.47   406.4    9.4      43.363
2014   10        7    19  50    6.47   406.5    9.4      43.376
2014   10        7    19  55    6.47   406.6    9.4      43.388
2014   10        7    20   1    6.47   406.7    9.4      43.400
2014   10        7    20   6    6.47   406.8    9.4      43.411
2014   10        7    20  11    6.48   406.9    9.4      43.422
2014   10        7    20  17    6.48   407.0    9.4      43.432
2014   10        7    20  22    6.48   407.1    9.4      43.442
2014   10        7    20  28    6.48   407.2    9.4      43.452
2014   10        7    20  33    6.48   407.3    9.4      43.461
2014   10        7    20  38    6.48   407.4    9.4      43.470
2014   10        7    20  44    6.48   407.5    9.4      43.479
2014   10        7    20  49    6.48   407.6    9.4      43.487
2014   10        7    20  54    6.48   407.7    9.4      43.496
2014   10        7    21   0    6.48   407.8    9.4      43.504
2014   10        7    21   5    6.49   407.9    9.4      43.512
2014   10        7    21  11    6.49   408.0    9.4      43.520
2014   10        7    21  16    6.49   408.1    9.4      43.528
2014   10        7    21  21    6.49   408.2    9.4      43.536
2014   10        7    21  27    6.49   408.3    9.4      43.543
2014   10        7    21  32    6.49   408.4    9.4      43.551
2014   10        7    21  38    6.49   408.5    9.4      43.559
2014   10        7    21  43    6.49   408.6    9.4      43.566
2014   10        7    21  48    6.49   408.7    9.4      43.574
2014   10        7    21  54    6.49   408.8    9.4      43.582
2014   10        7    21  59    6.49   408.9    9.4      43.589
2014   10        7    22   5    6.49   409.0    9.4      43.597
2014   10        7    22  10    6.49   409.1    9.4      43.605
2014   10        7    22  15    6.49   409.2    9.4      43.612
2014   10        7    22  21    6.49   409.3    9.4      43.620
2014   10        7    22  26    6.49   409.4    9.4      43.628
2014   10        7    22  32    6.50   409.5    9.3      43.636
2014   10        7    22  37    6.50   409.6    9.3      43.645
2014   10        7    22  42    6.50   409.7    9.3      43.654
2014   10        7    22  48    6.50   409.8    9.3      43.663
2014   10        7    22  53    6.50   409.9    9.3      43.672
2014   10        7    22  58    6.50   410.0    9.3      43.682
2014   10        7    23   4    6.50   410.1    9.3      43.692
2014   10        7    23   9    6.50   410.2    9.3      43.702
2014   10        7    23  15    6.50   410.3    9.3      43.713
2014   10        7    23  20    6.50   410.4    9.3      43.725
2014   10        7    23  25    6.50   410.5    9.3      43.736
2014   10        7    23  31    6.50   410.6    9.3      43.749
2014   10        7    23  36    6.50   410.7    9.3      43.762
2014   10        7    23  42    6.50   410.8    9.3      43.776
2014   10        7    23  47    6.50   410.9    9.3      43.790
2014   10        7    23  52    6.50   411.0    9.3      43.805
2014   10        7    23  58    6.50   411.1    9.3      43.821
2014   10        8     0   3    6.50   411.2    9.3      43.838
2014   10        8     0   9    6.50   411.3    9.3      43.854
2014   10        8     0  14    6.50   411.4    9.3      43.871
2014   10        8     0  19    6.50   411.5    9.3      43.890
2014   10        8     0  25    6.50   411.6    9.3      43.909
2014   10        8     0  30    6.50   411.7    9.3      43.929
2014   10        8     0  36    6.50   411.8    9.3      43.949
2014   10        8     0  41    6.50   411.9    9.3      43.969
2014   10        8     0  46    6.50   412.0    9.3      43.990
2014   10        8     0  52    6.50   412.1    9.3      44.012
2014   10        8     0  57    6.50   412.2    9.3      44.033
2014   10        8     1   2    6.50   412.4    9.3      44.054
2014   10        8     1   8    6.50   412.5    9.3      44.074
2014   10        8     1  13    6.50   412.6    9.3      44.093
2014   10        8     1  19    6.50   412.7    9.3      44.111
2014   10        8     1  24    6.50   412.8    9.3      44.128
2014   10        8     1  29    6.50   412.9    9.3      44.145
2014   10        8     1  35    6.50   413.0    9.3      44.161
2014   10        8     1  40    6.50   413.1    9.3      44.176
2014   10        8     1  46    6.50   413.3    9.2      44.190
2014   10        8     1  51    6.50   413.4    9.2      44.204
2014   10        8     1  56    6.50   413.5    9.2      44.217
2014   10        8     2   2    6.50   413.6    9.2      44.230
2014   10        8     2   7    6.50   413.7    9.2      44.242
2014   10        8     2  13    6.50   413.8    9.2      44.254
2014   10        8     2  18    6.50   413.9    9.2      44.265
2014   10        8     2  23    6.50   414.0    9.2      44.275
2014   10        8     2  29    6.50   414.1    9.2      44.285
2014   10        8     2  34    6.50   414.3    9.2      44.295
2014   10        8     2  39    6.50   414.4    9.2      44.304
2014   10        8     2  45    6.50   414.5    9.2      44.313
2014   10        8     2  50    6.50   414.6    9.2      44.321
2014   10        8     2  56    6.49   414.7    9.2      44.329
2014   10        8     3   1    6.49   414.8    9.2      44.336
2014   10        8     3   6    6.49   414.9    9.2      44.343
2014   10        8     3  12    6.49   415.0    9.2      44.350
2014   10        8     3  17    6.49   415.1    9.1      44.356
2014   10        8     3  23    6.49   415.3    9.1      44.362
2014   10        8     3  28    6.49   415.4    9.1      44.368
2014   10        8     3  33    6.49   415.5    9.1      44.373
2014   10        8     3  39    6.49   415.6    9.1      44.378
2014   10        8     3  44    6.49   415.7    9.1      44.383
2014   10        8     3  50    6.49   415.8    9.1      44.387
2014   10        8     3  55    6.49   415.9    9.1      44.391
2014   10        8     4   0    6.48   416.0    9.1      44.394
2014   10        8     4   6    6.48   416.1    9.1      44.397
2014   10        8     4  11    6.48   416.2    9.1      44.400
2014   10        8     4  17    6.48   416.4    9.1      44.403
2014   10        8     4  22    6.48   416.5    9.1      44.405
2014   10        8     4  27    6.48   416.6    9.1      44.407
2014   10        8     4  33    6.48   416.7    9.0      44.409
2014   10        8     4  38    6.48   416.8    9.0      44.410
2014   10        8     4  43    6.48   416.9    9.0      44.411
2014   10        8     4  49    6.48   417.0    9.0      44.412
2014   10        8     4  54    6.47   417.1    9.0      44.412
2014   10        8     5   0    6.47   417.2    9.0      44.413
2014   10        8     5   5    6.47   417.3    9.0      44.413
2014   10        8     5  10    6.47   417.4    9.0      44.413
2014   10        8     5  16    6.47   417.5    9.0      44.412
2014   10        8     5  21    6.47   417.6    9.0      44.411
2014   10        8     5  27    6.47   417.7    9.0      44.410
2014   10        8     5  32    6.46   417.8    9.0      44.410
2014   10        8     5  37    6.46   417.9    8.9      44.408
2014   10        8     5  43    6.46   418.0    8.9      44.407
2014   10        8     5  48    6.46   418.1    8.9      44.405
2014   10        8     5  54    6.46   418.2    8.9      44.404
2014   10        8     5  59    6.46   418.3    8.9      44.402
2014   10        8     6   4    6.46   418.4    8.9      44.400
2014   10        8     6  10    6.45   418.5    8.9      44.398
2014   10        8     6  15    6.45   418.6    8.9      44.396
2014   10        8     6  21    6.45   418.7    8.9      44.394
2014   10        8     6  26    6.45   418.8    8.9      44.391
2014   10        8     6  31    6.45   418.9    8.9      44.389
2014   10        8     6  37    6.45   419.0    8.8      44.386
2014   10        8     6  42    6.44   419.1    8.8      44.384
2014   10        8     6  47    6.44   419.2    8.8      44.381
2014   10        8     6  53    6.44   419.3    8.8      44.379
2014   10        8     6  58    6.44   419.4    8.8      44.376
2014   10        8     7   4    6.44   419.4    8.8      44.373
2014   10        8     7   9    6.44   419.5    8.8      44.371
2014   10        8     7  14    6.43   419.6    8.8      44.368
2014   10        8     7  20    6.43   419.7    8.8      44.365
2014   10        8     7  25    6.43   419.8    8.8      44.363
2014   10        8     7  31    6.43   419.9    8.8      44.361
2014   10        8     7  36    6.43   420.0    8.8      44.358
2014   10        8     7  41    6.42   420.1    8.7      44.356
2014   10        8     7  47    6.42   420.1    8.7      44.354
2014   10        8     7  52    6.42   420.2    8.7      44.351
2014   10        8     7  58    6.42   420.3    8.7      44.349
2014   10        8     8   3    6.42   420.4    8.7      44.346
2014   10        8     8   8    6.42   420.5    8.7      44.344
2014   10        8     8  14    6.41   420.6    8.7      44.341
2014   10        8     8  19    6.41   420.6    8.7      44.338
2014   10        8     8  25    6.41   420.7    8.7      44.335
2014   10        8     8  30    6.41   420.8    8.7      44.331
2014   10        8     8  35    6.41   420.9    8.7      44.328
2014   10        8     8  41    6.40   421.0    8.7      44.324
2014   10        8     8  46    6.40   421.0    8.6      44.320
2014   10        8     8  51    6.40   421.1    8.6      44.316
2014   10        8     8  57    6.40   421.2    8.6      44.311
2014   10        8     9   2    6.40   421.3    8.6      44.306
2014   10        8     9   8    6.40   421.4    8.6      44.301
2014   10        8     9  13    6.39   421.4    8.6      44.296
2014   10        8     9  18    6.39   421.5    8.6      44.291
2014   10        8     9  24    6.39   421.6    8.6      44.285
2014   10        8     9  29    6.39   421.7    8.6      44.279
2014   10        8     9  35    6.39   421.7    8.6      44.273
2014   10        8     9  40    6.38   421.8    8.6      44.267
2014   10        8     9  45    6.38   421.9    8.6      44.261
2014   10        8     9  51    6.38   422.0    8.5      44.254
2014   10        8     9  56    6.38   422.0    8.5      44.247
2014   10        8    10   2    6.38   422.1    8.5      44.240
2014   10        8    10   7    6.38   422.2    8.5      44.232
2014   10        8    10  12    6.37   422.3    8.5      44.224
2014   10        8    10  18    6.37   422.3    8.5      44.217
2014   10        8    10  23    6.37   422.4    8.5      44.209
2014   10        8    10  28    6.37   422.5    8.5      44.200
2014   10        8    10  34    6.37   422.5    8.5      44.192
2014   10        8    10  39    6.36   422.6    8.5      44.183
2014   10        8    10  45    6.36   422.7    8.5      44.174
2014   10        8    10  50    6.36   422.7    8.4      44.165
2014   10        8    10  55    6.36   422.8    8.4      44.156
2014   10        8    11   1    6.36   422.8    8.4      44.146
2014   10        8    11   6    6.36   422.9    8.4      44.136
2014   10        8    11  12    6.35   423.0    8.4      44.127
2014   10        8    11  17    6.35   423.0    8.4      44.117
2014   10        8    11  22    6.35   423.1    8.4      44.106
2014   10        8    11  28    6.35   423.1    8.4      44.096
2014   10        8    11  33    6.35   423.2    8.4      44.086
2014   10        8    11  39    6.34   423.2    8.4      44.075
2014   10        8    11  44    6.34   423.3    8.4      44.065
2014   10        8    11  49    6.34   423.4    8.4      44.054
2014   10        8    11  55    6.34   423.4    8.3      44.043
2014   10        8    12   0    6.34   423.5    8.3      44.032
2014   10        8    12   6    6.34   423.5    8.3      44.022
2014   10        8    12  11    6.33   423.6    8.3      44.010
2014   10        8    12  16    6.33   423.6    8.3      43.999
2014   10        8    12  22    6.33   423.7    8.3      43.988
2014   10        8    12  27    6.33   423.7    8.3      43.976
2014   10        8    12  32    6.33   423.8    8.3      43.965
2014   10        8    12  38    6.33   423.8    8.3      43.953
2014   10        8    12  43    6.32   423.9    8.3      43.942
2014   10        8    12  49    6.32   423.9    8.3      43.930
2014   10        8    12  54    6.32   423.9    8.2      43.919
2014   10        8    12  59    6.32   424.0    8.2      43.907
2014   10        8    13   5    6.32   424.0    8.2      43.896
2014   10        8    13  10    6.32   424.1    8.2      43.884
2014   10        8    13  16    6.31   424.1    8.2      43.873
2014   10        8    13  21    6.31   424.2    8.2      43.861
2014   10        8    13  26    6.31   424.2    8.2      43.850
2014   10        8    13  32    6.31   424.2    8.2      43.839
2014   10        8    13  37    6.31   424.3    8.2      43.828
2014   10        8    13  43    6.30   424.3    8.2      43.817
2014   10        8    13  48    6.30   424.3    8.2      43.807
2014   10        8    13  53    6.30   424.4    8.2      43.796
2014   10        8    13  59    6.30   424.4    8.2      43.786
2014   10        8    14   4    6.30   424.5    8.1      43.776
2014   10        8    14  10    6.30   424.5    8.1      43.767
2014   10        8    14  15    6.29   424.5    8.1      43.758
2014   10        8    14  20    6.29   424.6    8.1      43.749
2014   10        8    14  26    6.29   424.6    8.1      43.740
2014   10        8    14  31    6.29   424.6    8.1      43.731
2014   10        8    14  36    6.29   424.7    8.1      43.724
2014   10        8    14  42    6.29   424.7    8.1      43.716
2014   10        8    14  47    6.29   424.7    8.1      43.708
2014   10        8    14  53    6.28   424.8    8.1      43.702
2014   10        8    14  58    6.28   424.8    8.1      43.695
2014   10        8    15   3    6.28   424.8    8.1      43.689
2014   10        8    15   9    6.28   424.8    8.1      43.683
2014   10        8    15  14    6.28   424.9    8.1      43.677
2014   10        8    15  20    6.28   424.9    8.1      43.672
2014   10        8    15  25    6.28   424.9    8.1      43.668
2014   10        8    15  30    6.27   425.0    8.1      43.663
2014   10        8    15  36    6.27   425.0    8.0      43.659
2014   10        8    15  41    6.27   425.0    8.0      43.656
2014   10        8    15  47    6.27   425.1    8.0      43.652
2014   10        8    15  52    6.27   425.1    8.0      43.649
2014   10        8    15  57    6.27   425.1    8.0      43.646
2014   10        8    16   3    6.27   425.2    8.0      43.643
2014   10        8    16   8    6.27   425.2    8.0      43.640
2014   10        8    16  14    6.27   425.2    8.0      43.638
2014   10        8    16  19    6.26   425.3    8.0      43.636
2014   10        8    16  24    6.26   425.3    8.0      43.634
2014   10        8    16  30    6.26   425.3    8.0      43.632
2014   10        8    16  35    6.26   425.3    8.0      43.631
2014   10        8    16  40    6.26   425.4    8.0      43.630
2014   10        8    16  46    6.26   425.4    8.0      43.629
2014   10        8    16  51    6.26   425.4    8.0      43.628
2014   10        8    16  57    6.26   425.5    8.0      43.627
2014   10        8    17   2    6.26   425.5    8.0      43.626
2014   10        8    17   7    6.26   425.5    8.0      43.624
2014   10        8    17  13    6.26   425.5    8.0      43.623
2014   10        8    17  18    6.25   425.6    8.0      43.622
2014   10        8    17  24    6.25   425.6    8.0      43.620
2014   10        8    17  29    6.25   425.6    8.0      43.618
2014   10        8    17  34    6.25   425.6    8.0      43.617
2014   10        8    17  40    6.25   425.7    7.9      43.615
2014   10        8    17  45    6.25   425.7    7.9      43.613
2014   10        8    17  51    6.25   425.7    7.9      43.611
2014   10        8    17  56    6.25   425.7    7.9      43.609
2014   10        8    18   1    6.25   425.8    7.9      43.607
2014   10        8    18   7    6.25   425.8    7.9      43.605
2014   10        8    18  12    6.25   425.8    7.9      43.602
2014   10        8    18  18    6.25   425.8    7.9      43.600
2014   10        8    18  23    6.25   425.9    7.9      43.597
2014   10        8    18  28    6.25   425.9    7.9      43.594
2014   10        8    18  34    6.25   425.9    7.9      43.591
2014   10        8    18  39    6.25   425.9    7.9      43.588
2014   10        8    18  44    6.24   425.9    7.9      43.584
2014   10        8    18  50    6.24   426.0    7.9      43.581
2014   10        8    18  55    6.24   426.0    7.9      43.577
2014   10        8    19   1    6.24   426.0    7.9      43.573
2014   10        8    19   6    6.24   426.0    7.9      43.569
2014   10        8    19  11    6.24   426.0    7.9      43.565
2014   10        8    19  17    6.24   426.1    7.9      43.561
2014   10        8    19  22    6.24   426.1    7.9      43.557
2014   10        8    19  28    6.24   426.1    7.9      43.552
2014   10        8    19  33    6.24   426.1    7.9      43.548
2014   10        8    19  38    6.24   426.1    7.8      43.543
2014   10        8    19  44    6.24   426.1    7.8      43.538
2014   10        8    19  49    6.24   426.2    7.8      43.534
2014   10        8    19  55    6.24   426.2    7.8      43.529
2014   10        8    20   0    6.24   426.2    7.8      43.524
2014   10        8    20   5    6.24   426.2    7.8      43.519
2014   10        8    20  11    6.24   426.2    7.8      43.514
2014   10        8    20  16    6.24   426.2    7.8      43.509
2014   10        8    20  21    6.24   426.2    7.8      43.504
2014   10        8    20  27    6.23   426.2    7.8      43.499
2014   10        8    20  32    6.23   426.3    7.8      43.495
2014   10        8    20  38    6.23   426.3    7.8      43.490
2014   10        8    20  43    6.23   426.3    7.8      43.485
2014   10        8    20  48    6.23   426.3    7.8      43.480
2014   10        8    20  54    6.23   426.3    7.8      43.476
2014   10        8    20  59    6.23   426.3    7.8      43.471
2014   10        8    21   5    6.23   426.3    7.8      43.467
2014   10        8    21  10    6.23   426.3    7.8      43.463
2014   10        8    21  15    6.23   426.3    7.8      43.459
2014   10        8    21  21    6.23   426.3    7.8      43.455
2014   10        8    21  26    6.23   426.4    7.8      43.452
2014   10        8    21  32    6.23   426.4    7.8      43.449
2014   10        8    21  37    6.23   426.4    7.8      43.446
2014   10        8    21  42    6.23   426.4    7.8      43.443
2014   10        8    21  48    6.23   426.4    7.8      43.441
2014   10        8    21  53    6.23   426.4    7.7      43.439
2014   10        8    21  59    6.23   426.4    7.7      43.437
2014   10        8    22   4    6.23   426.4    7.7      43.436
2014   10        8    22   9    6.23   426.4    7.7      43.435
2014   10        8    22  15    6.23   426.4    7.7      43.434
2014   10        8    22  20    6.23   426.5    7.7      43.434
2014   10        8    22  25    6.23   426.5    7.7      43.434
2014   10        8    22  31    6.23   426.5    7.7      43.434
2014   10        8    22  36    6.23   426.5    7.7      43.435
2014   10        8    22  42    6.23   426.5    7.7      43.436
2014   10        8    22  47    6.23   426.5    7.7      43.438
2014   10        8    22  52    6.23   426.5    7.7      43.439
2014   10        8    22  58    6.23   426.5    7.7      43.441
2014   10        8    23   3    6.23   426.5    7.7      43.444
2014   10        8    23   9    6.23   426.6    7.7      43.447
2014   10        8    23  14    6.23   426.6    7.7      43.450
2014   10        8    23  19    6.23   426.6    7.7      43.454
2014   10        8    23  25    6.23   426.6    7.7      43.458
2014   10        8    23  30    6.23   426.6    7.7      43.462
2014   10        8    23  36    6.23   426.6    7.7      43.467
2014   10        8    23  41    6.23   426.6    7.7      43.472
2014   10        8    23  46    6.23   426.6    7.7      43.477
2014   10        8    23  52    6.23   426.6    7.7      43.483
2014   10        8    23  57    6.23   426.6    7.7      43.489
2014   10        9     0   3    6.23   426.7    7.7      43.495
2014   10        9     0   8    6.23   426.7    7.7      43.501
2014   10        9     0  13    6.23   426.7    7.7      43.508
2014   10        9     0  19    6.23   426.7    7.7      43.516
2014   10        9     0  24    6.23   426.7    7.7      43.523
2014   10        9     0  29    6.23   426.7    7.7      43.531
2014   10        9     0  35    6.23   426.7    7.7      43.539
2014   10        9     0  40    6.23   426.7    7.7      43.547
2014   10        9     0  46    6.23   426.7    7.7      43.555
2014   10        9     0  51    6.23   426.7    7.7      43.563
2014   10        9     0  56    6.24   426.7    7.7      43.572
2014   10        9     1   2    6.24   426.7    7.7      43.581
2014   10        9     1   7    6.24   426.7    7.7      43.590
2014   10        9     1  13    6.24   426.7    7.7      43.599
2014   10        9     1  18    6.24   426.8    7.7      43.609
2014   10        9     1  23    6.24   426.8    7.7      43.619
2014   10        9     1  29    6.24   426.8    7.7      43.629
2014   10        9     1  34    6.24   426.8    7.7      43.639
2014   10        9     1  40    6.24   426.8    7.7      43.650
2014   10        9     1  45    6.24   426.8    7.7      43.661
2014   10        9     1  50    6.24   426.8    7.7      43.673
2014   10        9     1  56    6.24   426.8    7.7      43.684
2014   10        9     2   1    6.25   426.8    7.7      43.696
2014   10        9     2   7    6.25   426.8    7.7      43.708
2014   10        9     2  12    6.25   426.9    7.7      43.720
2014   10        9     2  17    6.25   426.9    7.7      43.732
2014   10        9     2  23    6.25   426.9    7.7      43.744
2014   10        9     2  28    6.25   426.9    7.7      43.756
2014   10        9     2  33    6.25   426.9    7.7      43.767
2014   10        9     2  39    6.25   427.0    7.7      43.778
2014   10        9     2  44    6.25   427.0    7.7      43.789
2014   10        9     2  50    6.25   427.0    7.7      43.800
2014   10        9     2  55    6.26   427.0    7.7      43.810
2014   10        9     3   0    6.26   427.1    7.7      43.821
2014   10        9     3   6    6.26   427.1    7.7      43.831
2014   10        9     3  11    6.26   427.1    7.7      43.840
2014   10        9     3  17    6.26   427.1    7.7      43.850
2014   10        9     3  22    6.26   427.2    7.7      43.859
2014   10        9     3  27    6.26   427.2    7.7      43.869
2014   10        9     3  33    6.26   427.2    7.7      43.878
2014   10        9     3  38    6.26   427.2    7.7      43.887
2014   10        9     3  44    6.26   427.3    7.7      43.896
2014   10        9     3  49    6.26   427.3    7.7      43.904
2014   10        9     3  54    6.27   427.3    7.7      43.913
2014   10        9     4   0    6.27   427.4    7.7      43.922
2014   10        9     4   5    6.27   427.4    7.7      43.931
2014   10        9     4  11    6.27   427.4    7.7      43.939
2014   10        9     4  16    6.27   427.4    7.7      43.948
2014   10        9     4  21    6.27   427.5    7.7      43.956
2014   10        9     4  27    6.27   427.5    7.7      43.965
2014   10        9     4  32    6.27   427.5    7.7      43.974
2014   10        9     4  37    6.27   427.6    7.7      43.983
2014   10        9     4  43    6.27   427.6    7.7      43.991
2014   10        9     4  48    6.27   427.6    7.7      44.000
2014   10        9     4  54    6.28   427.7    7.7      44.009
2014   10        9     4  59    6.28   427.7    7.7      44.018
2014   10        9     5   4    6.28   427.7    7.7      44.027
2014   10        9     5  10    6.28   427.8    7.7      44.036
2014   10        9     5  15    6.28   427.8    7.7      44.045
2014   10        9     5  21    6.28   427.8    7.7      44.055
2014   10        9     5  26    6.28   427.9    7.7      44.065
2014   10        9     5  31    6.28   427.9    7.7      44.075
2014   10        9     5  37    6.28   428.0    7.7      44.085
2014   10        9     5  42    6.28   428.0    7.7      44.095
2014   10        9     5  48    6.28   428.0    7.7      44.105
2014   10        9     5  53    6.29   428.1    7.7      44.116
2014   10        9     5  58    6.29   428.1    7.7      44.127
2014   10        9     6   4    6.29   428.2    7.7      44.138
2014   10        9     6   9    6.29   428.2    7.7      44.150
2014   10        9     6  14    6.29   428.2    7.7      44.161
2014   10        9     6  20    6.29   428.3    7.7      44.173
2014   10        9     6  25    6.29   428.3    7.6      44.186
2014   10        9     6  31    6.29   428.4    7.6      44.199
2014   10        9     6  36    6.29   428.4    7.6      44.212
2014   10        9     6  41    6.29   428.5    7.6      44.225
2014   10        9     6  47    6.29   428.5    7.6      44.238
2014   10        9     6  52    6.30   428.6    7.6      44.251
2014   10        9     6  58    6.30   428.6    7.6      44.264
2014   10        9     7   3    6.30   428.7    7.6      44.276
2014   10        9     7   8    6.30   428.7    7.6      44.289
2014   10        9     7  14    6.30   428.7    7.6      44.302
2014   10        9     7  19    6.30   428.8    7.6      44.314
2014   10        9     7  25    6.30   428.8    7.6      44.327
2014   10        9     7  30    6.30   428.9    7.6      44.339
2014   10        9     7  35    6.30   428.9    7.6      44.352
2014   10        9     7  41    6.30   429.0    7.6      44.364
2014   10        9     7  46    6.30   429.0    7.6      44.377
2014   10        9     7  52    6.30   429.0    7.6      44.390
2014   10        9     7  57    6.31   429.1    7.6      44.403
2014   10        9     8   2    6.31   429.1    7.6      44.416
2014   10        9     8   8    6.31   429.2    7.6      44.429
2014   10        9     8  13    6.31   429.2    7.6      44.442
2014   10        9     8  18    6.31   429.2    7.6      44.455
2014   10        9     8  24    6.31   429.3    7.6      44.469
2014   10        9     8  29    6.31   429.3    7.6      44.483
2014   10        9     8  35    6.31   429.3    7.6      44.497
2014   10        9     8  40    6.31   429.4    7.6      44.511
2014   10        9     8  45    6.31   429.4    7.6      44.525
2014   10        9     8  51    6.32   429.5    7.6      44.539
2014   10        9     8  56    6.32   429.5    7.6      44.554
2014   10        9     9   2    6.32   429.5    7.6      44.569
2014   10        9     9   7    6.32   429.6    7.6      44.584
2014   10        9     9  12    6.32   429.6    7.6      44.600
2014   10        9     9  18    6.32   429.7    7.6      44.615
2014   10        9     9  23    6.32   429.7    7.6      44.631
2014   10        9     9  29    6.32   429.7    7.6      44.647
2014   10        9     9  34    6.33   429.8    7.6      44.663
2014   10        9     9  39    6.33   429.8    7.6      44.680
2014   10        9     9  45    6.33   429.9    7.6      44.696
2014   10        9     9  50    6.33   429.9    7.6      44.713
2014   10        9     9  56    6.33   430.0    7.6      44.729
2014   10        9    10   1    6.33   430.0    7.6      44.745
2014   10        9    10   6    6.33   430.1    7.6      44.761
2014   10        9    10  12    6.34   430.1    7.6      44.776
2014   10        9    10  17    6.34   430.2    7.6      44.792
2014   10        9    10  22    6.34   430.3    7.6      44.807
2014   10        9    10  28    6.34   430.3    7.6      44.823
2014   10        9    10  33    6.34   430.4    7.6      44.839
2014   10        9    10  39    6.34   430.4    7.6      44.854
2014   10        9    10  44    6.34   430.5    7.6      44.870
2014   10        9    10  49    6.34   430.5    7.6      44.885
2014   10        9    10  55    6.35   430.6    7.6      44.900
2014   10        9    11   0    6.35   430.6    7.6      44.916
2014   10        9    11   6    6.35   430.7    7.6      44.931
2014   10        9    11  11    6.35   430.8    7.6      44.947
2014   10        9    11  16    6.35   430.8    7.6      44.962
2014   10        9    11  22    6.35   430.9    7.6      44.978
2014   10        9    11  27    6.35   430.9    7.6      44.994
2014   10        9    11  33    6.35   431.0    7.6      45.010
2014   10        9    11  38    6.35   431.0    7.6      45.026
2014   10        9    11  43    6.36   431.1    7.6      45.043
2014   10        9    11  49    6.36   431.2    7.6      45.060
2014   10        9    11  54    6.36   431.2    7.6      45.077
2014   10        9    12   0    6.36   431.3    7.6      45.094
2014   10        9    12   5    6.36   431.3    7.6      45.111
2014   10        9    12  10    6.36   431.4    7.6      45.129
2014   10        9    12  16    6.36   431.5    7.6      45.148
2014   10        9    12  21    6.36   431.5    7.6      45.167
2014   10        9    12  26    6.37   431.6    7.6      45.186
2014   10        9    12  32    6.37   431.7    7.6      45.207
2014   10        9    12  37    6.37   431.7    7.6      45.227
2014   10        9    12  43    6.37   431.8    7.6      45.249
2014   10        9    12  48    6.37   431.8    7.6      45.270
2014   10        9    12  53    6.37   431.9    7.6      45.293
2014   10        9    12  59    6.37   432.0    7.6      45.316
2014   10        9    13   4    6.38   432.1    7.6      45.340
2014   10        9    13  10    6.38   432.1    7.6      45.365
2014   10        9    13  15    6.38   432.2    7.6      45.391
2014   10        9    13  20    6.38   432.3    7.6      45.417
2014   10        9    13  26    6.38   432.4    7.6      45.444
2014   10        9    13  31    6.38   432.5    7.6      45.471
2014   10        9    13  37    6.38   432.6    7.6      45.499
2014   10        9    13  42    6.38   432.6    7.6      45.527
2014   10        9    13  47    6.39   432.7    7.6      45.554
2014   10        9    13  53    6.39   432.8    7.6      45.582
2014   10        9    13  58    6.39   432.9    7.6      45.608
2014   10        9    14   3    6.39   433.0    7.6      45.635
2014   10        9    14   9    6.39   433.1    7.6      45.662
2014   10        9    14  14    6.39   433.2    7.6      45.688
2014   10        9    14  20    6.39   433.3    7.6      45.714
2014   10        9    14  25    6.39   433.4    7.6      45.739
2014   10        9    14  30    6.39   433.5    7.6      45.763
2014   10        9    14  36    6.39   433.6    7.6      45.788
2014   10        9    14  41    6.39   433.7    7.6      45.811
2014   10        9    14  47    6.40   433.8    7.6      45.834
2014   10        9    14  52    6.40   433.9    7.6      45.857
2014   10        9    14  57    6.40   433.9    7.6      45.879
2014   10        9    15   3    6.40   434.0    7.6      45.901
2014   10        9    15   8    6.40   434.1    7.6      45.922
2014   10        9    15  14    6.40   434.2    7.6      45.944
2014   10        9    15  19    6.40   434.3    7.6      45.965
2014   10        9    15  24    6.40   434.4    7.6      45.985
2014   10        9    15  30    6.40   434.5    7.6      46.005
2014   10        9    15  35    6.40   434.6    7.6      46.025
2014   10        9    15  41    6.40   434.7    7.6      46.045
2014   10        9    15  46    6.40   434.8    7.6      46.064
2014   10        9    15  51    6.40   434.9    7.6      46.084
2014   10        9    15  57    6.40   435.0    7.6      46.103
2014   10        9    16   2    6.40   435.1    7.6      46.122
2014   10        9    16   7    6.40   435.1    7.6      46.141
2014   10        9    16  13    6.41   435.2    7.6      46.159
2014   10        9    16  18    6.41   435.3    7.6      46.178
2014   10        9    16  24    6.41   435.4    7.6      46.196
2014   10        9    16  29    6.41   435.5    7.6      46.215
2014   10        9    16  34    6.41   435.6    7.6      46.233
2014   10        9    16  40    6.41   435.7    7.6      46.251
2014   10        9    16  45    6.41   435.8    7.6      46.270
2014   10        9    16  51    6.41   435.9    7.6      46.288
2014   10        9    16  56    6.41   436.0    7.6      46.306
2014   10        9    17   1    6.41   436.1    7.6      46.324
2014   10        9    17   7    6.41   436.2    7.6      46.342
2014   10        9    17  12    6.41   436.2    7.6      46.361
2014   10        9    17  18    6.41   436.3    7.6      46.379
2014   10        9    17  23    6.41   436.4    7.6      46.397
2014   10        9    17  28    6.41   436.5    7.6      46.415
2014   10        9    17  34    6.42   436.6    7.5      46.434
2014   10        9    17  39    6.42   436.7    7.5      46.452
2014   10        9    17  45    6.42   436.8    7.5      46.471
2014   10        9    17  50    6.42   436.9    7.5      46.489
2014   10        9    17  55    6.42   437.0    7.5      46.508
2014   10        9    18   1    6.42   437.1    7.5      46.527
2014   10        9    18   6    6.42   437.2    7.5      46.546
2014   10        9    18  11    6.42   437.3    7.5      46.565
2014   10        9    18  17    6.42   437.4    7.5      46.585
2014   10        9    18  22    6.42   437.5    7.5      46.604
2014   10        9    18  28    6.42   437.6    7.5      46.624
2014   10        9    18  33    6.42   437.7    7.5      46.644
2014   10        9    18  38    6.42   437.7    7.5      46.665
2014   10        9    18  44    6.42   437.8    7.5      46.685
2014   10        9    18  49    6.43   437.9    7.5      46.707
2014   10        9    18  55    6.43   438.0    7.5      46.728
2014   10        9    19   0    6.43   438.1    7.5      46.750
2014   10        9    19   5    6.43   438.2    7.5      46.772
2014   10        9    19  11    6.43   438.3    7.5      46.795
2014   10        9    19  16    6.43   438.4    7.5      46.818
2014   10        9    19  22    6.43   438.5    7.5      46.843
2014   10        9    19  27    6.43   438.6    7.5      46.867
2014   10        9    19  32    6.43   438.7    7.5      46.893
2014   10        9    19  38    6.43   438.8    7.5      46.919
2014   10        9    19  43    6.43   438.9    7.5      46.946
2014   10        9    19  49    6.43   439.0    7.5      46.974
2014   10        9    19  54    6.44   439.1    7.5      47.003
2014   10        9    19  59    6.44   439.2    7.5      47.033
2014   10        9    20   5    6.44   439.3    7.5      47.064
2014   10        9    20  10    6.44   439.4    7.5      47.095
2014   10        9    20  15    6.44   439.5    7.5      47.128
2014   10        9    20  21    6.44   439.6    7.5      47.162
2014   10        9    20  26    6.44   439.8    7.5      47.197
2014   10        9    20  32    6.44   439.9    7.5      47.232
2014   10        9    20  37    6.44   440.0    7.5      47.268
2014   10        9    20  42    6.44   440.1    7.5      47.304
2014   10        9    20  48    6.44   440.2    7.5      47.340
2014   10        9    20  53    6.44   440.4    7.5      47.376
2014   10        9    20  59    6.44   440.5    7.5      47.410
2014   10        9    21   4    6.44   440.6    7.5      47.444
2014   10        9    21   9    6.44   440.7    7.5      47.478
2014   10        9    21  15    6.44   440.9    7.5      47.510
2014   10        9    21  20    6.44   441.0    7.5      47.542
2014   10        9    21  26    6.44   441.1    7.5      47.573
2014   10        9    21  31    6.44   441.2    7.5      47.604
2014   10        9    21  36    6.44   441.4    7.5      47.633
2014   10        9    21  42    6.44   441.5    7.5      47.663
2014   10        9    21  47    6.44   441.6    7.5      47.691
2014   10        9    21  53    6.44   441.8    7.5      47.718
2014   10        9    21  58    6.44   441.9    7.5      47.745
2014   10        9    22   3    6.44   442.0    7.5      47.772
2014   10        9    22   9    6.44   442.1    7.5      47.797
2014   10        9    22  14    6.44   442.3    7.5      47.822
2014   10        9    22  19    6.44   442.4    7.5      47.847
2014   10        9    22  25    6.44   442.5    7.5      47.870
2014   10        9    22  30    6.44   442.7    7.5      47.894
2014   10        9    22  36    6.44   442.8    7.5      47.916
2014   10        9    22  41    6.44   442.9    7.5      47.938
2014   10        9    22  46    6.44   443.1    7.5      47.960
2014   10        9    22  52    6.44   443.2    7.5      47.981
2014   10        9    22  57    6.44   443.3    7.5      48.002
2014   10        9    23   3    6.44   443.4    7.5      48.022
2014   10        9    23   8    6.44   443.6    7.5      48.042
2014   10        9    23  13    6.44   443.7    7.5      48.062
2014   10        9    23  19    6.44   443.8    7.4      48.081
2014   10        9    23  24    6.44   443.9    7.4      48.099
2014   10        9    23  30    6.44   444.1    7.4      48.118
2014   10        9    23  35    6.44   444.2    7.4      48.136
2014   10        9    23  40    6.44   444.3    7.4      48.154
2014   10        9    23  46    6.44   444.5    7.4      48.171
2014   10        9    23  51    6.44   444.6    7.4      48.188
2014   10        9    23  57    6.44   444.7    7.4      48.205
2014   10       10     0   2    6.43   444.8    7.4      48.222
2014   10       10     0   7    6.43   445.0    7.4      48.238
2014   10       10     0  13    6.43   445.1    7.4      48.255
2014   10       10     0  18    6.43   445.2    7.4      48.271
2014   10       10     0  23    6.43   445.3    7.4      48.287
2014   10       10     0  29    6.43   445.5    7.4      48.303
2014   10       10     0  34    6.43   445.6    7.4      48.318
2014   10       10     0  40    6.43   445.7    7.4      48.334
2014   10       10     0  45    6.43   445.9    7.4      48.350
2014   10       10     0  50    6.43   446.0    7.4      48.365
2014   10       10     0  56    6.43   446.1    7.4      48.381
2014   10       10     1   1    6.43   446.2    7.4      48.397
2014   10       10     1   7    6.43   446.4    7.4      48.412
2014   10       10     1  12    6.43   446.5    7.4      48.428
2014   10       10     1  17    6.43   446.6    7.4      48.444
2014   10       10     1  23    6.43   446.7    7.4      48.460
2014   10       10     1  28    6.43   446.9    7.4      48.476
2014   10       10     1  34    6.43   447.0    7.3      48.493
2014   10       10     1  39    6.43   447.1    7.3      48.509
2014   10       10     1  44    6.43   447.3    7.3      48.526
2014   10       10     1  50    6.43   447.4    7.3      48.544
2014   10       10     1  55    6.43   447.5    7.3      48.562
2014   10       10     2   1    6.42   447.6    7.3      48.580
2014   10       10     2   6    6.42   447.8    7.3      48.599
2014   10       10     2  11    6.42   447.9    7.3      48.617
2014   10       10     2  17    6.42   448.0    7.3      48.637
2014   10       10     2  22    6.42   448.1    7.3      48.657
2014   10       10     2  27    6.42   448.3    7.3      48.679
2014   10       10     2  33    6.42   448.4    7.3      48.701
2014   10       10     2  38    6.42   448.5    7.3      48.725
2014   10       10     2  44    6.42   448.7    7.3      48.750
2014   10       10     2  49    6.42   448.8    7.3      48.775
2014   10       10     2  54    6.42   448.9    7.3      48.801
2014   10       10     3   0    6.42   449.1    7.3      48.828
2014   10       10     3   5    6.42   449.2    7.3      48.857
2014   10       10     3  11    6.42   449.4    7.3      48.887
2014   10       10     3  16    6.42   449.5    7.3      48.919
2014   10       10     3  21    6.42   449.6    7.3      48.952
2014   10       10     3  27    6.42   449.8    7.3      48.987
2014   10       10     3  32    6.42   450.0    7.3      49.022
2014   10       10     3  38    6.42   450.1    7.3      49.059
2014   10       10     3  43    6.42   450.3    7.3      49.096
2014   10       10     3  48    6.42   450.4    7.3      49.131
2014   10       10     3  54    6.42   450.6    7.3      49.166
2014   10       10     3  59    6.42   450.7    7.3      49.199
2014   10       10     4   4    6.41   450.9    7.3      49.232
2014   10       10     4  10    6.41   451.0    7.3      49.264
2014   10       10     4  15    6.41   451.2    7.3      49.294
2014   10       10     4  21    6.41   451.3    7.3      49.324
2014   10       10     4  26    6.41   451.5    7.3      49.353
2014   10       10     4  31    6.41   451.6    7.3      49.380
2014   10       10     4  37    6.41   451.8    7.3      49.407
2014   10       10     4  42    6.40   451.9    7.2      49.434
2014   10       10     4  48    6.40   452.1    7.2      49.459
2014   10       10     4  53    6.40   452.3    7.2      49.484
2014   10       10     4  58    6.40   452.4    7.2      49.507
2014   10       10     5   4    6.40   452.6    7.2      49.530
2014   10       10     5   9    6.40   452.7    7.2      49.553
2014   10       10     5  15    6.40   452.9    7.2      49.574
2014   10       10     5  20    6.39   453.0    7.2      49.595
2014   10       10     5  25    6.39   453.2    7.2      49.615
2014   10       10     5  31    6.39   453.3    7.2      49.635
2014   10       10     5  36    6.39   453.5    7.2      49.654
2014   10       10     5  42    6.39   453.6    7.2      49.672
2014   10       10     5  47    6.39   453.8    7.2      49.690
2014   10       10     5  52    6.38   453.9    7.2      49.707
2014   10       10     5  58    6.38   454.1    7.2      49.723
2014   10       10     6   3    6.38   454.2    7.2      49.739
2014   10       10     6   8    6.38   454.4    7.2      49.755
2014   10       10     6  14    6.38   454.5    7.2      49.770
2014   10       10     6  19    6.37   454.7    7.1      49.784
2014   10       10     6  25    6.37   454.8    7.1      49.798
2014   10       10     6  30    6.37   455.0    7.1      49.812
2014   10       10     6  35    6.37   455.1    7.1      49.825
2014   10       10     6  41    6.37   455.3    7.1      49.837
2014   10       10     6  46    6.36   455.4    7.1      49.849
2014   10       10     6  52    6.36   455.6    7.1      49.861
2014   10       10     6  57    6.36   455.7    7.1      49.873
2014   10       10     7   2    6.36   455.9    7.1      49.884
2014   10       10     7   8    6.36   456.0    7.1      49.895
2014   10       10     7  13    6.35   456.1    7.1      49.906
2014   10       10     7  19    6.35   456.3    7.1      49.916
2014   10       10     7  24    6.35   456.4    7.1      49.926
2014   10       10     7  29    6.35   456.6    7.1      49.936
2014   10       10     7  35    6.35   456.7    7.1      49.945
2014   10       10     7  40    6.34   456.9    7.0      49.955
2014   10       10     7  46    6.34   457.0    7.0      49.964
2014   10       10     7  51    6.34   457.2    7.0      49.973
2014   10       10     7  56    6.34   457.3    7.0      49.982
2014   10       10     8   2    6.34   457.5    7.0      49.991
2014   10       10     8   7    6.33   457.6    7.0      50.000
2014   10       10     8  12    6.33   457.7    7.0      50.008
2014   10       10     8  18    6.33   457.9    7.0      50.017
2014   10       10     8  23    6.33   458.0    7.0      50.026
2014   10       10     8  29    6.32   458.2    7.0      50.035
2014   10       10     8  34    6.32   458.3    7.0      50.043
2014   10       10     8  39    6.32   458.5    7.0      50.052
2014   10       10     8  45    6.32   458.6    7.0      50.061
2014   10       10     8  50    6.32   458.7    7.0      50.071
2014   10       10     8  56    6.31   458.9    7.0      50.080
2014   10       10     9   1    6.31   459.0    7.0      50.090
2014   10       10     9   6    6.31   459.2    6.9      50.099
2014   10       10     9  12    6.31   459.3    6.9      50.109
2014   10       10     9  17    6.30   459.5    6.9      50.120
2014   10       10     9  23    6.30   459.6    6.9      50.131
2014   10       10     9  28    6.30   459.7    6.9      50.142
2014   10       10     9  33    6.30   459.9    6.9      50.153
2014   10       10     9  39    6.30   460.0    6.9      50.165
2014   10       10     9  44    6.29   460.2    6.9      50.178
2014   10       10     9  50    6.29   460.3    6.9      50.191
2014   10       10     9  55    6.29   460.5    6.9      50.204
2014   10       10    10   0    6.29   460.6    6.9      50.219
2014   10       10    10   6    6.29   460.7    6.9      50.234
2014   10       10    10  11    6.28   460.9    6.9      50.250
2014   10       10    10  16    6.28   461.0    6.9      50.266
2014   10       10    10  22    6.28   461.2    6.9      50.283
2014   10       10    10  27    6.28   461.3    6.9      50.301
2014   10       10    10  33    6.27   461.5    6.9      50.319
2014   10       10    10  38    6.27   461.6    6.9      50.339
2014   10       10    10  43    6.27   461.8    6.9      50.359
2014   10       10    10  49    6.27   461.9    6.9      50.380
2014   10       10    10  54    6.27   462.1    6.9      50.402
2014   10       10    11   0    6.26   462.2    6.9      50.424
2014   10       10    11   5    6.26   462.4    6.8      50.446
2014   10       10    11  10    6.26   462.5    6.8      50.469
2014   10       10    11  16    6.26   462.7    6.8      50.490
2014   10       10    11  21    6.25   462.8    6.8      50.511
2014   10       10    11  27    6.25   463.0    6.8      50.531
2014   10       10    11  32    6.25   463.1    6.8      50.551
2014   10       10    11  37    6.24   463.3    6.8      50.569
2014   10       10    11  43    6.24   463.4    6.8      50.587
2014   10       10    11  48    6.24   463.6    6.8      50.604
2014   10       10    11  53    6.24   463.7    6.8      50.620
2014   10       10    11  59    6.23   463.9    6.8      50.635
2014   10       10    12   4    6.23   464.0    6.8      50.650
2014   10       10    12  10    6.23   464.2    6.8      50.664
2014   10       10    12  15    6.22   464.3    6.8      50.677
2014   10       10    12  20    6.22   464.4    6.8      50.690
2014   10       10    12  26    6.22   464.6    6.8      50.702
2014   10       10    12  31    6.22   464.7    6.8      50.713
2014   10       10    12  37    6.21   464.9    6.8      50.724
2014   10       10    12  42    6.21   465.0    6.7      50.734
2014   10       10    12  47    6.21   465.2    6.7      50.743
2014   10       10    12  53    6.20   465.3    6.7      50.752
2014   10       10    12  58    6.20   465.4    6.7      50.761
2014   10       10    13   4    6.20   465.6    6.7      50.768
2014   10       10    13   9    6.19   465.7    6.7      50.776
2014   10       10    13  14    6.19   465.9    6.7      50.783
2014   10       10    13  20    6.19   466.0    6.7      50.789
2014   10       10    13  25    6.19   466.1    6.7      50.795
2014   10       10    13  31    6.18   466.3    6.7      50.800
2014   10       10    13  36    6.18   466.4    6.7      50.805
2014   10       10    13  41    6.18   466.5    6.7      50.810
2014   10       10    13  47    6.17   466.7    6.7      50.814
2014   10       10    13  52    6.17   466.8    6.7      50.818
2014   10       10    13  57    6.17   466.9    6.6      50.822
2014   10       10    14   3    6.16   467.1    6.6      50.825
2014   10       10    14   8    6.16   467.2    6.6      50.828
2014   10       10    14  14    6.16   467.3    6.6      50.831
2014   10       10    14  19    6.15   467.5    6.6      50.833
2014   10       10    14  24    6.15   467.6    6.6      50.835
2014   10       10    14  30    6.15   467.7    6.6      50.837
2014   10       10    14  35    6.14   467.9    6.6      50.838
2014   10       10    14  41    6.14   468.0    6.6      50.839
2014   10       10    14  46    6.14   468.1    6.6      50.840
2014   10       10    14  51    6.13   468.3    6.6      50.841
2014   10       10    14  57    6.13   468.4    6.6      50.841
2014   10       10    15   2    6.13   468.5    6.6      50.841
2014   10       10    15   8    6.12   468.6    6.6      50.841
2014   10       10    15  13    6.12   468.8    6.5      50.841
2014   10       10    15  18    6.11   468.9    6.5      50.840
2014   10       10    15  24    6.11   469.0    6.5      50.839
2014   10       10    15  29    6.11   469.1    6.5      50.838
2014   10       10    15  35    6.10   469.3    6.5      50.837
2014   10       10    15  40    6.10   469.4    6.5      50.836
2014   10       10    15  45    6.10   469.5    6.5      50.834
2014   10       10    15  51    6.09   469.6    6.5      50.833
2014   10       10    15  56    6.09   469.7    6.5      50.831
2014   10       10    16   1    6.09   469.9    6.5      50.830
2014   10       10    16   7    6.08   470.0    6.5      50.828
2014   10       10    16  12    6.08   470.1    6.5      50.826
2014   10       10    16  18    6.08   470.2    6.5      50.824
2014   10       10    16  23    6.07   470.3    6.5      50.823
2014   10       10    16  28    6.07   470.4    6.4      50.821
2014   10       10    16  34    6.06   470.5    6.4      50.819
2014   10       10    16  39    6.06   470.7    6.4      50.818
2014   10       10    16  45    6.06   470.8    6.4      50.816
2014   10       10    16  50    6.05   470.9    6.4      50.815
2014   10       10    16  55    6.05   471.0    6.4      50.813
2014   10       10    17   1    6.05   471.1    6.4      50.812
2014   10       10    17   6    6.04   471.2    6.4      50.812
2014   10       10    17  12    6.04   471.3    6.4      50.811
2014   10       10    17  17    6.04   471.4    6.4      50.810
2014   10       10    17  22    6.03   471.5    6.4      50.810
2014   10       10    17  28    6.03   471.6    6.4      50.811
2014   10       10    17  33    6.02   471.8    6.4      50.811
2014   10       10    17  39    6.02   471.9    6.4      50.811
2014   10       10    17  44    6.02   472.0    6.4      50.811
2014   10       10    17  49    6.01   472.1    6.4      50.812
2014   10       10    17  55    6.01   472.2    6.4      50.813
2014   10       10    18   0    6.01   472.3    6.4      50.813
2014   10       10    18   5    6.00   472.4    6.3      50.814
2014   10       10    18  11    6.00   472.5    6.3      50.815
2014   10       10    18  16    6.00   472.6    6.3      50.816
2014   10       10    18  22    5.99   472.7    6.3      50.816
2014   10       10    18  27    5.99   472.8    6.3      50.816
2014   10       10    18  32    5.99   472.9    6.3      50.816
2014   10       10    18  38    5.98   473.0    6.3      50.815
2014   10       10    18  43    5.98   473.1    6.3      50.813
2014   10       10    18  49    5.98   473.2    6.3      50.811
2014   10       10    18  54    5.97   473.4    6.3      50.809
2014   10       10    18  59    5.97   473.5    6.3      50.806
2014   10       10    19   5    5.97   473.6    6.3      50.802
2014   10       10    19  10    5.96   473.7    6.3      50.798
2014   10       10    19  16    5.96   473.8    6.3      50.794
2014   10       10    19  21    5.96   473.9    6.3      50.788
2014   10       10    19  26    5.95   473.9    6.3      50.783
2014   10       10    19  32    5.95   474.0    6.3      50.777
2014   10       10    19  37    5.94   474.1    6.3      50.771
2014   10       10    19  43    5.94   474.2    6.3      50.765
2014   10       10    19  48    5.94   474.3    6.2      50.758
2014   10       10    19  53    5.93   474.4    6.2      50.751
2014   10       10    19  59    5.93   474.5    6.2      50.743
2014   10       10    20   4    5.93   474.6    6.2      50.735
2014   10       10    20   9    5.92   474.7    6.2      50.727
2014   10       10    20  15    5.92   474.8    6.2      50.718
2014   10       10    20  20    5.92   474.9    6.2      50.709
2014   10       10    20  26    5.91   475.0    6.2      50.700
2014   10       10    20  31    5.91   475.1    6.2      50.690
2014   10       10    20  36    5.90   475.1    6.2      50.680
2014   10       10    20  42    5.90   475.2    6.2      50.669
2014   10       10    20  47    5.90   475.3    6.2      50.658
2014   10       10    20  53    5.89   475.4    6.2      50.647
2014   10       10    20  58    5.89   475.5    6.2      50.636
2014   10       10    21   3    5.88   475.6    6.2      50.624
2014   10       10    21   9    5.88   475.7    6.2      50.612
2014   10       10    21  14    5.88   475.7    6.2      50.599
2014   10       10    21  20    5.87   475.8    6.1      50.587
2014   10       10    21  25    5.87   475.9    6.1      50.574
2014   10       10    21  30    5.87   476.0    6.1      50.560
2014   10       10    21  36    5.86   476.1    6.1      50.546
2014   10       10    21  41    5.86   476.1    6.1      50.532
2014   10       10    21  47    5.85   476.2    6.1      50.518
2014   10       10    21  52    5.85   476.3    6.1      50.503
2014   10       10    21  57    5.85   476.4    6.1      50.488
2014   10       10    22   3    5.84   476.4    6.1      50.473
2014   10       10    22   8    5.84   476.5    6.1      50.458
2014   10       10    22  13    5.83   476.6    6.1      50.442
2014   10       10    22  19    5.83   476.7    6.1      50.426
2014   10       10    22  24    5.83   476.7    6.1      50.410
2014   10       10    22  30    5.82   476.8    6.1      50.394
2014   10       10    22  35    5.82   476.9    6.1      50.377
2014   10       10    22  40    5.81   476.9    6.0      50.360
2014   10       10    22  46    5.81   477.0    6.0      50.343
2014   10       10    22  51    5.81   477.1    6.0      50.325
2014   10       10    22  57    5.80   477.1    6.0      50.307
2014   10       10    23   2    5.80   477.2    6.0      50.289
2014   10       10    23   7    5.79   477.3    6.0      50.271
2014   10       10    23  13    5.79   477.3    6.0      50.252
2014   10       10    23  18    5.78   477.4    6.0      50.233
2014   10       10    23  24    5.78   477.5    6.0      50.214
2014   10       10    23  29    5.78   477.5    6.0      50.195
2014   10       10    23  34    5.77   477.6    6.0      50.176
2014   10       10    23  40    5.77   477.6    6.0      50.156
2014   10       10    23  45    5.76   477.7    6.0      50.136
2014   10       10    23  51    5.76   477.8    6.0      50.116
2014   10       10    23  56    5.76   477.8    6.0      50.096
2014   10       11     0   1    5.75   477.9    6.0      50.075
2014   10       11     0   7    5.75   477.9    5.9      50.055
2014   10       11     0  12    5.74   478.0    5.9      50.034
2014   10       11     0  17    5.74   478.0    5.9      50.013
2014   10       11     0  23    5.74   478.1    5.9      49.992
2014   10       11     0  28    5.73   478.1    5.9      49.971
2014   10       11     0  34    5.73   478.2    5.9      49.950
2014   10       11     0  39    5.72   478.2    5.9      49.929
2014   10       11     0  44    5.72   478.3    5.9      49.908
2014   10       11     0  50    5.72   478.3    5.9      49.887
2014   10       11     0  55    5.71   478.4    5.9      49.865
2014   10       11     1   1    5.71   478.4    5.9      49.844
2014   10       11     1   6    5.70   478.5    5.9      49.823
2014   10       11     1  11    5.70   478.5    5.9      49.802
2014   10       11     1  17    5.70   478.5    5.9      49.781
2014   10       11     1  22    5.69   478.6    5.9      49.760
2014   10       11     1  28    5.69   478.6    5.9      49.738
2014   10       11     1  33    5.69   478.7    5.9      49.717
2014   10       11     1  38    5.68   478.7    5.8      49.695
2014   10       11     1  44    5.68   478.7    5.8      49.674
2014   10       11     1  49    5.67   478.8    5.8      49.652
2014   10       11     1  54    5.67   478.8    5.8      49.630
2014   10       11     2   0    5.67   478.8    5.8      49.608
2014   10       11     2   5    5.66   478.9    5.8      49.586
2014   10       11     2  11    5.66   478.9    5.8      49.564
2014   10       11     2  16    5.66   479.0    5.8      49.541
2014   10       11     2  21    5.65   479.0    5.8      49.519
2014   10       11     2  27    5.65   479.0    5.8      49.496
2014   10       11     2  32    5.65   479.0    5.8      49.473
2014   10       11     2  38    5.64   479.1    5.8      49.450
2014   10       11     2  43    5.64   479.1    5.8      49.426
2014   10       11     2  48    5.63   479.1    5.8      49.403
2014   10       11     2  54    5.63   479.2    5.8      49.379
2014   10       11     2  59    5.63   479.2    5.8      49.355
2014   10       11     3   5    5.62   479.2    5.8      49.331
2014   10       11     3  10    5.62   479.2    5.8      49.307
2014   10       11     3  15    5.62   479.2    5.8      49.283
2014   10       11     3  21    5.61   479.3    5.8      49.259
2014   10       11     3  26    5.61   479.3    5.8      49.235
2014   10       11     3  32    5.61   479.3    5.8      49.211
2014   10       11     3  37    5.60   479.3    5.8      49.186
2014   10       11     3  42    5.60   479.3    5.7      49.162
2014   10       11     3  48    5.59   479.4    5.7      49.137
2014   10       11     3  53    5.59   479.4    5.7      49.113
2014   10       11     3  58    5.59   479.4    5.7      49.088
2014   10       11     4   4    5.58   479.4    5.7      49.064
2014   10       11     4   9    5.58   479.4    5.7      49.039
2014   10       11     4  15    5.58   479.4    5.7      49.014
2014   10       11     4  20    5.57   479.4    5.7      48.989
2014   10       11     4  25    5.57   479.4    5.7      48.964
2014   10       11     4  31    5.57   479.4    5.7      48.939
2014   10       11     4  36    5.56   479.5    5.7      48.914
2014   10       11     4  42    5.56   479.5    5.7      48.889
2014   10       11     4  47    5.55   479.5    5.7      48.864
2014   10       11     4  52    5.55   479.5    5.7      48.839
2014   10       11     4  58    5.55   479.5    5.7      48.814
2014   10       11     5   3    5.54   479.5    5.7      48.789
2014   10       11     5   9    5.54   479.5    5.7      48.764
2014   10       11     5  14    5.54   479.5    5.7      48.738
2014   10       11     5  19    5.53   479.5    5.7      48.713
2014   10       11     5  25    5.53   479.5    5.7      48.687
2014   10       11     5  30    5.53   479.5    5.7      48.661
2014   10       11     5  36    5.52   479.5    5.7      48.636
2014   10       11     5  41    5.52   479.5    5.7      48.610
2014   10       11     5  46    5.52   479.5    5.7      48.584
2014   10       11     5  52    5.51   479.5    5.7      48.558
2014   10       11     5  57    5.51   479.5    5.7      48.532
2014   10       11     6   2    5.51   479.5    5.7      48.505
2014   10       11     6   8    5.50   479.5    5.6      48.479
2014   10       11     6  13    5.50   479.5    5.6      48.452
2014   10       11     6  19    5.49   479.5    5.6      48.426
2014   10       11     6  24    5.49   479.5    5.6      48.399
2014   10       11     6  29    5.49   479.5    5.6      48.372
2014   10       11     6  35    5.48   479.4    5.6      48.345
2014   10       11     6  40    5.48   479.4    5.6      48.317
2014   10       11     6  46    5.48   479.4    5.6      48.290
2014   10       11     6  51    5.47   479.4    5.6      48.263
2014   10       11     6  56    5.47   479.4    5.6      48.235
2014   10       11     7   2    5.47   479.4    5.6      48.208
2014   10       11     7   7    5.46   479.4    5.6      48.180
2014   10       11     7  13    5.46   479.4    5.6      48.152
2014   10       11     7  18    5.46   479.4    5.6      48.124
2014   10       11     7  23    5.45   479.3    5.6      48.097
2014   10       11     7  29    5.45   479.3    5.6      48.069
2014   10       11     7  34    5.45   479.3    5.6      48.041
2014   10       11     7  40    5.44   479.3    5.6      48.013
2014   10       11     7  45    5.44   479.3    5.6      47.984
2014   10       11     7  50    5.44   479.3    5.6      47.956
2014   10       11     7  56    5.43   479.2    5.6      47.928
2014   10       11     8   1    5.43   479.2    5.6      47.900
2014   10       11     8   6    5.43   479.2    5.6      47.871
2014   10       11     8  12    5.42   479.2    5.6      47.843
2014   10       11     8  17    5.42   479.2    5.6      47.814
2014   10       11     8  23    5.42   479.1    5.6      47.786
2014   10       11     8  28    5.41   479.1    5.5      47.757
2014   10       11     8  33    5.41   479.1    5.5      47.729
2014   10       11     8  39    5.41   479.1    5.5      47.700
2014   10       11     8  44    5.40   479.1    5.5      47.671
2014   10       11     8  50    5.40   479.0    5.5      47.643
2014   10       11     8  55    5.40   479.0    5.5      47.614
2014   10       11     9   0    5.39   479.0    5.5      47.585
2014   10       11     9   6    5.39   479.0    5.5      47.556
2014   10       11     9  11    5.39   479.0    5.5      47.528
2014   10       11     9  17    5.38   478.9    5.5      47.498
2014   10       11     9  22    5.38   478.9    5.5      47.469
2014   10       11     9  27    5.38   478.9    5.5      47.440
2014   10       11     9  33    5.37   478.9    5.5      47.411
2014   10       11     9  38    5.37   478.8    5.5      47.382
2014   10       11     9  44    5.37   478.8    5.5      47.353
2014   10       11     9  49    5.37   478.8    5.5      47.324
2014   10       11     9  54    5.36   478.8    5.5      47.294
2014   10       11    10   0    5.36   478.7    5.5      47.265
2014   10       11    10   5    5.36   478.7    5.5      47.236
2014   10       11    10  10    5.35   478.7    5.5      47.207
2014   10       11    10  16    5.35   478.6    5.5      47.177
2014   10       11    10  21    5.35   478.6    5.5      47.148
2014   10       11    10  27    5.34   478.6    5.5      47.118
2014   10       11    10  32    5.34   478.5    5.5      47.089
2014   10       11    10  37    5.34   478.5    5.5      47.060
2014   10       11    10  43    5.33   478.5    5.5      47.030
2014   10       11    10  48    5.33   478.4    5.5      47.001
2014   10       11    10  54    5.33   478.4    5.5      46.971
2014   10       11    10  59    5.32   478.4    5.5      46.942
2014   10       11    11   4    5.32   478.3    5.5      46.912
2014   10       11    11  10    5.32   478.3    5.5      46.883
2014   10       11    11  15    5.32   478.2    5.4      46.853
2014   10       11    11  21    5.31   478.2    5.4      46.824
2014   10       11    11  26    5.31   478.2    5.4      46.795
2014   10       11    11  31    5.31   478.1    5.4      46.765
2014   10       11    11  37    5.30   478.1    5.4      46.736
2014   10       11    11  42    5.30   478.0    5.4      46.707
2014   10       11    11  47    5.30   478.0    5.4      46.678
2014   10       11    11  53    5.30   478.0    5.4      46.650
2014   10       11    11  58    5.29   477.9    5.4      46.621
2014   10       11    12   4    5.29   477.9    5.4      46.593
2014   10       11    12   9    5.29   477.8    5.4      46.565
2014   10       11    12  14    5.28   477.8    5.4      46.537
2014   10       11    12  20    5.28   477.7    5.4      46.510
2014   10       11    12  25    5.28   477.7    5.4      46.482
2014   10       11    12  31    5.28   477.6    5.4      46.455
2014   10       11    12  36    5.27   477.6    5.4      46.428
2014   10       11    12  41    5.27   477.5    5.4      46.402
2014   10       11    12  47    5.27   477.5    5.4      46.376
2014   10       11    12  52    5.26   477.4    5.4      46.350
2014   10       11    12  58    5.26   477.4    5.4      46.325
2014   10       11    13   3    5.26   477.3    5.4      46.300
2014   10       11    13   8    5.26   477.3    5.4      46.275
2014   10       11    13  14    5.25   477.2    5.4      46.250
2014   10       11    13  19    5.25   477.2    5.4      46.226
2014   10       11    13  25    5.25   477.1    5.4      46.202
2014   10       11    13  30    5.25   477.1    5.4      46.179
2014   10       11    13  35    5.24   477.0    5.4      46.155
2014   10       11    13  41    5.24   477.0    5.4      46.132
2014   10       11    13  46    5.24   476.9    5.4      46.109
2014   10       11    13  52    5.24   476.8    5.4      46.087
2014   10       11    13  57    5.23   476.8    5.4      46.064
2014   10       11    14   2    5.23   476.7    5.4      46.042
2014   10       11    14   8    5.23   476.7    5.4      46.020
2014   10       11    14  13    5.23   476.6    5.4      45.998
2014   10       11    14  18    5.22   476.6    5.4      45.976
2014   10       11    14  24    5.22   476.5    5.4      45.954
2014   10       11    14  29    5.22   476.4    5.4      45.932
2014   10       11    14  35    5.22   476.4    5.4      45.911
2014   10       11    14  40    5.21   476.3    5.4      45.889
2014   10       11    14  45    5.21   476.3    5.4      45.868
2014   10       11    14  51    5.21   476.2    5.4      45.846
2014   10       11    14  56    5.21   476.1    5.4      45.824
2014   10       11    15   2    5.20   476.1    5.4      45.802
2014   10       11    15   7    5.20   476.0    5.4      45.780
2014   10       11    15  12    5.20   476.0    5.4      45.758
2014   10       11    15  18    5.20   475.9    5.4      45.735
2014   10       11    15  23    5.19   475.8    5.4      45.712
2014   10       11    15  29    5.19   475.8    5.4      45.689
2014   10       11    15  34    5.19   475.7    5.4      45.666
2014   10       11    15  39    5.19   475.7    5.4      45.643
2014   10       11    15  45    5.18   475.6    5.4      45.619
2014   10       11    15  50    5.18   475.5    5.4      45.596
2014   10       11    15  56    5.18   475.5    5.4      45.572
2014   10       11    16   1    5.18   475.4    5.4      45.547
2014   10       11    16   6    5.17   475.3    5.4      45.523
2014   10       11    16  12    5.17   475.3    5.4      45.498
2014   10       11    16  17    5.17   475.2    5.4      45.473
2014   10       11    16  22    5.17   475.2    5.4      45.448
2014   10       11    16  28    5.16   475.1    5.4      45.422
2014   10       11    16  33    5.16   475.0    5.4      45.396
2014   10       11    16  39    5.16   475.0    5.4      45.370
2014   10       11    16  44    5.16   474.9    5.4      45.344
2014   10       11    16  49    5.15   474.8    5.4      45.317
2014   10       11    16  55    5.15   474.8    5.4      45.291
2014   10       11    17   0    5.15   474.7    5.4      45.264
2014   10       11    17   6    5.15   474.7    5.4      45.236
2014   10       11    17  11    5.14   474.6    5.4      45.209
2014   10       11    17  16    5.14   474.5    5.3      45.182
2014   10       11    17  22    5.14   474.5    5.3      45.154
2014   10       11    17  27    5.14   474.4    5.3      45.126
2014   10       11    17  33    5.13   474.3    5.3      45.098
2014   10       11    17  38    5.13   474.3    5.3      45.070
2014   10       11    17  43    5.13   474.2    5.3      45.042
2014   10       11    17  49    5.13   474.1    5.3      45.014
2014   10       11    17  54    5.12   474.1    5.3      44.985
2014   10       11    17  59    5.12   474.0    5.3      44.956
2014   10       11    18   5    5.12   473.9    5.3      44.928
2014   10       11    18  10    5.12   473.9    5.3      44.899
2014   10       11    18  16    5.11   473.8    5.3      44.870
2014   10       11    18  21    5.11   473.7    5.3      44.841
2014   10       11    18  26    5.11   473.7    5.3      44.811
2014   10       11    18  32    5.11   473.6    5.3      44.782
2014   10       11    18  37    5.11   473.5    5.3      44.753
2014   10       11    18  43    5.10   473.5    5.3      44.723
2014   10       11    18  48    5.10   473.4    5.3      44.694
2014   10       11    18  53    5.10   473.3    5.3      44.664
2014   10       11    18  59    5.10   473.2    5.3      44.634
2014   10       11    19   4    5.09   473.2    5.3      44.605
2014   10       11    19  10    5.09   473.1    5.3      44.575
2014   10       11    19  15    5.09   473.0    5.3      44.546
2014   10       11    19  20    5.09   472.9    5.3      44.517
2014   10       11    19  26    5.08   472.9    5.3      44.487
2014   10       11    19  31    5.08   472.8    5.3      44.458
2014   10       11    19  37    5.08   472.7    5.3      44.429
2014   10       11    19  42    5.08   472.6    5.3      44.401
2014   10       11    19  47    5.08   472.6    5.3      44.372
2014   10       11    19  53    5.07   472.5    5.3      44.344
2014   10       11    19  58    5.07   472.4    5.3      44.316
2014   10       11    20   3    5.07   472.3    5.3      44.288
2014   10       11    20   9    5.07   472.2    5.3      44.261
2014   10       11    20  14    5.06   472.2    5.3      44.234
2014   10       11    20  20    5.06   472.1    5.3      44.207
2014   10       11    20  25    5.06   472.0    5.3      44.181
2014   10       11    20  30    5.06   471.9    5.3      44.155
2014   10       11    20  36    5.06   471.8    5.3      44.130
2014   10       11    20  41    5.05   471.8    5.3      44.104
2014   10       11    20  47    5.05   471.7    5.3      44.080
2014   10       11    20  52    5.05   471.6    5.3      44.055
2014   10       11    20  57    5.05   471.5    5.3      44.032
2014   10       11    21   3    5.05   471.4    5.3      44.008
2014   10       11    21   8    5.04   471.4    5.3      43.985
2014   10       11    21  14    5.04   471.3    5.3      43.962
2014   10       11    21  19    5.04   471.2    5.3      43.940
2014   10       11    21  24    5.04   471.1    5.3      43.918
2014   10       11    21  30    5.04   471.0    5.3      43.896
2014   10       11    21  35    5.04   471.0    5.3      43.875
2014   10       11    21  41    5.03   470.9    5.3      43.854
2014   10       11    21  46    5.03   470.8    5.3      43.833
2014   10       11    21  51    5.03   470.7    5.3      43.813
2014   10       11    21  57    5.03   470.6    5.3      43.792
2014   10       11    22   2    5.03   470.6    5.3      43.772
2014   10       11    22   7    5.02   470.5    5.3      43.752
2014   10       11    22  13    5.02   470.4    5.3      43.732
2014   10       11    22  18    5.02   470.3    5.3      43.712
2014   10       11    22  24    5.02   470.2    5.3      43.692
2014   10       11    22  29    5.02   470.1    5.3      43.672
2014   10       11    22  34    5.02   470.1    5.3      43.653
2014   10       11    22  40    5.01   470.0    5.3      43.633
2014   10       11    22  45    5.01   469.9    5.3      43.612
2014   10       11    22  51    5.01   469.8    5.3      43.593
2014   10       11    22  56    5.01   469.7    5.3      43.572
2014   10       11    23   1    5.01   469.6    5.3      43.552
2014   10       11    23   7    5.00   469.5    5.3      43.531
2014   10       11    23  12    5.00   469.5    5.3      43.510
2014   10       11    23  18    5.00   469.4    5.3      43.489
2014   10       11    23  23    5.00   469.3    5.3      43.468
2014   10       11    23  28    5.00   469.2    5.3      43.447
2014   10       11    23  34    4.99   469.1    5.3      43.425
2014   10       11    23  39    4.99   469.0    5.3      43.403
2014   10       11    23  45    4.99   468.9    5.3      43.381
2014   10       11    23  50    4.99   468.8    5.3      43.359
2014   10       11    23  55    4.99   468.8    5.3      43.337
2014   10       12     0   1    4.99   468.7    5.3      43.314
