year    month   day   hour  minute  B_enl V_enl   n_enl       T_enl
[year] [month] [day] [hour][minute] [nT]  [km/s]  [cm-3]      [kK]
2015    2        7     0   4    7.1369   489.0    6.125      53.159
2015    2        7     0   9    7.1349   489.1    6.119      53.174
2015    2        7     0  14    7.1329   489.3    6.114      53.189
2015    2        7     0  20    7.1306   489.4    6.108      53.204
2015    2        7     0  25    7.1286   489.6    6.103      53.219
2015    2        7     0  30    7.1268   489.7    6.098      53.234
2015    2        7     0  35    7.1245   489.9    6.092      53.249
2015    2        7     0  40    7.1224   490.0    6.087      53.264
2015    2        7     0  46    7.1203   490.2    6.082      53.279
2015    2        7     0  51    7.1185   490.3    6.077      53.293
2015    2        7     0  56    7.1163   490.4    6.072      53.308
2015    2        7     1   1    7.1142   490.6    6.067      53.323
2015    2        7     1   7    7.1120   490.7    6.063      53.338
2015    2        7     1  12    7.1095   490.9    6.058      53.352
2015    2        7     1  17    7.1073   491.0    6.053      53.368
2015    2        7     1  22    7.1054   491.2    6.048      53.383
2015    2        7     1  27    7.1028   491.3    6.043      53.399
2015    2        7     1  33    7.1008   491.4    6.039      53.415
2015    2        7     1  38    7.0985   491.6    6.034      53.431
2015    2        7     1  43    7.0962   491.7    6.029      53.448
2015    2        7     1  48    7.0939   491.9    6.024      53.465
2015    2        7     1  54    7.0915   492.0    6.019      53.482
2015    2        7     1  59    7.0891   492.1    6.014      53.498
2015    2        7     2   4    7.0867   492.3    6.009      53.515
2015    2        7     2   9    7.0840   492.4    6.004      53.532
2015    2        7     2  14    7.0816   492.5    5.999      53.548
2015    2        7     2  20    7.0793   492.7    5.994      53.565
2015    2        7     2  25    7.0769   492.8    5.988      53.581
2015    2        7     2  30    7.0743   492.9    5.983      53.597
2015    2        7     2  35    7.0718   493.1    5.978      53.613
2015    2        7     2  41    7.0692   493.2    5.972      53.629
2015    2        7     2  46    7.0667   493.3    5.967      53.644
2015    2        7     2  51    7.0641   493.4    5.961      53.659
2015    2        7     2  56    7.0615   493.6    5.956      53.673
2015    2        7     3   1    7.0586   493.7    5.950      53.688
2015    2        7     3   7    7.0562   493.8    5.944      53.702
2015    2        7     3  12    7.0534   494.0    5.939      53.715
2015    2        7     3  17    7.0509   494.1    5.933      53.728
2015    2        7     3  22    7.0480   494.2    5.927      53.741
2015    2        7     3  27    7.0456   494.3    5.922      53.754
2015    2        7     3  33    7.0427   494.5    5.916      53.766
2015    2        7     3  38    7.0402   494.6    5.910      53.778
2015    2        7     3  43    7.0374   494.7    5.904      53.789
2015    2        7     3  48    7.0347   494.8    5.898      53.801
2015    2        7     3  54    7.0320   495.0    5.892      53.812
2015    2        7     3  59    7.0293   495.1    5.886      53.822
2015    2        7     4   4    7.0265   495.2    5.881      53.833
2015    2        7     4   9    7.0236   495.3    5.875      53.843
2015    2        7     4  14    7.0210   495.4    5.869      53.852
2015    2        7     4  20    7.0182   495.6    5.863      53.862
2015    2        7     4  25    7.0154   495.7    5.857      53.871
2015    2        7     4  30    7.0125   495.8    5.851      53.880
2015    2        7     4  35    7.0098   495.9    5.845      53.888
2015    2        7     4  41    7.0069   496.0    5.839      53.897
2015    2        7     4  46    7.0042   496.1    5.833      53.905
2015    2        7     4  51    7.0013   496.3    5.827      53.912
2015    2        7     4  56    6.9985   496.4    5.821      53.920
2015    2        7     5   1    6.9957   496.5    5.815      53.927
2015    2        7     5   7    6.9929   496.6    5.809      53.934
2015    2        7     5  12    6.9902   496.7    5.803      53.940
2015    2        7     5  17    6.9874   496.8    5.798      53.947
2015    2        7     5  22    6.9845   496.9    5.792      53.953
2015    2        7     5  28    6.9818   497.0    5.786      53.959
2015    2        7     5  33    6.9790   497.1    5.781      53.965
2015    2        7     5  38    6.9763   497.2    5.775      53.970
2015    2        7     5  43    6.9735   497.3    5.769      53.976
2015    2        7     5  48    6.9707   497.4    5.764      53.981
2015    2        7     5  54    6.9680   497.5    5.759      53.986
2015    2        7     5  59    6.9652   497.6    5.753      53.991
2015    2        7     6   4    6.9625   497.7    5.748      53.996
2015    2        7     6   9    6.9598   497.8    5.743      54.001
2015    2        7     6  15    6.9571   497.9    5.738      54.006
2015    2        7     6  20    6.9544   498.0    5.733      54.011
2015    2        7     6  25    6.9517   498.1    5.728      54.015
2015    2        7     6  30    6.9490   498.2    5.723      54.020
2015    2        7     6  35    6.9463   498.3    5.719      54.024
2015    2        7     6  41    6.9437   498.4    5.714      54.028
2015    2        7     6  46    6.9410   498.5    5.710      54.033
2015    2        7     6  51    6.9384   498.6    5.705      54.037
2015    2        7     6  56    6.9358   498.6    5.701      54.041
2015    2        7     7   1    6.9332   498.7    5.697      54.045
2015    2        7     7   7    6.9306   498.8    5.693      54.049
2015    2        7     7  12    6.9280   498.9    5.689      54.053
2015    2        7     7  17    6.9254   499.0    5.685      54.057
2015    2        7     7  22    6.9228   499.1    5.681      54.060
2015    2        7     7  28    6.9203   499.2    5.677      54.064
2015    2        7     7  33    6.9177   499.3    5.673      54.068
2015    2        7     7  38    6.9152   499.3    5.670      54.072
2015    2        7     7  43    6.9126   499.4    5.666      54.076
2015    2        7     7  48    6.9101   499.5    5.663      54.080
2015    2        7     7  54    6.9076   499.6    5.659      54.084
2015    2        7     7  59    6.9051   499.7    5.656      54.089
2015    2        7     8   4    6.9027   499.7    5.653      54.093
2015    2        7     8   9    6.9002   499.8    5.650      54.098
2015    2        7     8  15    6.8978   499.9    5.647      54.103
2015    2        7     8  20    6.8953   500.0    5.644      54.108
2015    2        7     8  25    6.8929   500.0    5.641      54.113
2015    2        7     8  30    6.8905   500.1    5.638      54.119
2015    2        7     8  35    6.8882   500.2    5.635      54.124
2015    2        7     8  41    6.8858   500.3    5.632      54.130
2015    2        7     8  46    6.8835   500.4    5.629      54.136
2015    2        7     8  51    6.8811   500.4    5.627      54.143
2015    2        7     8  56    6.8788   500.5    5.624      54.150
2015    2        7     9   2    6.8765   500.6    5.621      54.157
2015    2        7     9   7    6.8742   500.7    5.619      54.165
2015    2        7     9  12    6.8719   500.7    5.616      54.173
2015    2        7     9  17    6.8696   500.8    5.613      54.183
2015    2        7     9  22    6.8674   500.9    5.611      54.192
2015    2        7     9  28    6.8651   501.0    5.608      54.202
2015    2        7     9  33    6.8628   501.0    5.605      54.212
2015    2        7     9  38    6.8606   501.1    5.602      54.222
2015    2        7     9  43    6.8584   501.2    5.600      54.233
2015    2        7     9  48    6.8562   501.2    5.597      54.243
2015    2        7     9  54    6.8540   501.3    5.594      54.254
2015    2        7     9  59    6.8518   501.4    5.591      54.264
2015    2        7    10   4    6.8496   501.5    5.588      54.275
2015    2        7    10   9    6.8474   501.5    5.585      54.285
2015    2        7    10  15    6.8452   501.6    5.582      54.295
2015    2        7    10  20    6.8431   501.7    5.579      54.306
2015    2        7    10  25    6.8409   501.8    5.576      54.316
2015    2        7    10  30    6.8388   501.8    5.573      54.325
2015    2        7    10  35    6.8367   501.9    5.569      54.334
2015    2        7    10  41    6.8346   502.0    5.566      54.344
2015    2        7    10  46    6.8325   502.0    5.563      54.353
2015    2        7    10  51    6.8304   502.1    5.560      54.361
2015    2        7    10  56    6.8284   502.2    5.557      54.370
2015    2        7    11   2    6.8263   502.3    5.553      54.379
2015    2        7    11   7    6.8243   502.3    5.550      54.387
2015    2        7    11  12    6.8221   502.4    5.547      54.395
2015    2        7    11  17    6.8201   502.5    5.544      54.403
2015    2        7    11  22    6.8182   502.6    5.541      54.411
2015    2        7    11  28    6.8160   502.6    5.537      54.419
2015    2        7    11  33    6.8140   502.7    5.534      54.426
2015    2        7    11  38    6.8119   502.8    5.531      54.434
2015    2        7    11  43    6.8100   502.8    5.528      54.441
2015    2        7    11  49    6.8079   502.9    5.524      54.449
2015    2        7    11  54    6.8058   503.0    5.521      54.456
2015    2        7    11  59    6.8037   503.1    5.518      54.464
2015    2        7    12   4    6.8017   503.1    5.515      54.471
2015    2        7    12   9    6.7997   503.2    5.512      54.478
2015    2        7    12  15    6.7976   503.3    5.508      54.486
2015    2        7    12  20    6.7956   503.3    5.505      54.493
2015    2        7    12  25    6.7935   503.4    5.502      54.500
2015    2        7    12  30    6.7913   503.5    5.499      54.507
2015    2        7    12  35    6.7893   503.6    5.495      54.513
2015    2        7    12  41    6.7872   503.6    5.492      54.520
2015    2        7    12  46    6.7851   503.7    5.489      54.526
2015    2        7    12  51    6.7831   503.8    5.486      54.533
2015    2        7    12  56    6.7810   503.8    5.482      54.539
2015    2        7    13   2    6.7789   503.9    5.479      54.545
2015    2        7    13   7    6.7767   504.0    5.476      54.551
2015    2        7    13  12    6.7747   504.0    5.472      54.556
2015    2        7    13  17    6.7725   504.1    5.469      54.562
2015    2        7    13  22    6.7705   504.2    5.466      54.567
2015    2        7    13  28    6.7683   504.2    5.463      54.572
2015    2        7    13  33    6.7663   504.3    5.459      54.577
2015    2        7    13  38    6.7641   504.4    5.456      54.582
2015    2        7    13  43    6.7620   504.4    5.453      54.586
2015    2        7    13  49    6.7599   504.5    5.450      54.590
2015    2        7    13  54    6.7578   504.5    5.446      54.594
2015    2        7    13  59    6.7556   504.6    5.443      54.598
2015    2        7    14   4    6.7535   504.7    5.440      54.602
2015    2        7    14   9    6.7514   504.7    5.437      54.605
2015    2        7    14  15    6.7493   504.8    5.433      54.608
2015    2        7    14  20    6.7471   504.9    5.430      54.611
2015    2        7    14  25    6.7450   504.9    5.427      54.613
2015    2        7    14  30    6.7428   505.0    5.424      54.616
2015    2        7    14  36    6.7408   505.0    5.421      54.618
2015    2        7    14  41    6.7386   505.1    5.417      54.620
2015    2        7    14  46    6.7365   505.1    5.414      54.623
2015    2        7    14  51    6.7344   505.2    5.411      54.625
2015    2        7    14  56    6.7322   505.3    5.408      54.627
2015    2        7    15   2    6.7302   505.3    5.405      54.629
2015    2        7    15   7    6.7281   505.4    5.402      54.631
2015    2        7    15  12    6.7260   505.4    5.399      54.633
2015    2        7    15  17    6.7239   505.5    5.397      54.635
2015    2        7    15  23    6.7219   505.5    5.394      54.637
2015    2        7    15  28    6.7199   505.6    5.391      54.639
2015    2        7    15  33    6.7178   505.6    5.388      54.642
2015    2        7    15  38    6.7159   505.7    5.386      54.644
2015    2        7    15  43    6.7138   505.7    5.383      54.647
2015    2        7    15  49    6.7119   505.8    5.381      54.650
2015    2        7    15  54    6.7099   505.9    5.378      54.654
2015    2        7    15  59    6.7080   505.9    5.376      54.657
2015    2        7    16   4    6.7061   506.0    5.374      54.661
2015    2        7    16   9    6.7042   506.0    5.371      54.665
2015    2        7    16  15    6.7023   506.1    5.369      54.670
2015    2        7    16  20    6.7005   506.1    5.367      54.675
2015    2        7    16  25    6.6986   506.2    5.365      54.680
2015    2        7    16  30    6.6968   506.2    5.363      54.686
2015    2        7    16  36    6.6951   506.3    5.361      54.692
2015    2        7    16  41    6.6932   506.3    5.359      54.699
2015    2        7    16  46    6.6915   506.4    5.357      54.705
2015    2        7    16  51    6.6898   506.4    5.355      54.712
2015    2        7    16  56    6.6881   506.5    5.353      54.718
2015    2        7    17   2    6.6864   506.5    5.351      54.725
2015    2        7    17   7    6.6846   506.6    5.349      54.732
2015    2        7    17  12    6.6829   506.6    5.347      54.738
2015    2        7    17  17    6.6812   506.7    5.344      54.745
2015    2        7    17  23    6.6795   506.8    5.342      54.752
2015    2        7    17  28    6.6778   506.8    5.340      54.758
2015    2        7    17  33    6.6761   506.9    5.338      54.764
2015    2        7    17  38    6.6745   506.9    5.336      54.770
2015    2        7    17  43    6.6728   507.0    5.333      54.776
2015    2        7    17  49    6.6711   507.0    5.331      54.782
2015    2        7    17  54    6.6693   507.1    5.329      54.788
2015    2        7    17  59    6.6677   507.1    5.327      54.794
2015    2        7    18   4    6.6659   507.2    5.324      54.799
2015    2        7    18  10    6.6643   507.2    5.322      54.805
2015    2        7    18  15    6.6625   507.3    5.320      54.812
2015    2        7    18  20    6.6608   507.3    5.318      54.818
2015    2        7    18  25    6.6591   507.4    5.315      54.824
2015    2        7    18  30    6.6573   507.4    5.313      54.831
2015    2        7    18  36    6.6556   507.5    5.310      54.837
2015    2        7    18  41    6.6539   507.6    5.308      54.843
2015    2        7    18  46    6.6521   507.6    5.305      54.850
2015    2        7    18  51    6.6503   507.7    5.303      54.856
2015    2        7    18  56    6.6485   507.7    5.300      54.862
2015    2        7    19   2    6.6467   507.8    5.298      54.867
2015    2        7    19   7    6.6448   507.8    5.295      54.873
2015    2        7    19  12    6.6430   507.9    5.292      54.878
2015    2        7    19  17    6.6412   507.9    5.290      54.884
2015    2        7    19  23    6.6394   508.0    5.287      54.888
2015    2        7    19  28    6.6375   508.0    5.284      54.893
2015    2        7    19  33    6.6357   508.1    5.282      54.897
2015    2        7    19  38    6.6337   508.1    5.279      54.901
2015    2        7    19  43    6.6319   508.2    5.276      54.904
2015    2        7    19  49    6.6300   508.2    5.273      54.907
2015    2        7    19  54    6.6282   508.3    5.270      54.910
2015    2        7    19  59    6.6263   508.3    5.267      54.913
2015    2        7    20   4    6.6245   508.4    5.265      54.915
2015    2        7    20  10    6.6226   508.4    5.262      54.917
2015    2        7    20  15    6.6207   508.5    5.259      54.919
2015    2        7    20  20    6.6188   508.5    5.256      54.921
2015    2        7    20  25    6.6170   508.5    5.253      54.922
2015    2        7    20  30    6.6151   508.6    5.250      54.924
2015    2        7    20  36    6.6132   508.6    5.247      54.925
2015    2        7    20  41    6.6114   508.7    5.244      54.926
2015    2        7    20  46    6.6096   508.7    5.241      54.927
2015    2        7    20  51    6.6077   508.8    5.239      54.928
2015    2        7    20  57    6.6058   508.8    5.236      54.928
2015    2        7    21   2    6.6040   508.8    5.233      54.929
2015    2        7    21   7    6.6021   508.9    5.230      54.929
2015    2        7    21  12    6.6003   508.9    5.227      54.929
2015    2        7    21  17    6.5984   509.0    5.224      54.929
2015    2        7    21  23    6.5966   509.0    5.222      54.929
2015    2        7    21  28    6.5948   509.0    5.219      54.929
2015    2        7    21  33    6.5929   509.1    5.216      54.929
2015    2        7    21  38    6.5911   509.1    5.214      54.929
2015    2        7    21  44    6.5893   509.1    5.211      54.929
2015    2        7    21  49    6.5875   509.2    5.208      54.929
2015    2        7    21  54    6.5857   509.2    5.206      54.928
2015    2        7    21  59    6.5839   509.2    5.203      54.928
2015    2        7    22   4    6.5821   509.3    5.201      54.928
2015    2        7    22  10    6.5804   509.3    5.198      54.928
2015    2        7    22  15    6.5786   509.3    5.196      54.927
2015    2        7    22  20    6.5768   509.4    5.194      54.927
2015    2        7    22  25    6.5751   509.4    5.192      54.927
2015    2        7    22  30    6.5733   509.4    5.189      54.927
2015    2        7    22  36    6.5716   509.5    5.187      54.927
2015    2        7    22  41    6.5698   509.5    5.185      54.927
2015    2        7    22  46    6.5682   509.5    5.183      54.927
2015    2        7    22  51    6.5664   509.5    5.181      54.928
2015    2        7    22  57    6.5648   509.6    5.179      54.928
2015    2        7    23   2    6.5631   509.6    5.177      54.929
2015    2        7    23   7    6.5614   509.6    5.175      54.930
2015    2        7    23  12    6.5598   509.7    5.173      54.931
2015    2        7    23  17    6.5582   509.7    5.171      54.932
2015    2        7    23  23    6.5565   509.7    5.169      54.933
2015    2        7    23  28    6.5549   509.7    5.167      54.935
2015    2        7    23  33    6.5533   509.8    5.165      54.936
2015    2        7    23  38    6.5517   509.8    5.163      54.938
2015    2        7    23  44    6.5501   509.8    5.162      54.939
2015    2        7    23  49    6.5486   509.8    5.160      54.941
2015    2        7    23  54    6.5470   509.9    5.158      54.943
2015    2        7    23  59    6.5455   509.9    5.156      54.945
2015    2        8     0   4    6.5440   509.9    5.155      54.947
2015    2        8     0  10    6.5425   509.9    5.153      54.950
2015    2        8     0  15    6.5410   510.0    5.151      54.953
2015    2        8     0  20    6.5396   510.0    5.149      54.956
2015    2        8     0  25    6.5381   510.0    5.148      54.958
2015    2        8     0  31    6.5367   510.1    5.146      54.961
2015    2        8     0  36    6.5353   510.1    5.144      54.963
2015    2        8     0  41    6.5338   510.1    5.142      54.966
2015    2        8     0  46    6.5324   510.1    5.140      54.968
2015    2        8     0  51    6.5310   510.2    5.138      54.969
2015    2        8     0  57    6.5296   510.2    5.136      54.971
2015    2        8     1   2    6.5281   510.2    5.135      54.973
2015    2        8     1   7    6.5267   510.2    5.133      54.974
2015    2        8     1  12    6.5252   510.3    5.130      54.975
2015    2        8     1  17    6.5238   510.3    5.128      54.975
2015    2        8     1  23    6.5224   510.3    5.126      54.975
2015    2        8     1  28    6.5209   510.4    5.124      54.975
2015    2        8     1  33    6.5195   510.4    5.122      54.974
2015    2        8     1  38    6.5180   510.4    5.120      54.973
2015    2        8     1  44    6.5166   510.4    5.118      54.972
2015    2        8     1  49    6.5151   510.5    5.116      54.971
2015    2        8     1  54    6.5137   510.5    5.114      54.969
2015    2        8     1  59    6.5122   510.5    5.111      54.967
2015    2        8     2   4    6.5108   510.5    5.109      54.965
2015    2        8     2  10    6.5094   510.5    5.107      54.964
2015    2        8     2  15    6.5079   510.6    5.105      54.962
2015    2        8     2  20    6.5065   510.6    5.103      54.960
2015    2        8     2  25    6.5051   510.6    5.101      54.958
2015    2        8     2  31    6.5038   510.6    5.099      54.956
2015    2        8     2  36    6.5024   510.7    5.097      54.954
2015    2        8     2  41    6.5011   510.7    5.095      54.952
2015    2        8     2  46    6.4997   510.7    5.094      54.950
2015    2        8     2  51    6.4984   510.7    5.092      54.949
2015    2        8     2  57    6.4971   510.7    5.090      54.948
2015    2        8     3   2    6.4958   510.8    5.088      54.947
2015    2        8     3   7    6.4946   510.8    5.087      54.946
2015    2        8     3  12    6.4934   510.8    5.085      54.946
2015    2        8     3  18    6.4922   510.8    5.084      54.945
2015    2        8     3  23    6.4910   510.8    5.082      54.946
2015    2        8     3  28    6.4899   510.9    5.081      54.946
2015    2        8     3  33    6.4887   510.9    5.080      54.947
2015    2        8     3  38    6.4875   510.9    5.078      54.947
2015    2        8     3  44    6.4865   510.9    5.077      54.949
2015    2        8     3  49    6.4854   511.0    5.076      54.951
2015    2        8     3  54    6.4843   511.0    5.075      54.953
2015    2        8     3  59    6.4831   511.0    5.074      54.957
2015    2        8     4   5    6.4820   511.0    5.073      54.961
2015    2        8     4  10    6.4808   511.0    5.072      54.965
2015    2        8     4  15    6.4797   511.1    5.071      54.970
2015    2        8     4  20    6.4787   511.1    5.070      54.975
2015    2        8     4  25    6.4775   511.1    5.069      54.981
2015    2        8     4  31    6.4764   511.1    5.068      54.987
2015    2        8     4  36    6.4753   511.2    5.066      54.993
2015    2        8     4  41    6.4741   511.2    5.065      54.999
2015    2        8     4  46    6.4729   511.2    5.064      55.005
2015    2        8     4  51    6.4719   511.2    5.063      55.011
2015    2        8     4  57    6.4707   511.2    5.062      55.017
2015    2        8     5   2    6.4696   511.2    5.061      55.023
2015    2        8     5   7    6.4685   511.3    5.060      55.029
2015    2        8     5  12    6.4673   511.3    5.059      55.035
2015    2        8     5  18    6.4662   511.3    5.057      55.040
2015    2        8     5  23    6.4651   511.3    5.056      55.044
2015    2        8     5  28    6.4640   511.3    5.055      55.049
2015    2        8     5  33    6.4629   511.4    5.054      55.053
2015    2        8     5  38    6.4617   511.4    5.052      55.057
2015    2        8     5  44    6.4606   511.4    5.051      55.060
2015    2        8     5  49    6.4595   511.4    5.050      55.064
2015    2        8     5  54    6.4584   511.4    5.049      55.067
2015    2        8     5  59    6.4572   511.4    5.047      55.070
2015    2        8     6   5    6.4561   511.4    5.046      55.072
2015    2        8     6  10    6.4550   511.4    5.045      55.074
2015    2        8     6  15    6.4539   511.5    5.043      55.076
2015    2        8     6  20    6.4527   511.5    5.042      55.078
2015    2        8     6  25    6.4516   511.5    5.041      55.079
2015    2        8     6  31    6.4506   511.5    5.039      55.080
2015    2        8     6  36    6.4494   511.5    5.038      55.080
2015    2        8     6  41    6.4484   511.5    5.036      55.080
2015    2        8     6  46    6.4473   511.5    5.034      55.080
2015    2        8     6  52    6.4462   511.5    5.033      55.080
2015    2        8     6  57    6.4451   511.5    5.031      55.079
2015    2        8     7   2    6.4440   511.6    5.030      55.077
2015    2        8     7   7    6.4429   511.6    5.028      55.076
2015    2        8     7  12    6.4418   511.6    5.026      55.074
2015    2        8     7  18    6.4406   511.6    5.024      55.071
2015    2        8     7  23    6.4395   511.6    5.023      55.068
2015    2        8     7  28    6.4385   511.6    5.021      55.065
2015    2        8     7  33    6.4375   511.6    5.019      55.061
2015    2        8     7  38    6.4363   511.6    5.017      55.057
2015    2        8     7  44    6.4353   511.6    5.016      55.053
2015    2        8     7  49    6.4341   511.6    5.014      55.048
2015    2        8     7  54    6.4331   511.6    5.012      55.043
2015    2        8     7  59    6.4321   511.6    5.010      55.038
2015    2        8     8   5    6.4311   511.6    5.008      55.032
2015    2        8     8  10    6.4299   511.6    5.006      55.026
2015    2        8     8  15    6.4289   511.6    5.004      55.019
2015    2        8     8  20    6.4279   511.6    5.003      55.013
2015    2        8     8  25    6.4269   511.6    5.001      55.006
2015    2        8     8  31    6.4260   511.6    4.999      54.999
2015    2        8     8  36    6.4251   511.5    4.997      54.992
2015    2        8     8  41    6.4241   511.5    4.996      54.985
2015    2        8     8  46    6.4232   511.5    4.994      54.977
2015    2        8     8  52    6.4223   511.5    4.993      54.971
2015    2        8     8  57    6.4215   511.5    4.991      54.964
2015    2        8     9   2    6.4206   511.5    4.990      54.957
2015    2        8     9   7    6.4198   511.5    4.988      54.950
2015    2        8     9  12    6.4190   511.5    4.987      54.944
2015    2        8     9  18    6.4182   511.5    4.986      54.939
2015    2        8     9  23    6.4176   511.5    4.985      54.933
2015    2        8     9  28    6.4169   511.5    4.984      54.929
2015    2        8     9  33    6.4162   511.4    4.983      54.924
2015    2        8     9  39    6.4157   511.4    4.982      54.921
2015    2        8     9  44    6.4151   511.4    4.982      54.918
2015    2        8     9  49    6.4146   511.4    4.981      54.916
2015    2        8     9  54    6.4141   511.4    4.981      54.914
2015    2        8     9  59    6.4137   511.4    4.980      54.913
2015    2        8    10   5    6.4132   511.4    4.980      54.913
2015    2        8    10  10    6.4130   511.4    4.980      54.913
2015    2        8    10  15    6.4127   511.4    4.980      54.914
2015    2        8    10  20    6.4124   511.4    4.980      54.916
2015    2        8    10  25    6.4122   511.4    4.981      54.919
2015    2        8    10  31    6.4120   511.4    4.981      54.923
2015    2        8    10  36    6.4118   511.4    4.982      54.926
2015    2        8    10  41    6.4117   511.4    4.982      54.931
2015    2        8    10  46    6.4115   511.4    4.983      54.936
2015    2        8    10  52    6.4114   511.4    4.984      54.942
2015    2        8    10  57    6.4112   511.4    4.985      54.949
2015    2        8    11   2    6.4111   511.4    4.985      54.957
2015    2        8    11   7    6.4110   511.4    4.986      54.966
2015    2        8    11  12    6.4108   511.4    4.987      54.977
2015    2        8    11  18    6.4107   511.4    4.988      54.988
2015    2        8    11  23    6.4105   511.4    4.989      55.000
2015    2        8    11  28    6.4103   511.5    4.989      55.013
2015    2        8    11  33    6.4101   511.5    4.990      55.027
2015    2        8    11  39    6.4098   511.5    4.991      55.041
2015    2        8    11  44    6.4096   511.5    4.991      55.056
2015    2        8    11  49    6.4093   511.5    4.992      55.071
2015    2        8    11  54    6.4091   511.5    4.992      55.086
2015    2        8    11  59    6.4087   511.5    4.992      55.101
2015    2        8    12   5    6.4085   511.5    4.992      55.116
2015    2        8    12  10    6.4082   511.5    4.993      55.131
2015    2        8    12  15    6.4079   511.5    4.993      55.146
2015    2        8    12  20    6.4076   511.5    4.993      55.160
2015    2        8    12  26    6.4073   511.5    4.993      55.173
2015    2        8    12  31    6.4070   511.6    4.993      55.186
2015    2        8    12  36    6.4067   511.6    4.993      55.199
2015    2        8    12  41    6.4064   511.6    4.993      55.211
2015    2        8    12  46    6.4061   511.6    4.993      55.223
2015    2        8    12  52    6.4058   511.6    4.993      55.234
2015    2        8    12  57    6.4055   511.6    4.992      55.245
2015    2        8    13   2    6.4052   511.6    4.992      55.255
2015    2        8    13   7    6.4049   511.6    4.992      55.266
2015    2        8    13  13    6.4045   511.6    4.992      55.275
2015    2        8    13  18    6.4042   511.6    4.991      55.285
2015    2        8    13  23    6.4040   511.6    4.991      55.294
2015    2        8    13  28    6.4036   511.6    4.991      55.302
2015    2        8    13  33    6.4033   511.6    4.990      55.310
2015    2        8    13  39    6.4029   511.6    4.990      55.318
2015    2        8    13  44    6.4027   511.6    4.989      55.325
2015    2        8    13  49    6.4024   511.6    4.989      55.333
2015    2        8    13  54    6.4020   511.6    4.988      55.339
2015    2        8    13  59    6.4018   511.6    4.988      55.346
2015    2        8    14   5    6.4014   511.6    4.987      55.352
2015    2        8    14  10    6.4011   511.6    4.986      55.358
2015    2        8    14  15    6.4008   511.6    4.986      55.363
2015    2        8    14  20    6.4005   511.6    4.985      55.368
2015    2        8    14  26    6.4002   511.6    4.984      55.373
2015    2        8    14  31    6.3998   511.6    4.984      55.378
2015    2        8    14  36    6.3995   511.6    4.983      55.382
2015    2        8    14  41    6.3993   511.6    4.982      55.386
2015    2        8    14  46    6.3990   511.6    4.982      55.390
2015    2        8    14  52    6.3987   511.6    4.981      55.393
2015    2        8    14  57    6.3985   511.6    4.980      55.396
2015    2        8    15   2    6.3982   511.6    4.980      55.400
2015    2        8    15   7    6.3980   511.6    4.979      55.402
2015    2        8    15  13    6.3977   511.6    4.978      55.405
2015    2        8    15  18    6.3975   511.6    4.978      55.408
2015    2        8    15  23    6.3971   511.6    4.977      55.410
2015    2        8    15  28    6.3970   511.6    4.976      55.412
2015    2        8    15  33    6.3967   511.6    4.976      55.414
2015    2        8    15  39    6.3965   511.6    4.975      55.416
2015    2        8    15  44    6.3963   511.6    4.975      55.418
2015    2        8    15  49    6.3961   511.6    4.974      55.420
2015    2        8    15  54    6.3960   511.6    4.973      55.422
2015    2        8    16   0    6.3958   511.6    4.973      55.423
2015    2        8    16   5    6.3956   511.6    4.973      55.425
2015    2        8    16  10    6.3954   511.6    4.972      55.427
2015    2        8    16  15    6.3953   511.6    4.972      55.429
2015    2        8    16  20    6.3953   511.6    4.972      55.431
2015    2        8    16  26    6.3952   511.6    4.971      55.433
2015    2        8    16  31    6.3952   511.6    4.971      55.435
2015    2        8    16  36    6.3952   511.6    4.971      55.438
2015    2        8    16  41    6.3952   511.6    4.971      55.441
2015    2        8    16  47    6.3952   511.6    4.971      55.444
2015    2        8    16  52    6.3953   511.6    4.971      55.448
2015    2        8    16  57    6.3954   511.6    4.971      55.452
2015    2        8    17   2    6.3956   511.6    4.972      55.456
2015    2        8    17   7    6.3958   511.6    4.972      55.461
2015    2        8    17  13    6.3960   511.6    4.973      55.467
2015    2        8    17  18    6.3963   511.6    4.973      55.472
2015    2        8    17  23    6.3966   511.6    4.974      55.479
2015    2        8    17  28    6.3970   511.6    4.975      55.486
2015    2        8    17  33    6.3973   511.6    4.976      55.494
2015    2        8    17  39    6.3978   511.6    4.977      55.503
2015    2        8    17  44    6.3982   511.6    4.978      55.514
2015    2        8    17  49    6.3987   511.6    4.979      55.525
2015    2        8    17  54    6.3993   511.6    4.980      55.536
2015    2        8    18   0    6.3998   511.6    4.981      55.549
2015    2        8    18   5    6.4004   511.6    4.983      55.563
2015    2        8    18  10    6.4009   511.6    4.984      55.578
2015    2        8    18  15    6.4014   511.6    4.985      55.593
2015    2        8    18  20    6.4020   511.7    4.987      55.610
2015    2        8    18  26    6.4025   511.7    4.988      55.627
2015    2        8    18  31    6.4030   511.7    4.989      55.645
2015    2        8    18  36    6.4036   511.7    4.990      55.664
2015    2        8    18  41    6.4040   511.7    4.991      55.684
2015    2        8    18  47    6.4045   511.7    4.992      55.704
2015    2        8    18  52    6.4049   511.8    4.993      55.724
2015    2        8    18  57    6.4054   511.8    4.994      55.743
2015    2        8    19   2    6.4058   511.8    4.994      55.763
2015    2        8    19   7    6.4062   511.8    4.995      55.783
2015    2        8    19  13    6.4066   511.8    4.995      55.803
2015    2        8    19  18    6.4070   511.8    4.996      55.822
2015    2        8    19  23    6.4073   511.9    4.996      55.841
2015    2        8    19  28    6.4076   511.9    4.997      55.860
2015    2        8    19  34    6.4080   511.9    4.997      55.878
2015    2        8    19  39    6.4083   511.9    4.997      55.896
2015    2        8    19  44    6.4087   511.9    4.997      55.913
2015    2        8    19  49    6.4091   511.9    4.997      55.930
2015    2        8    19  54    6.4094   512.0    4.997      55.946
2015    2        8    20   0    6.4097   512.0    4.998      55.962
2015    2        8    20   5    6.4101   512.0    4.998      55.977
2015    2        8    20  10    6.4104   512.0    4.998      55.992
2015    2        8    20  15    6.4107   512.0    4.998      56.007
2015    2        8    20  21    6.4111   512.0    4.997      56.021
2015    2        8    20  26    6.4114   512.0    4.997      56.035
2015    2        8    20  31    6.4118   512.1    4.997      56.048
2015    2        8    20  36    6.4121   512.1    4.997      56.062
2015    2        8    20  41    6.4125   512.1    4.997      56.075
2015    2        8    20  47    6.4129   512.1    4.997      56.088
2015    2        8    20  52    6.4132   512.1    4.997      56.101
2015    2        8    20  57    6.4135   512.1    4.996      56.114
2015    2        8    21   2    6.4140   512.1    4.996      56.127
2015    2        8    21   7    6.4143   512.2    4.996      56.139
2015    2        8    21  13    6.4146   512.2    4.996      56.152
2015    2        8    21  18    6.4151   512.2    4.996      56.165
2015    2        8    21  23    6.4155   512.2    4.995      56.178
2015    2        8    21  28    6.4158   512.2    4.995      56.190
2015    2        8    21  34    6.4162   512.2    4.995      56.203
2015    2        8    21  39    6.4166   512.3    4.995      56.217
2015    2        8    21  44    6.4170   512.3    4.995      56.230
2015    2        8    21  49    6.4174   512.3    4.995      56.243
2015    2        8    21  54    6.4179   512.3    4.994      56.257
2015    2        8    22   0    6.4182   512.3    4.994      56.272
2015    2        8    22   5    6.4187   512.3    4.994      56.286
2015    2        8    22  10    6.4192   512.4    4.994      56.301
2015    2        8    22  15    6.4196   512.4    4.994      56.316
2015    2        8    22  21    6.4201   512.4    4.995      56.331
2015    2        8    22  26    6.4205   512.4    4.995      56.346
2015    2        8    22  31    6.4210   512.4    4.995      56.362
2015    2        8    22  36    6.4214   512.5    4.995      56.379
2015    2        8    22  41    6.4220   512.5    4.995      56.395
2015    2        8    22  47    6.4224   512.5    4.995      56.412
2015    2        8    22  52    6.4230   512.5    4.996      56.430
2015    2        8    22  57    6.4234   512.5    4.996      56.447
2015    2        8    23   2    6.4240   512.6    4.997      56.465
2015    2        8    23   8    6.4245   512.6    4.997      56.483
2015    2        8    23  13    6.4251   512.6    4.998      56.502
2015    2        8    23  18    6.4256   512.6    4.998      56.520
2015    2        8    23  23    6.4262   512.7    4.999      56.539
2015    2        8    23  28    6.4267   512.7    4.999      56.559
2015    2        8    23  34    6.4273   512.7    5.000      56.578
2015    2        8    23  39    6.4279   512.7    5.001      56.598
2015    2        8    23  44    6.4285   512.8    5.001      56.618
2015    2        8    23  49    6.4291   512.8    5.002      56.638
2015    2        8    23  54    6.4297   512.8    5.003      56.659
2015    2        9     0   0    6.4304   512.9    5.004      56.679
2015    2        9     0   5    6.4310   512.9    5.005      56.700
2015    2        9     0  10    6.4316   512.9    5.006      56.721
2015    2        9     0  15    6.4323   512.9    5.007      56.742
2015    2        9     0  21    6.4330   513.0    5.008      56.764
2015    2        9     0  26    6.4337   513.0    5.009      56.785
2015    2        9     0  31    6.4344   513.0    5.010      56.807
2015    2        9     0  36    6.4351   513.1    5.011      56.828
2015    2        9     0  41    6.4358   513.1    5.013      56.851
2015    2        9     0  47    6.4365   513.1    5.014      56.873
2015    2        9     0  52    6.4373   513.2    5.015      56.896
2015    2        9     0  57    6.4381   513.2    5.016      56.919
2015    2        9     1   2    6.4389   513.2    5.018      56.943
2015    2        9     1   8    6.4396   513.3    5.019      56.968
2015    2        9     1  13    6.4404   513.3    5.020      56.993
2015    2        9     1  18    6.4413   513.4    5.021      57.019
2015    2        9     1  23    6.4421   513.4    5.023      57.044
2015    2        9     1  28    6.4428   513.4    5.024      57.070
2015    2        9     1  34    6.4436   513.5    5.025      57.097
2015    2        9     1  39    6.4444   513.5    5.026      57.123
2015    2        9     1  44    6.4452   513.6    5.027      57.150
2015    2        9     1  49    6.4460   513.6    5.028      57.176
2015    2        9     1  55    6.4468   513.6    5.029      57.203
2015    2        9     2   0    6.4476   513.7    5.030      57.230
2015    2        9     2   5    6.4484   513.7    5.031      57.256
2015    2        9     2  10    6.4493   513.8    5.031      57.282
2015    2        9     2  15    6.4501   513.8    5.032      57.308
2015    2        9     2  21    6.4509   513.9    5.033      57.334
2015    2        9     2  26    6.4518   513.9    5.034      57.359
2015    2        9     2  31    6.4527   513.9    5.035      57.385
2015    2        9     2  36    6.4535   514.0    5.035      57.411
2015    2        9     2  42    6.4544   514.0    5.036      57.437
2015    2        9     2  47    6.4553   514.1    5.037      57.463
2015    2        9     2  52    6.4563   514.1    5.038      57.489
2015    2        9     2  57    6.4573   514.2    5.038      57.516
2015    2        9     3   2    6.4582   514.2    5.039      57.544
2015    2        9     3   8    6.4590   514.2    5.040      57.572
2015    2        9     3  13    6.4600   514.3    5.040      57.601
2015    2        9     3  18    6.4609   514.3    5.041      57.630
2015    2        9     3  23    6.4618   514.4    5.041      57.659
2015    2        9     3  28    6.4627   514.4    5.041      57.688
2015    2        9     3  34    6.4635   514.5    5.042      57.718
2015    2        9     3  39    6.4644   514.5    5.042      57.747
2015    2        9     3  44    6.4652   514.6    5.042      57.777
2015    2        9     3  49    6.4661   514.6    5.042      57.806
2015    2        9     3  55    6.4669   514.7    5.042      57.835
2015    2        9     4   0    6.4678   514.7    5.042      57.864
2015    2        9     4   5    6.4685   514.8    5.042      57.892
2015    2        9     4  10    6.4693   514.8    5.041      57.920
2015    2        9     4  15    6.4702   514.9    5.041      57.947
2015    2        9     4  21    6.4709   514.9    5.041      57.974
2015    2        9     4  26    6.4717   515.0    5.041      58.001
2015    2        9     4  31    6.4725   515.0    5.040      58.028
2015    2        9     4  36    6.4732   515.1    5.040      58.054
2015    2        9     4  42    6.4740   515.1    5.040      58.080
2015    2        9     4  47    6.4748   515.2    5.039      58.105
2015    2        9     4  52    6.4755   515.2    5.039      58.131
2015    2        9     4  57    6.4763   515.3    5.038      58.156
2015    2        9     5   2    6.4771   515.3    5.038      58.181
2015    2        9     5   8    6.4778   515.4    5.038      58.206
2015    2        9     5  13    6.4786   515.4    5.037      58.231
2015    2        9     5  18    6.4794   515.5    5.037      58.255
2015    2        9     5  23    6.4802   515.5    5.036      58.280
2015    2        9     5  29    6.4810   515.6    5.036      58.304
2015    2        9     5  34    6.4818   515.6    5.036      58.329
2015    2        9     5  39    6.4826   515.7    5.035      58.353
2015    2        9     5  44    6.4833   515.7    5.035      58.377
2015    2        9     5  49    6.4842   515.8    5.035      58.401
2015    2        9     5  55    6.4850   515.8    5.034      58.426
2015    2        9     6   0    6.4858   515.9    5.034      58.450
2015    2        9     6   5    6.4866   515.9    5.034      58.474
2015    2        9     6  10    6.4874   516.0    5.033      58.498
2015    2        9     6  15    6.4882   516.0    5.033      58.522
2015    2        9     6  21    6.4890   516.1    5.033      58.547
2015    2        9     6  26    6.4898   516.1    5.032      58.571
2015    2        9     6  31    6.4906   516.2    5.032      58.595
2015    2        9     6  36    6.4914   516.2    5.032      58.620
2015    2        9     6  42    6.4923   516.3    5.032      58.644
2015    2        9     6  47    6.4931   516.3    5.032      58.669
2015    2        9     6  52    6.4939   516.4    5.032      58.694
2015    2        9     6  57    6.4947   516.4    5.032      58.718
2015    2        9     7   2    6.4956   516.5    5.031      58.743
2015    2        9     7   8    6.4964   516.5    5.031      58.768
2015    2        9     7  13    6.4972   516.6    5.031      58.793
2015    2        9     7  18    6.4981   516.6    5.031      58.819
2015    2        9     7  23    6.4989   516.7    5.031      58.844
2015    2        9     7  29    6.4997   516.8    5.031      58.870
2015    2        9     7  34    6.5005   516.8    5.031      58.895
2015    2        9     7  39    6.5014   516.9    5.031      58.921
2015    2        9     7  44    6.5022   516.9    5.031      58.946
2015    2        9     7  49    6.5030   517.0    5.031      58.972
2015    2        9     7  55    6.5038   517.1    5.032      58.998
2015    2        9     8   0    6.5046   517.1    5.032      59.024
2015    2        9     8   5    6.5054   517.2    5.032      59.050
2015    2        9     8  10    6.5062   517.2    5.032      59.076
2015    2        9     8  16    6.5071   517.3    5.032      59.102
2015    2        9     8  21    6.5079   517.4    5.032      59.129
2015    2        9     8  26    6.5087   517.4    5.032      59.155
2015    2        9     8  31    6.5095   517.5    5.033      59.181
2015    2        9     8  36    6.5103   517.5    5.033      59.208
2015    2        9     8  42    6.5111   517.6    5.033      59.235
2015    2        9     8  47    6.5119   517.7    5.033      59.261
2015    2        9     8  52    6.5127   517.7    5.034      59.288
2015    2        9     8  57    6.5135   517.8    5.034      59.316
2015    2        9     9   3    6.5143   517.8    5.034      59.343
2015    2        9     9   8    6.5151   517.9    5.035      59.370
2015    2        9     9  13    6.5160   518.0    5.035      59.398
2015    2        9     9  18    6.5168   518.0    5.036      59.427
2015    2        9     9  23    6.5177   518.1    5.036      59.455
2015    2        9     9  29    6.5186   518.1    5.037      59.484
2015    2        9     9  34    6.5194   518.2    5.038      59.514
2015    2        9     9  39    6.5204   518.3    5.039      59.544
2015    2        9     9  44    6.5214   518.3    5.039      59.575
2015    2        9     9  49    6.5223   518.4    5.040      59.606
2015    2        9     9  55    6.5233   518.4    5.041      59.639
2015    2        9    10   0    6.5243   518.5    5.043      59.674
2015    2        9    10   5    6.5254   518.6    5.044      59.710
2015    2        9    10  10    6.5264   518.6    5.045      59.748
2015    2        9    10  16    6.5275   518.7    5.046      59.786
2015    2        9    10  21    6.5285   518.8    5.047      59.826
2015    2        9    10  26    6.5296   518.8    5.049      59.867
2015    2        9    10  31    6.5307   518.9    5.050      59.909
2015    2        9    10  36    6.5318   519.0    5.051      59.952
2015    2        9    10  42    6.5329   519.1    5.052      59.997
2015    2        9    10  47    6.5340   519.1    5.054      60.044
2015    2        9    10  52    6.5351   519.2    5.055      60.092
2015    2        9    10  57    6.5362   519.3    5.056      60.140
2015    2        9    11   3    6.5373   519.4    5.057      60.190
2015    2        9    11   8    6.5383   519.5    5.058      60.239
2015    2        9    11  13    6.5393   519.6    5.059      60.289
2015    2        9    11  18    6.5403   519.6    5.060      60.339
2015    2        9    11  23    6.5413   519.7    5.060      60.389
2015    2        9    11  29    6.5423   519.8    5.061      60.439
2015    2        9    11  34    6.5432   519.9    5.061      60.489
2015    2        9    11  39    6.5442   520.0    5.062      60.538
2015    2        9    11  44    6.5451   520.1    5.062      60.587
2015    2        9    11  50    6.5460   520.1    5.062      60.635
2015    2        9    11  55    6.5469   520.2    5.062      60.683
2015    2        9    12   0    6.5478   520.3    5.063      60.729
2015    2        9    12   5    6.5486   520.4    5.062      60.775
2015    2        9    12  10    6.5495   520.5    5.062      60.819
2015    2        9    12  16    6.5503   520.6    5.062      60.863
2015    2        9    12  21    6.5512   520.6    5.062      60.906
2015    2        9    12  26    6.5521   520.7    5.062      60.948
2015    2        9    12  31    6.5529   520.8    5.062      60.990
2015    2        9    12  37    6.5538   520.9    5.061      61.031
2015    2        9    12  42    6.5546   521.0    5.061      61.071
2015    2        9    12  47    6.5555   521.1    5.060      61.110
2015    2        9    12  52    6.5564   521.1    5.060      61.149
2015    2        9    12  57    6.5573   521.2    5.060      61.187
2015    2        9    13   3    6.5582   521.3    5.059      61.225
2015    2        9    13   8    6.5591   521.4    5.059      61.263
2015    2        9    13  13    6.5599   521.5    5.058      61.300
2015    2        9    13  18    6.5608   521.5    5.058      61.338
2015    2        9    13  23    6.5617   521.6    5.057      61.375
2015    2        9    13  29    6.5626   521.7    5.057      61.412
2015    2        9    13  34    6.5635   521.8    5.056      61.449
2015    2        9    13  39    6.5644   521.9    5.056      61.486
2015    2        9    13  44    6.5652   522.0    5.055      61.523
2015    2        9    13  50    6.5660   522.0    5.054      61.559
2015    2        9    13  55    6.5668   522.1    5.053      61.596
2015    2        9    14   0    6.5677   522.2    5.053      61.632
2015    2        9    14   5    6.5684   522.3    5.052      61.667
2015    2        9    14  10    6.5692   522.4    5.051      61.703
2015    2        9    14  16    6.5699   522.5    5.050      61.738
2015    2        9    14  21    6.5706   522.6    5.049      61.772
2015    2        9    14  26    6.5713   522.7    5.048      61.806
2015    2        9    14  31    6.5720   522.7    5.047      61.840
2015    2        9    14  37    6.5727   522.8    5.046      61.873
2015    2        9    14  42    6.5734   522.9    5.045      61.906
2015    2        9    14  47    6.5740   523.0    5.044      61.939
2015    2        9    14  52    6.5747   523.1    5.042      61.971
2015    2        9    14  57    6.5753   523.2    5.041      62.002
2015    2        9    15   3    6.5759   523.3    5.040      62.033
2015    2        9    15   8    6.5765   523.4    5.039      62.064
2015    2        9    15  13    6.5771   523.4    5.037      62.094
2015    2        9    15  18    6.5777   523.5    5.036      62.124
2015    2        9    15  24    6.5782   523.6    5.034      62.154
2015    2        9    15  29    6.5788   523.7    5.033      62.182
2015    2        9    15  34    6.5794   523.8    5.031      62.211
2015    2        9    15  39    6.5800   523.9    5.030      62.239
2015    2        9    15  44    6.5805   524.0    5.029      62.267
2015    2        9    15  50    6.5811   524.0    5.027      62.295
2015    2        9    15  55    6.5816   524.1    5.025      62.322
2015    2        9    16   0    6.5822   524.2    5.024      62.349
2015    2        9    16   5    6.5827   524.3    5.022      62.375
2015    2        9    16  11    6.5833   524.4    5.021      62.402
2015    2        9    16  16    6.5838   524.5    5.019      62.428
2015    2        9    16  21    6.5844   524.5    5.018      62.454
2015    2        9    16  26    6.5850   524.6    5.016      62.480
2015    2        9    16  31    6.5855   524.7    5.015      62.507
2015    2        9    16  37    6.5861   524.8    5.014      62.533
2015    2        9    16  42    6.5867   524.9    5.012      62.559
2015    2        9    16  47    6.5873   525.0    5.011      62.585
2015    2        9    16  52    6.5880   525.0    5.010      62.612
2015    2        9    16  57    6.5886   525.1    5.008      62.639
2015    2        9    17   3    6.5892   525.2    5.007      62.666
2015    2        9    17   8    6.5899   525.3    5.006      62.693
2015    2        9    17  13    6.5906   525.4    5.005      62.721
2015    2        9    17  18    6.5914   525.4    5.004      62.749
2015    2        9    17  24    6.5921   525.5    5.004      62.778
2015    2        9    17  29    6.5929   525.6    5.003      62.808
2015    2        9    17  34    6.5937   525.7    5.002      62.838
2015    2        9    17  39    6.5945   525.8    5.002      62.869
2015    2        9    17  44    6.5953   525.9    5.002      62.900
2015    2        9    17  50    6.5962   525.9    5.001      62.932
2015    2        9    17  55    6.5971   526.0    5.001      62.965
2015    2        9    18   0    6.5980   526.1    5.001      63.000
2015    2        9    18   5    6.5989   526.2    5.001      63.035
2015    2        9    18  11    6.5998   526.3    5.002      63.073
2015    2        9    18  16    6.6007   526.4    5.002      63.111
2015    2        9    18  21    6.6017   526.5    5.002      63.152
2015    2        9    18  26    6.6026   526.6    5.002      63.193
2015    2        9    18  31    6.6035   526.7    5.003      63.236
2015    2        9    18  37    6.6044   526.8    5.003      63.279
2015    2        9    18  42    6.6053   526.9    5.003      63.323
2015    2        9    18  47    6.6062   527.0    5.004      63.368
2015    2        9    18  52    6.6070   527.1    5.004      63.413
2015    2        9    18  58    6.6079   527.2    5.004      63.459
2015    2        9    19   3    6.6087   527.3    5.004      63.505
2015    2        9    19   8    6.6095   527.4    5.004      63.552
2015    2        9    19  13    6.6102   527.5    5.004      63.598
2015    2        9    19  18    6.6110   527.6    5.005      63.644
2015    2        9    19  24    6.6118   527.7    5.005      63.690
2015    2        9    19  29    6.6125   527.8    5.005      63.735
2015    2        9    19  34    6.6133   527.9    5.005      63.780
2015    2        9    19  39    6.6140   528.0    5.005      63.825
2015    2        9    19  45    6.6148   528.1    5.005      63.870
2015    2        9    19  50    6.6155   528.2    5.005      63.914
2015    2        9    19  55    6.6163   528.3    5.005      63.959
2015    2        9    20   0    6.6170   528.4    5.005      64.004
2015    2        9    20   5    6.6178   528.5    5.005      64.048
2015    2        9    20  11    6.6186   528.6    5.005      64.092
2015    2        9    20  16    6.6194   528.7    5.005      64.137
2015    2        9    20  21    6.6202   528.8    5.006      64.181
2015    2        9    20  26    6.6210   528.9    5.006      64.227
2015    2        9    20  31    6.6217   529.0    5.006      64.274
2015    2        9    20  37    6.6225   529.1    5.006      64.321
2015    2        9    20  42    6.6233   529.2    5.007      64.370
2015    2        9    20  47    6.6240   529.3    5.007      64.419
2015    2        9    20  52    6.6248   529.4    5.007      64.468
2015    2        9    20  58    6.6255   529.6    5.007      64.518
2015    2        9    21   3    6.6262   529.7    5.007      64.568
2015    2        9    21   8    6.6269   529.8    5.007      64.618
2015    2        9    21  13    6.6275   529.9    5.007      64.669
2015    2        9    21  18    6.6281   530.0    5.007      64.719
2015    2        9    21  24    6.6288   530.1    5.006      64.770
2015    2        9    21  29    6.6293   530.3    5.006      64.821
2015    2        9    21  34    6.6299   530.4    5.006      64.871
2015    2        9    21  39    6.6305   530.5    5.005      64.921
2015    2        9    21  45    6.6310   530.6    5.005      64.970
2015    2        9    21  50    6.6315   530.7    5.004      65.019
2015    2        9    21  55    6.6320   530.8    5.003      65.068
2015    2        9    22   0    6.6325   531.0    5.002      65.116
2015    2        9    22   5    6.6330   531.1    5.001      65.164
2015    2        9    22  11    6.6335   531.2    5.000      65.211
2015    2        9    22  16    6.6340   531.3    4.999      65.258
2015    2        9    22  21    6.6345   531.5    4.998      65.304
2015    2        9    22  26    6.6349   531.6    4.997      65.350
2015    2        9    22  32    6.6354   531.7    4.996      65.395
2015    2        9    22  37    6.6359   531.8    4.994      65.439
2015    2        9    22  42    6.6364   531.9    4.993      65.483
2015    2        9    22  47    6.6368   532.1    4.991      65.527
2015    2        9    22  52    6.6373   532.2    4.990      65.570
2015    2        9    22  58    6.6378   532.3    4.988      65.612
2015    2        9    23   3    6.6382   532.5    4.987      65.653
2015    2        9    23   8    6.6387   532.6    4.985      65.694
2015    2        9    23  13    6.6392   532.7    4.983      65.734
2015    2        9    23  19    6.6396   532.8    4.981      65.773
2015    2        9    23  24    6.6400   533.0    4.979      65.811
2015    2        9    23  29    6.6405   533.1    4.978      65.849
2015    2        9    23  34    6.6409   533.2    4.976      65.887
2015    2        9    23  39    6.6414   533.4    4.973      65.924
2015    2        9    23  45    6.6418   533.5    4.971      65.960
2015    2        9    23  50    6.6423   533.6    4.969      65.995
2015    2        9    23  55    6.6427   533.7    4.967      66.030
2015    2       10     0   0    6.6431   533.9    4.965      66.065
2015    2       10     0   5    6.6435   534.0    4.963      66.099
2015    2       10     0  11    6.6440   534.1    4.960      66.132
2015    2       10     0  16    6.6444   534.3    4.958      66.165
2015    2       10     0  21    6.6448   534.4    4.956      66.198
2015    2       10     0  26    6.6452   534.5    4.954      66.230
2015    2       10     0  32    6.6456   534.7    4.951      66.262
2015    2       10     0  37    6.6460   534.8    4.949      66.294
2015    2       10     0  42    6.6464   534.9    4.947      66.325
2015    2       10     0  47    6.6468   535.1    4.944      66.356
2015    2       10     0  52    6.6472   535.2    4.942      66.387
2015    2       10     0  58    6.6477   535.3    4.939      66.418
2015    2       10     1   3    6.6481   535.5    4.937      66.448
2015    2       10     1   8    6.6485   535.6    4.935      66.478
2015    2       10     1  13    6.6488   535.7    4.932      66.508
2015    2       10     1  19    6.6492   535.9    4.930      66.538
2015    2       10     1  24    6.6496   536.0    4.928      66.568
2015    2       10     1  29    6.6500   536.1    4.926      66.598
2015    2       10     1  34    6.6503   536.3    4.923      66.627
2015    2       10     1  39    6.6506   536.4    4.921      66.657
2015    2       10     1  45    6.6510   536.5    4.919      66.687
2015    2       10     1  50    6.6513   536.7    4.917      66.717
2015    2       10     1  55    6.6516   536.8    4.915      66.747
2015    2       10     2   0    6.6519   537.0    4.913      66.777
2015    2       10     2   6    6.6522   537.1    4.911      66.807
2015    2       10     2  11    6.6524   537.2    4.909      66.838
2015    2       10     2  16    6.6527   537.4    4.907      66.868
2015    2       10     2  21    6.6529   537.5    4.905      66.899
2015    2       10     2  26    6.6532   537.6    4.903      66.930
2015    2       10     2  32    6.6534   537.8    4.902      66.962
2015    2       10     2  37    6.6536   537.9    4.900      66.993
2015    2       10     2  42    6.6538   538.0    4.899      67.025
2015    2       10     2  47    6.6540   538.2    4.897      67.058
2015    2       10     2  52    6.6542   538.3    4.896      67.091
2015    2       10     2  58    6.6543   538.4    4.895      67.124
2015    2       10     3   3    6.6545   538.6    4.894      67.158
2015    2       10     3   8    6.6546   538.7    4.893      67.192
2015    2       10     3  13    6.6548   538.9    4.892      67.228
2015    2       10     3  19    6.6549   539.0    4.891      67.263
2015    2       10     3  24    6.6550   539.1    4.891      67.300
2015    2       10     3  29    6.6550   539.3    4.890      67.340
2015    2       10     3  34    6.6551   539.4    4.890      67.381
2015    2       10     3  39    6.6551   539.6    4.889      67.425
2015    2       10     3  45    6.6551   539.7    4.889      67.470
2015    2       10     3  50    6.6550   539.9    4.889      67.517
2015    2       10     3  55    6.6549   540.0    4.888      67.566
2015    2       10     4   0    6.6547   540.2    4.887      67.615
2015    2       10     4   6    6.6546   540.3    4.887      67.665
2015    2       10     4  11    6.6544   540.5    4.886      67.716
2015    2       10     4  16    6.6541   540.6    4.885      67.768
2015    2       10     4  21    6.6538   540.8    4.884      67.820
2015    2       10     4  26    6.6534   540.9    4.883      67.872
2015    2       10     4  32    6.6531   541.1    4.882      67.923
2015    2       10     4  37    6.6526   541.3    4.880      67.974
2015    2       10     4  42    6.6522   541.4    4.879      68.023
2015    2       10     4  47    6.6517   541.6    4.877      68.072
2015    2       10     4  53    6.6512   541.7    4.875      68.119
2015    2       10     4  58    6.6507   541.9    4.873      68.166
2015    2       10     5   3    6.6502   542.1    4.871      68.211
2015    2       10     5   8    6.6497   542.2    4.869      68.256
2015    2       10     5  13    6.6492   542.4    4.867      68.300
2015    2       10     5  19    6.6485   542.6    4.864      68.344
2015    2       10     5  24    6.6480   542.7    4.862      68.386
2015    2       10     5  29    6.6473   542.9    4.859      68.427
2015    2       10     5  34    6.6468   543.0    4.857      68.468
2015    2       10     5  40    6.6462   543.2    4.854      68.508
2015    2       10     5  45    6.6455   543.4    4.851      68.547
2015    2       10     5  50    6.6450   543.5    4.848      68.586
2015    2       10     5  55    6.6443   543.7    4.845      68.624
2015    2       10     6   0    6.6437   543.9    4.842      68.661
2015    2       10     6   6    6.6429   544.0    4.839      68.698
2015    2       10     6  11    6.6424   544.2    4.836      68.734
2015    2       10     6  16    6.6417   544.3    4.833      68.769
2015    2       10     6  21    6.6410   544.5    4.829      68.804
2015    2       10     6  26    6.6403   544.7    4.826      68.838
2015    2       10     6  32    6.6396   544.8    4.823      68.872
2015    2       10     6  37    6.6389   545.0    4.819      68.905
2015    2       10     6  42    6.6381   545.2    4.816      68.938
2015    2       10     6  47    6.6375   545.3    4.813      68.970
2015    2       10     6  53    6.6368   545.5    4.809      69.002
2015    2       10     6  58    6.6361   545.6    4.806      69.034
2015    2       10     7   3    6.6353   545.8    4.803      69.066
2015    2       10     7   8    6.6346   546.0    4.799      69.099
2015    2       10     7  13    6.6340   546.1    4.796      69.131
2015    2       10     7  19    6.6331   546.3    4.792      69.164
2015    2       10     7  24    6.6325   546.5    4.789      69.197
2015    2       10     7  29    6.6318   546.6    4.785      69.230
2015    2       10     7  34    6.6310   546.8    4.782      69.262
2015    2       10     7  40    6.6302   547.0    4.778      69.295
2015    2       10     7  45    6.6291   547.2    4.775      69.327
2015    2       10     7  50    6.6284   547.3    4.771      69.360
2015    2       10     7  55    6.6274   547.5    4.767      69.392
2015    2       10     8   0    6.6263   547.7    4.763      69.424
2015    2       10     8   6    6.6253   547.9    4.760      69.455
2015    2       10     8  11    6.6244   548.1    4.756      69.486
2015    2       10     8  16    6.6231   548.2    4.752      69.516
2015    2       10     8  21    6.6219   548.4    4.748      69.546
2015    2       10     8  27    6.6207   548.6    4.744      69.576
2015    2       10     8  32    6.6195   548.8    4.740      69.606
2015    2       10     8  37    6.6183   548.9    4.736      69.635
2015    2       10     8  42    6.6168   549.1    4.732      69.664
2015    2       10     8  47    6.6154   549.3    4.728      69.693
2015    2       10     8  53    6.6140   549.5    4.724      69.722
2015    2       10     8  58    6.6126   549.6    4.720      69.751
2015    2       10     9   3    6.6111   549.8    4.716      69.780
2015    2       10     9   8    6.6097   550.0    4.712      69.809
2015    2       10     9  14    6.6079   550.2    4.708      69.838
2015    2       10     9  19    6.6063   550.3    4.704      69.867
2015    2       10     9  24    6.6047   550.5    4.701      69.896
2015    2       10     9  29    6.6029   550.7    4.697      69.925
2015    2       10     9  34    6.6012   550.9    4.693      69.954
2015    2       10     9  40    6.5994   551.0    4.689      69.984
2015    2       10     9  45    6.5978   551.2    4.685      70.013
2015    2       10     9  50    6.5959   551.4    4.681      70.043
2015    2       10     9  55    6.5941   551.6    4.678      70.073
2015    2       10    10   0    6.5919   551.7    4.674      70.103
2015    2       10    10   6    6.5901   551.9    4.670      70.133
2015    2       10    10  11    6.5881   552.1    4.667      70.163
2015    2       10    10  16    6.5861   552.3    4.663      70.194
2015    2       10    10  21    6.5837   552.4    4.660      70.225
2015    2       10    10  27    6.5818   552.6    4.656      70.255
2015    2       10    10  32    6.5796   552.8    4.653      70.286
2015    2       10    10  37    6.5774   552.9    4.650      70.317
2015    2       10    10  42    6.5752   553.1    4.647      70.348
2015    2       10    10  47    6.5727   553.3    4.643      70.379
2015    2       10    10  53    6.5704   553.5    4.640      70.411
2015    2       10    10  58    6.5683   553.6    4.637      70.443
2015    2       10    11   3    6.5659   553.8    4.634      70.476
2015    2       10    11   8    6.5635   554.0    4.632      70.510
2015    2       10    11  14    6.5610   554.1    4.629      70.544
2015    2       10    11  19    6.5583   554.3    4.626      70.579
2015    2       10    11  24    6.5561   554.5    4.623      70.614
2015    2       10    11  29    6.5535   554.6    4.620      70.649
2015    2       10    11  34    6.5509   554.8    4.617      70.684
2015    2       10    11  40    6.5483   555.0    4.614      70.719
2015    2       10    11  45    6.5454   555.1    4.611      70.754
2015    2       10    11  50    6.5430   555.3    4.607      70.789
2015    2       10    11  55    6.5403   555.5    4.604      70.823
2015    2       10    12   1    6.5375   555.6    4.601      70.857
2015    2       10    12   6    6.5347   555.8    4.597      70.890
2015    2       10    12  11    6.5319   556.0    4.594      70.922
2015    2       10    12  16    6.5291   556.1    4.590      70.953
2015    2       10    12  21    6.5262   556.3    4.586      70.983
2015    2       10    12  27    6.5230   556.5    4.582      71.012
2015    2       10    12  32    6.5204   556.6    4.578      71.040
2015    2       10    12  37    6.5172   556.8    4.574      71.068
2015    2       10    12  42    6.5142   557.0    4.570      71.094
2015    2       10    12  47    6.5115   557.1    4.566      71.120
2015    2       10    12  53    6.5085   557.3    4.562      71.145
2015    2       10    12  58    6.5055   557.5    4.557      71.169
2015    2       10    13   3    6.5022   557.6    4.553      71.192
2015    2       10    13   8    6.4994   557.8    4.549      71.215
2015    2       10    13  14    6.4961   557.9    4.544      71.237
2015    2       10    13  19    6.4930   558.1    4.539      71.258
2015    2       10    13  24    6.4899   558.3    4.535      71.279
2015    2       10    13  29    6.4867   558.4    4.530      71.299
2015    2       10    13  34    6.4839   558.6    4.525      71.319
2015    2       10    13  40    6.4807   558.7    4.521      71.338
2015    2       10    13  45    6.4775   558.9    4.516      71.357
2015    2       10    13  50    6.4743   559.0    4.511      71.375
2015    2       10    13  55    6.4708   559.2    4.506      71.392
2015    2       10    14   1    6.4679   559.4    4.501      71.409
2015    2       10    14   6    6.4643   559.5    4.497      71.425
2015    2       10    14  11    6.4613   559.7    4.492      71.441
2015    2       10    14  16    6.4580   559.8    4.487      71.457
2015    2       10    14  21    6.4544   560.0    4.482      71.472
2015    2       10    14  27    6.4510   560.1    4.477      71.486
2015    2       10    14  32    6.4476   560.3    4.472      71.500
2015    2       10    14  37    6.4442   560.4    4.467      71.514
2015    2       10    14  42    6.4411   560.6    4.462      71.527
2015    2       10    14  48    6.4374   560.7    4.457      71.540
2015    2       10    14  53    6.4339   560.8    4.452      71.553
2015    2       10    14  58    6.4304   561.0    4.447      71.565
2015    2       10    15   3    6.4272   561.1    4.442      71.577
2015    2       10    15   8    6.4237   561.3    4.437      71.589
2015    2       10    15  14    6.4201   561.4    4.432      71.600
2015    2       10    15  19    6.4165   561.6    4.427      71.612
2015    2       10    15  24    6.4126   561.7    4.422      71.623
2015    2       10    15  29    6.4093   561.8    4.417      71.634
2015    2       10    15  35    6.4054   562.0    4.412      71.645
2015    2       10    15  40    6.4017   562.1    4.407      71.655
2015    2       10    15  45    6.3980   562.3    4.402      71.666
2015    2       10    15  50    6.3943   562.4    4.397      71.677
2015    2       10    15  55    6.3908   562.5    4.392      71.688
2015    2       10    16   1    6.3867   562.7    4.387      71.698
2015    2       10    16   6    6.3829   562.8    4.383      71.710
2015    2       10    16  11    6.3791   563.0    4.378      71.721
2015    2       10    16  16    6.3752   563.1    4.373      71.732
2015    2       10    16  21    6.3713   563.2    4.368      71.743
2015    2       10    16  27    6.3674   563.4    4.363      71.755
2015    2       10    16  32    6.3635   563.5    4.359      71.767
2015    2       10    16  37    6.3598   563.6    4.354      71.779
2015    2       10    16  42    6.3558   563.8    4.350      71.791
2015    2       10    16  48    6.3515   563.9    4.345      71.804
2015    2       10    16  53    6.3478   564.0    4.340      71.816
2015    2       10    16  58    6.3434   564.2    4.336      71.829
2015    2       10    17   3    6.3396   564.3    4.332      71.843
2015    2       10    17   8    6.3352   564.4    4.327      71.857
2015    2       10    17  14    6.3313   564.6    4.323      71.871
2015    2       10    17  19    6.3271   564.7    4.318      71.885
2015    2       10    17  24    6.3227   564.8    4.314      71.899
2015    2       10    17  29    6.3187   565.0    4.310      71.913
2015    2       10    17  35    6.3144   565.1    4.306      71.927
2015    2       10    17  40    6.3101   565.2    4.301      71.942
2015    2       10    17  45    6.3057   565.4    4.297      71.957
2015    2       10    17  50    6.3014   565.5    4.293      71.971
2015    2       10    17  55    6.2970   565.6    4.289      71.985
2015    2       10    18   1    6.2925   565.8    4.285      71.999
2015    2       10    18   6    6.2879   565.9    4.281      72.012
2015    2       10    18  11    6.2834   566.0    4.276      72.025
2015    2       10    18  16    6.2791   566.1    4.272      72.038
2015    2       10    18  22    6.2744   566.3    4.268      72.050
2015    2       10    18  27    6.2698   566.4    4.264      72.061
2015    2       10    18  32    6.2654   566.5    4.260      72.072
2015    2       10    18  37    6.2607   566.6    4.255      72.083
2015    2       10    18  42    6.2561   566.7    4.251      72.093
2015    2       10    18  48    6.2515   566.9    4.247      72.103
2015    2       10    18  53    6.2470   567.0    4.243      72.112
2015    2       10    18  58    6.2422   567.1    4.239      72.121
2015    2       10    19   3    6.2377   567.2    4.234      72.129
2015    2       10    19   9    6.2331   567.3    4.230      72.137
2015    2       10    19  14    6.2282   567.4    4.226      72.144
2015    2       10    19  19    6.2236   567.5    4.221      72.151
2015    2       10    19  24    6.2189   567.6    4.217      72.158
2015    2       10    19  29    6.2143   567.7    4.213      72.163
2015    2       10    19  35    6.2096   567.9    4.208      72.169
2015    2       10    19  40    6.2049   568.0    4.204      72.173
2015    2       10    19  45    6.2000   568.1    4.199      72.177
2015    2       10    19  50    6.1955   568.2    4.195      72.181
2015    2       10    19  55    6.1906   568.3    4.191      72.184
2015    2       10    20   1    6.1858   568.4    4.186      72.186
2015    2       10    20   6    6.1811   568.5    4.181      72.188
2015    2       10    20  11    6.1763   568.6    4.177      72.189
2015    2       10    20  16    6.1717   568.7    4.172      72.189
2015    2       10    20  22    6.1669   568.7    4.168      72.189
2015    2       10    20  27    6.1620   568.8    4.163      72.189
2015    2       10    20  32    6.1574   568.9    4.158      72.188
2015    2       10    20  37    6.1527   569.0    4.154      72.186
2015    2       10    20  42    6.1478   569.1    4.149      72.184
2015    2       10    20  48    6.1432   569.2    4.144      72.181
2015    2       10    20  53    6.1383   569.3    4.140      72.178
2015    2       10    20  58    6.1337   569.4    4.135      72.174
2015    2       10    21   3    6.1288   569.4    4.130      72.170
2015    2       10    21   9    6.1242   569.5    4.125      72.165
2015    2       10    21  14    6.1193   569.6    4.121      72.160
2015    2       10    21  19    6.1146   569.7    4.116      72.155
2015    2       10    21  24    6.1099   569.8    4.111      72.149
2015    2       10    21  29    6.1053   569.8    4.107      72.142
2015    2       10    21  35    6.1005   569.9    4.102      72.135
2015    2       10    21  40    6.0958   570.0    4.098      72.128
2015    2       10    21  45    6.0912   570.1    4.093      72.120
2015    2       10    21  50    6.0865   570.1    4.088      72.112
2015    2       10    21  56    6.0818   570.2    4.084      72.103
2015    2       10    22   1    6.0771   570.3    4.079      72.094
2015    2       10    22   6    6.0724   570.3    4.075      72.085
2015    2       10    22  11    6.0677   570.4    4.070      72.075
2015    2       10    22  16    6.0629   570.5    4.066      72.065
2015    2       10    22  22    6.0582   570.5    4.062      72.054
2015    2       10    22  27    6.0534   570.6    4.057      72.043
2015    2       10    22  32    6.0487   570.7    4.053      72.032
2015    2       10    22  37    6.0440   570.7    4.049      72.020
2015    2       10    22  43    6.0394   570.8    4.045      72.008
2015    2       10    22  48    6.0347   570.9    4.041      71.996
2015    2       10    22  53    6.0299   570.9    4.037      71.984
2015    2       10    22  58    6.0252   571.0    4.033      71.971
2015    2       10    23   3    6.0204   571.0    4.029      71.958
2015    2       10    23   9    6.0158   571.1    4.025      71.944
2015    2       10    23  14    6.0109   571.1    4.021      71.931
2015    2       10    23  19    6.0062   571.2    4.017      71.917
2015    2       10    23  24    6.0015   571.2    4.014      71.903
2015    2       10    23  29    5.9966   571.3    4.010      71.889
2015    2       10    23  35    5.9919   571.3    4.006      71.875
2015    2       10    23  40    5.9870   571.4    4.003      71.860
2015    2       10    23  45    5.9822   571.4    3.999      71.845
2015    2       10    23  50    5.9775   571.5    3.996      71.829
2015    2       10    23  56    5.9726   571.5    3.993      71.813
2015    2       11     0   1    5.9679   571.6    3.989      71.796
2015    2       11     0   6    5.9630   571.6    3.986      71.779
2015    2       11     0  11    5.9582   571.7    3.983      71.761
2015    2       11     0  16    5.9535   571.7    3.980      71.743
2015    2       11     0  22    5.9486   571.7    3.977      71.725
2015    2       11     0  27    5.9438   571.8    3.974      71.706
2015    2       11     0  32    5.9390   571.8    3.971      71.687
2015    2       11     0  37    5.9343   571.9    3.968      71.667
2015    2       11     0  43    5.9294   571.9    3.965      71.647
2015    2       11     0  48    5.9247   571.9    3.962      71.626
2015    2       11     0  53    5.9199   572.0    3.960      71.606
2015    2       11     0  58    5.9151   572.0    3.957      71.585
2015    2       11     1   3    5.9104   572.0    3.954      71.565
2015    2       11     1   9    5.9056   572.0    3.952      71.544
2015    2       11     1  14    5.9008   572.1    3.949      71.523
2015    2       11     1  19    5.8960   572.1    3.946      71.503
2015    2       11     1  24    5.8913   572.1    3.944      71.482
2015    2       11     1  30    5.8865   572.2    3.941      71.462
2015    2       11     1  35    5.8817   572.2    3.938      71.441
2015    2       11     1  40    5.8769   572.2    3.935      71.419
2015    2       11     1  45    5.8721   572.3    3.933      71.398
2015    2       11     1  50    5.8673   572.3    3.930      71.376
2015    2       11     1  56    5.8625   572.3    3.927      71.354
2015    2       11     2   1    5.8577   572.4    3.924      71.332
2015    2       11     2   6    5.8529   572.4    3.922      71.310
2015    2       11     2  11    5.8480   572.4    3.919      71.287
2015    2       11     2  17    5.8432   572.4    3.916      71.264
2015    2       11     2  22    5.8384   572.5    3.913      71.240
2015    2       11     2  27    5.8336   572.5    3.910      71.216
2015    2       11     2  32    5.8287   572.5    3.907      71.191
2015    2       11     2  37    5.8239   572.5    3.904      71.166
2015    2       11     2  43    5.8190   572.5    3.901      71.140
2015    2       11     2  48    5.8142   572.6    3.898      71.114
2015    2       11     2  53    5.8093   572.6    3.895      71.087
2015    2       11     2  58    5.8044   572.6    3.892      71.060
2015    2       11     3   3    5.7996   572.6    3.889      71.032
2015    2       11     3   9    5.7948   572.6    3.886      71.004
2015    2       11     3  14    5.7899   572.7    3.882      70.975
2015    2       11     3  19    5.7851   572.7    3.879      70.946
2015    2       11     3  24    5.7802   572.7    3.876      70.916
2015    2       11     3  30    5.7754   572.7    3.873      70.887
2015    2       11     3  35    5.7706   572.7    3.870      70.857
2015    2       11     3  40    5.7657   572.7    3.867      70.827
2015    2       11     3  45    5.7610   572.7    3.863      70.796
2015    2       11     3  50    5.7561   572.7    3.860      70.766
2015    2       11     3  56    5.7515   572.7    3.857      70.736
2015    2       11     4   1    5.7466   572.7    3.854      70.705
2015    2       11     4   6    5.7419   572.8    3.851      70.675
2015    2       11     4  11    5.7371   572.8    3.848      70.644
2015    2       11     4  17    5.7323   572.8    3.845      70.614
2015    2       11     4  22    5.7276   572.8    3.842      70.585
2015    2       11     4  27    5.7228   572.8    3.839      70.555
2015    2       11     4  32    5.7181   572.8    3.836      70.525
2015    2       11     4  37    5.7134   572.8    3.833      70.496
2015    2       11     4  43    5.7087   572.8    3.830      70.467
2015    2       11     4  48    5.7039   572.8    3.827      70.439
2015    2       11     4  53    5.6992   572.8    3.824      70.411
2015    2       11     4  58    5.6945   572.8    3.822      70.383
2015    2       11     5   4    5.6899   572.8    3.819      70.355
2015    2       11     5   9    5.6851   572.8    3.816      70.327
2015    2       11     5  14    5.6804   572.8    3.813      70.299
2015    2       11     5  19    5.6757   572.8    3.810      70.270
2015    2       11     5  24    5.6709   572.8    3.808      70.242
2015    2       11     5  30    5.6663   572.7    3.805      70.212
2015    2       11     5  35    5.6615   572.7    3.802      70.183
2015    2       11     5  40    5.6567   572.7    3.799      70.153
2015    2       11     5  45    5.6519   572.7    3.797      70.122
2015    2       11     5  51    5.6471   572.7    3.794      70.091
2015    2       11     5  56    5.6424   572.7    3.791      70.059
2015    2       11     6   1    5.6376   572.7    3.788      70.027
2015    2       11     6   6    5.6328   572.7    3.785      69.994
2015    2       11     6  11    5.6280   572.7    3.782      69.960
2015    2       11     6  17    5.6231   572.6    3.779      69.926
2015    2       11     6  22    5.6183   572.6    3.776      69.891
2015    2       11     6  27    5.6134   572.6    3.773      69.856
2015    2       11     6  32    5.6085   572.6    3.770      69.820
2015    2       11     6  37    5.6036   572.6    3.767      69.784
2015    2       11     6  43    5.5988   572.5    3.764      69.747
2015    2       11     6  48    5.5938   572.5    3.761      69.710
2015    2       11     6  53    5.5889   572.5    3.758      69.672
2015    2       11     6  58    5.5840   572.5    3.754      69.634
2015    2       11     7   4    5.5790   572.4    3.751      69.596
2015    2       11     7   9    5.5741   572.4    3.748      69.557
2015    2       11     7  14    5.5691   572.4    3.745      69.518
2015    2       11     7  19    5.5641   572.4    3.742      69.479
2015    2       11     7  24    5.5592   572.3    3.738      69.440
2015    2       11     7  30    5.5542   572.3    3.735      69.401
2015    2       11     7  35    5.5492   572.3    3.732      69.361
2015    2       11     7  40    5.5442   572.2    3.729      69.322
2015    2       11     7  45    5.5392   572.2    3.725      69.282
2015    2       11     7  51    5.5342   572.2    3.722      69.243
2015    2       11     7  56    5.5291   572.1    3.719      69.203
2015    2       11     8   1    5.5241   572.1    3.716      69.164
2015    2       11     8   6    5.5191   572.0    3.712      69.125
2015    2       11     8  11    5.5141   572.0    3.709      69.085
2015    2       11     8  17    5.5090   571.9    3.706      69.046
2015    2       11     8  22    5.5040   571.9    3.703      69.007
2015    2       11     8  27    5.4990   571.8    3.700      68.969
2015    2       11     8  32    5.4940   571.8    3.697      68.930
2015    2       11     8  38    5.4890   571.7    3.694      68.892
2015    2       11     8  43    5.4840   571.7    3.691      68.854
2015    2       11     8  48    5.4790   571.6    3.688      68.817
2015    2       11     8  53    5.4740   571.6    3.685      68.779
2015    2       11     8  58    5.4691   571.5    3.682      68.743
2015    2       11     9   4    5.4641   571.5    3.680      68.707
2015    2       11     9   9    5.4592   571.4    3.677      68.671
2015    2       11     9  14    5.4542   571.4    3.675      68.636
2015    2       11     9  19    5.4493   571.3    3.672      68.602
2015    2       11     9  24    5.4444   571.2    3.670      68.568
2015    2       11     9  30    5.4396   571.2    3.668      68.535
2015    2       11     9  35    5.4348   571.1    3.666      68.502
2015    2       11     9  40    5.4299   571.1    3.664      68.470
2015    2       11     9  45    5.4251   571.0    3.662      68.439
2015    2       11     9  51    5.4203   570.9    3.660      68.409
2015    2       11     9  56    5.4155   570.9    3.658      68.379
2015    2       11    10   1    5.4107   570.8    3.656      68.350
2015    2       11    10   6    5.4060   570.8    3.655      68.321
2015    2       11    10  11    5.4012   570.7    3.653      68.293
2015    2       11    10  17    5.3965   570.6    3.652      68.266
2015    2       11    10  22    5.3918   570.6    3.651      68.239
2015    2       11    10  27    5.3871   570.5    3.649      68.212
2015    2       11    10  32    5.3823   570.4    3.648      68.186
2015    2       11    10  38    5.3776   570.4    3.647      68.159
2015    2       11    10  43    5.3729   570.3    3.646      68.132
2015    2       11    10  48    5.3682   570.2    3.645      68.104
2015    2       11    10  53    5.3635   570.2    3.644      68.076
2015    2       11    10  58    5.3588   570.1    3.643      68.047
2015    2       11    11   4    5.3541   570.0    3.642      68.018
2015    2       11    11   9    5.3495   570.0    3.641      67.987
2015    2       11    11  14    5.3448   569.9    3.640      67.955
2015    2       11    11  19    5.3400   569.8    3.639      67.922
2015    2       11    11  25    5.3354   569.7    3.638      67.888
2015    2       11    11  30    5.3307   569.7    3.637      67.853
2015    2       11    11  35    5.3261   569.6    3.636      67.817
2015    2       11    11  40    5.3215   569.5    3.634      67.779
2015    2       11    11  45    5.3168   569.4    3.633      67.740
2015    2       11    11  51    5.3121   569.4    3.632      67.700
2015    2       11    11  56    5.3076   569.3    3.631      67.659
2015    2       11    12   1    5.3029   569.2    3.630      67.616
2015    2       11    12   6    5.2983   569.1    3.628      67.573
2015    2       11    12  12    5.2937   569.0    3.627      67.529
2015    2       11    12  17    5.2891   569.0    3.626      67.485
2015    2       11    12  22    5.2845   568.9    3.624      67.440
2015    2       11    12  27    5.2800   568.8    3.623      67.394
2015    2       11    12  32    5.2755   568.7    3.621      67.348
2015    2       11    12  38    5.2708   568.6    3.620      67.302
2015    2       11    12  43    5.2663   568.6    3.618      67.255
2015    2       11    12  48    5.2618   568.5    3.617      67.207
2015    2       11    12  53    5.2572   568.4    3.615      67.160
2015    2       11    12  58    5.2527   568.3    3.614      67.112
2015    2       11    13   4    5.2482   568.2    3.612      67.064
2015    2       11    13   9    5.2436   568.1    3.610      67.016
2015    2       11    13  14    5.2391   568.0    3.608      66.968
2015    2       11    13  19    5.2346   568.0    3.606      66.919
2015    2       11    13  25    5.2301   567.9    3.604      66.870
2015    2       11    13  30    5.2256   567.8    3.602      66.821
2015    2       11    13  35    5.2211   567.7    3.600      66.772
2015    2       11    13  40    5.2165   567.6    3.598      66.722
2015    2       11    13  45    5.2120   567.5    3.596      66.671
2015    2       11    13  51    5.2075   567.4    3.594      66.621
2015    2       11    13  56    5.2029   567.3    3.592      66.570
2015    2       11    14   1    5.1985   567.2    3.590      66.518
2015    2       11    14   6    5.1939   567.1    3.587      66.467
2015    2       11    14  12    5.1893   567.0    3.585      66.415
2015    2       11    14  17    5.1848   566.9    3.583      66.362
2015    2       11    14  22    5.1802   566.8    3.580      66.309
2015    2       11    14  27    5.1757   566.7    3.578      66.256
2015    2       11    14  32    5.1712   566.6    3.576      66.203
2015    2       11    14  38    5.1665   566.5    3.573      66.149
2015    2       11    14  43    5.1620   566.4    3.571      66.095
2015    2       11    14  48    5.1574   566.3    3.568      66.041
2015    2       11    14  53    5.1528   566.2    3.566      65.986
2015    2       11    14  59    5.1482   566.1    3.563      65.931
2015    2       11    15   4    5.1437   566.0    3.560      65.876
2015    2       11    15   9    5.1391   565.9    3.558      65.821
2015    2       11    15  14    5.1345   565.8    3.555      65.766
2015    2       11    15  19    5.1300   565.7    3.553      65.710
2015    2       11    15  25    5.1254   565.5    3.550      65.654
2015    2       11    15  30    5.1209   565.4    3.547      65.599
2015    2       11    15  35    5.1163   565.3    3.545      65.543
2015    2       11    15  40    5.1116   565.2    3.542      65.487
2015    2       11    15  46    5.1071   565.1    3.539      65.430
2015    2       11    15  51    5.1025   565.0    3.537      65.374
2015    2       11    15  56    5.0980   564.8    3.534      65.318
2015    2       11    16   1    5.0933   564.7    3.531      65.262
2015    2       11    16   6    5.0888   564.6    3.529      65.205
2015    2       11    16  12    5.0842   564.5    3.526      65.149
2015    2       11    16  17    5.0797   564.3    3.524      65.093
2015    2       11    16  22    5.0751   564.2    3.521      65.037
2015    2       11    16  27    5.0706   564.1    3.518      64.981
2015    2       11    16  32    5.0661   563.9    3.516      64.925
2015    2       11    16  38    5.0616   563.8    3.513      64.870
2015    2       11    16  43    5.0571   563.7    3.511      64.814
2015    2       11    16  48    5.0526   563.6    3.509      64.759
2015    2       11    16  53    5.0481   563.4    3.506      64.705
2015    2       11    16  59    5.0436   563.3    3.504      64.650
2015    2       11    17   4    5.0391   563.1    3.502      64.597
2015    2       11    17   9    5.0347   563.0    3.500      64.543
2015    2       11    17  14    5.0303   562.9    3.498      64.490
2015    2       11    17  19    5.0259   562.7    3.496      64.438
2015    2       11    17  25    5.0214   562.6    3.494      64.386
2015    2       11    17  30    5.0170   562.5    3.492      64.335
2015    2       11    17  35    5.0126   562.3    3.490      64.284
2015    2       11    17  40    5.0082   562.2    3.488      64.234
2015    2       11    17  46    5.0038   562.0    3.487      64.184
2015    2       11    17  51    4.9994   561.9    3.485      64.133
2015    2       11    17  56    4.9950   561.8    3.484      64.083
2015    2       11    18   1    4.9906   561.6    3.482      64.032
2015    2       11    18   6    4.9863   561.5    3.481      63.980
2015    2       11    18  12    4.9818   561.3    3.480      63.929
2015    2       11    18  17    4.9774   561.2    3.479      63.876
2015    2       11    18  22    4.9730   561.0    3.478      63.824
2015    2       11    18  27    4.9687   560.9    3.476      63.770
2015    2       11    18  33    4.9643   560.7    3.475      63.716
2015    2       11    18  38    4.9599   560.6    3.475      63.662
2015    2       11    18  43    4.9555   560.4    3.474      63.607
2015    2       11    18  48    4.9512   560.3    3.473      63.552
2015    2       11    18  53    4.9469   560.1    3.472      63.497
2015    2       11    18  59    4.9425   560.0    3.471      63.442
2015    2       11    19   4    4.9383   559.8    3.471      63.386
2015    2       11    19   9    4.9340   559.6    3.470      63.331
2015    2       11    19  14    4.9297   559.5    3.470      63.276
2015    2       11    19  20    4.9254   559.3    3.469      63.221
2015    2       11    19  25    4.9212   559.2    3.469      63.166
2015    2       11    19  30    4.9170   559.0    3.469      63.111
2015    2       11    19  35    4.9128   558.8    3.468      63.057
2015    2       11    19  40    4.9086   558.7    3.468      63.003
2015    2       11    19  46    4.9045   558.5    3.468      62.950
2015    2       11    19  51    4.9004   558.3    3.468      62.898
2015    2       11    19  56    4.8963   558.2    3.468      62.846
2015    2       11    20   1    4.8922   558.0    3.468      62.795
2015    2       11    20   6    4.8881   557.9    3.468      62.744
2015    2       11    20  12    4.8841   557.7    3.468      62.694
2015    2       11    20  17    4.8800   557.5    3.468      62.644
2015    2       11    20  22    4.8760   557.4    3.468      62.594
2015    2       11    20  27    4.8720   557.2    3.467      62.544
2015    2       11    20  33    4.8679   557.1    3.467      62.494
2015    2       11    20  38    4.8639   556.9    3.467      62.444
2015    2       11    20  43    4.8599   556.7    3.467      62.394
2015    2       11    20  48    4.8559   556.6    3.467      62.345
2015    2       11    20  53    4.8519   556.4    3.466      62.294
2015    2       11    20  59    4.8479   556.3    3.466      62.244
2015    2       11    21   4    4.8438   556.1    3.466      62.193
2015    2       11    21   9    4.8398   555.9    3.465      62.141
2015    2       11    21  14    4.8358   555.8    3.465      62.089
2015    2       11    21  20    4.8318   555.6    3.465      62.037
2015    2       11    21  25    4.8278   555.4    3.464      61.985
2015    2       11    21  30    4.8237   555.3    3.463      61.933
2015    2       11    21  35    4.8198   555.1    3.463      61.881
2015    2       11    21  40    4.8158   554.9    3.462      61.830
2015    2       11    21  46    4.8118   554.8    3.462      61.778
2015    2       11    21  51    4.8079   554.6    3.461      61.727
2015    2       11    21  56    4.8038   554.4    3.460      61.675
2015    2       11    22   1    4.7999   554.3    3.459      61.624
2015    2       11    22   7    4.7960   554.1    3.459      61.572
2015    2       11    22  12    4.7920   553.9    3.458      61.521
2015    2       11    22  17    4.7882   553.8    3.457      61.469
2015    2       11    22  22    4.7842   553.6    3.456      61.417
2015    2       11    22  27    4.7804   553.4    3.455      61.365
2015    2       11    22  33    4.7764   553.2    3.454      61.313
2015    2       11    22  38    4.7725   553.1    3.452      61.260
2015    2       11    22  43    4.7686   552.9    3.451      61.206
2015    2       11    22  48    4.7647   552.7    3.450      61.152
2015    2       11    22  54    4.7609   552.6    3.449      61.097
2015    2       11    22  59    4.7570   552.4    3.448      61.042
2015    2       11    23   4    4.7531   552.2    3.446      60.986
2015    2       11    23   9    4.7494   552.0    3.445      60.929
2015    2       11    23  14    4.7455   551.9    3.444      60.872
2015    2       11    23  20    4.7416   551.7    3.442      60.814
2015    2       11    23  25    4.7377   551.5    3.441      60.756
2015    2       11    23  30    4.7339   551.3    3.439      60.697
2015    2       11    23  35    4.7301   551.1    3.438      60.637
2015    2       11    23  40    4.7263   551.0    3.436      60.577
2015    2       11    23  46    4.7224   550.8    3.435      60.517
2015    2       11    23  51    4.7185   550.6    3.433      60.456
2015    2       11    23  56    4.7148   550.4    3.432      60.395
2015    2       12     0   1    4.7109   550.2    3.430      60.333
2015    2       12     0   7    4.7071   550.0    3.429      60.270
2015    2       12     0  12    4.7032   549.8    3.427      60.208
2015    2       12     0  17    4.6994   549.6    3.426      60.145
2015    2       12     0  22    4.6957   549.4    3.424      60.081
2015    2       12     0  27    4.6918   549.3    3.423      60.018
2015    2       12     0  33    4.6880   549.1    3.421      59.954
2015    2       12     0  38    4.6842   548.9    3.420      59.889
2015    2       12     0  43    4.6805   548.7    3.418      59.825
2015    2       12     0  48    4.6767   548.5    3.417      59.759
2015    2       12     0  54    4.6730   548.3    3.415      59.694
2015    2       12     0  59    4.6692   548.1    3.414      59.628
2015    2       12     1   4    4.6656   547.9    3.412      59.562
2015    2       12     1   9    4.6619   547.7    3.411      59.495
2015    2       12     1  14    4.6582   547.5    3.409      59.429
2015    2       12     1  20    4.6544   547.3    3.408      59.362
2015    2       12     1  25    4.6508   547.1    3.407      59.296
2015    2       12     1  30    4.6470   546.8    3.405      59.229
2015    2       12     1  35    4.6434   546.6    3.404      59.163
2015    2       12     1  41    4.6397   546.4    3.403      59.097
2015    2       12     1  46    4.6360   546.2    3.402      59.031
2015    2       12     1  51    4.6323   546.0    3.400      58.965
2015    2       12     1  56    4.6287   545.8    3.399      58.900
2015    2       12     2   1    4.6251   545.6    3.398      58.835
2015    2       12     2   7    4.6215   545.4    3.397      58.770
2015    2       12     2  12    4.6178   545.2    3.396      58.706
2015    2       12     2  17    4.6143   545.0    3.395      58.642
2015    2       12     2  22    4.6107   544.8    3.395      58.579
2015    2       12     2  28    4.6071   544.6    3.394      58.516
2015    2       12     2  33    4.6036   544.4    3.393      58.453
2015    2       12     2  38    4.6000   544.2    3.393      58.391
2015    2       12     2  43    4.5965   544.0    3.392      58.329
2015    2       12     2  48    4.5930   543.8    3.391      58.268
2015    2       12     2  54    4.5894   543.6    3.391      58.206
2015    2       12     2  59    4.5858   543.4    3.390      58.145
2015    2       12     3   4    4.5824   543.2    3.390      58.084
2015    2       12     3   9    4.5787   543.0    3.389      58.023
2015    2       12     3  14    4.5752   542.8    3.389      57.961
2015    2       12     3  20    4.5716   542.6    3.389      57.900
2015    2       12     3  25    4.5680   542.4    3.388      57.837
2015    2       12     3  30    4.5644   542.2    3.388      57.775
2015    2       12     3  35    4.5608   542.0    3.388      57.713
2015    2       12     3  41    4.5572   541.8    3.387      57.650
2015    2       12     3  46    4.5536   541.6    3.387      57.587
2015    2       12     3  51    4.5499   541.3    3.387      57.523
2015    2       12     3  56    4.5463   541.1    3.387      57.460
2015    2       12     4   1    4.5426   540.9    3.386      57.397
2015    2       12     4   7    4.5389   540.7    3.386      57.334
2015    2       12     4  12    4.5353   540.5    3.386      57.271
2015    2       12     4  17    4.5316   540.3    3.386      57.208
2015    2       12     4  22    4.5280   540.1    3.386      57.145
2015    2       12     4  28    4.5243   539.8    3.385      57.083
2015    2       12     4  33    4.5207   539.6    3.385      57.021
2015    2       12     4  38    4.5170   539.4    3.385      56.959
2015    2       12     4  43    4.5134   539.2    3.385      56.897
2015    2       12     4  48    4.5098   539.0    3.385      56.836
2015    2       12     4  54    4.5062   538.7    3.384      56.776
2015    2       12     4  59    4.5026   538.5    3.384      56.715
2015    2       12     5   4    4.4991   538.3    3.384      56.655
2015    2       12     5   9    4.4955   538.1    3.384      56.596
2015    2       12     5  15    4.4920   537.9    3.384      56.536
2015    2       12     5  20    4.4884   537.6    3.384      56.477
2015    2       12     5  25    4.4849   537.4    3.384      56.419
2015    2       12     5  30    4.4814   537.2    3.384      56.361
2015    2       12     5  35    4.4779   537.0    3.384      56.302
2015    2       12     5  41    4.4744   536.7    3.384      56.245
2015    2       12     5  46    4.4710   536.5    3.385      56.187
2015    2       12     5  51    4.4675   536.3    3.385      56.130
2015    2       12     5  56    4.4640   536.1    3.385      56.073
2015    2       12     6   2    4.4605   535.8    3.385      56.016
2015    2       12     6   7    4.4571   535.6    3.385      55.959
2015    2       12     6  12    4.4537   535.4    3.386      55.902
2015    2       12     6  17    4.4502   535.1    3.386      55.846
2015    2       12     6  22    4.4468   534.9    3.386      55.789
2015    2       12     6  28    4.4434   534.7    3.386      55.732
2015    2       12     6  33    4.4400   534.4    3.387      55.676
2015    2       12     6  38    4.4366   534.2    3.387      55.619
2015    2       12     6  43    4.4332   534.0    3.387      55.562
2015    2       12     6  48    4.4298   533.7    3.388      55.505
2015    2       12     6  54    4.4265   533.5    3.388      55.449
2015    2       12     6  59    4.4231   533.2    3.388      55.392
2015    2       12     7   4    4.4198   533.0    3.389      55.335
2015    2       12     7   9    4.4165   532.7    3.389      55.279
2015    2       12     7  15    4.4132   532.5    3.390      55.224
2015    2       12     7  20    4.4100   532.2    3.390      55.168
2015    2       12     7  25    4.4068   532.0    3.391      55.113
2015    2       12     7  30    4.4036   531.7    3.391      55.059
2015    2       12     7  35    4.4005   531.5    3.391      55.004
2015    2       12     7  41    4.3973   531.3    3.392      54.950
2015    2       12     7  46    4.3943   531.0    3.392      54.896
2015    2       12     7  51    4.3912   530.8    3.393      54.842
2015    2       12     7  56    4.3882   530.5    3.393      54.788
2015    2       12     8   2    4.3852   530.3    3.393      54.734
2015    2       12     8   7    4.3822   530.0    3.394      54.680
2015    2       12     8  12    4.3792   529.8    3.394      54.626
2015    2       12     8  17    4.3763   529.6    3.394      54.572
2015    2       12     8  22    4.3733   529.3    3.394      54.517
2015    2       12     8  28    4.3704   529.1    3.394      54.462
2015    2       12     8  33    4.3674   528.8    3.394      54.406
2015    2       12     8  38    4.3643   528.6    3.394      54.350
2015    2       12     8  43    4.3613   528.4    3.394      54.293
2015    2       12     8  49    4.3584   528.1    3.394      54.236
2015    2       12     8  54    4.3553   527.9    3.394      54.178
2015    2       12     8  59    4.3524   527.7    3.394      54.120
2015    2       12     9   4    4.3493   527.4    3.394      54.061
2015    2       12     9   9    4.3462   527.2    3.394      54.001
2015    2       12     9  15    4.3431   527.0    3.393      53.941
2015    2       12     9  20    4.3400   526.7    3.393      53.880
2015    2       12     9  25    4.3369   526.5    3.392      53.818
2015    2       12     9  30    4.3338   526.3    3.392      53.756
2015    2       12     9  36    4.3306   526.0    3.392      53.693
2015    2       12     9  41    4.3275   525.8    3.391      53.630
2015    2       12     9  46    4.3243   525.6    3.390      53.565
2015    2       12     9  51    4.3211   525.3    3.390      53.501
2015    2       12     9  56    4.3179   525.1    3.389      53.435
2015    2       12    10   2    4.3147   524.9    3.389      53.369
2015    2       12    10   7    4.3115   524.6    3.388      53.302
2015    2       12    10  12    4.3082   524.4    3.387      53.235
2015    2       12    10  17    4.3051   524.1    3.386      53.167
2015    2       12    10  22    4.3018   523.9    3.386      53.099
2015    2       12    10  28    4.2985   523.7    3.385      53.030
2015    2       12    10  33    4.2953   523.4    3.384      52.961
2015    2       12    10  38    4.2919   523.2    3.383      52.892
2015    2       12    10  43    4.2886   522.9    3.382      52.822
2015    2       12    10  49    4.2854   522.7    3.382      52.751
2015    2       12    10  54    4.2821   522.4    3.381      52.680
2015    2       12    10  59    4.2789   522.2    3.380      52.609
2015    2       12    11   4    4.2755   521.9    3.379      52.538
2015    2       12    11   9    4.2724   521.7    3.379      52.467
2015    2       12    11  15    4.2690   521.4    3.378      52.396
2015    2       12    11  20    4.2659   521.2    3.377      52.325
2015    2       12    11  25    4.2626   520.9    3.377      52.253
2015    2       12    11  30    4.2594   520.6    3.376      52.182
2015    2       12    11  36    4.2562   520.4    3.375      52.111
2015    2       12    11  41    4.2529   520.1    3.375      52.041
2015    2       12    11  46    4.2498   519.9    3.374      51.970
2015    2       12    11  51    4.2466   519.6    3.374      51.900
2015    2       12    11  56    4.2434   519.4    3.373      51.831
2015    2       12    12   2    4.2404   519.1    3.373      51.762
2015    2       12    12   7    4.2372   518.8    3.373      51.693
2015    2       12    12  12    4.2341   518.6    3.373      51.625
2015    2       12    12  17    4.2310   518.3    3.372      51.558
2015    2       12    12  23    4.2279   518.0    3.372      51.491
2015    2       12    12  28    4.2248   517.8    3.372      51.424
2015    2       12    12  33    4.2218   517.5    3.372      51.358
2015    2       12    12  38    4.2187   517.2    3.372      51.292
2015    2       12    12  43    4.2157   517.0    3.372      51.227
2015    2       12    12  49    4.2127   516.7    3.372      51.161
2015    2       12    12  54    4.2096   516.4    3.372      51.097
2015    2       12    12  59    4.2066   516.2    3.373      51.032
2015    2       12    13   4    4.2036   515.9    3.373      50.968
2015    2       12    13   9    4.2007   515.6    3.373      50.904
2015    2       12    13  15    4.1977   515.3    3.373      50.840
2015    2       12    13  20    4.1947   515.1    3.374      50.777
2015    2       12    13  25    4.1918   514.8    3.374      50.714
2015    2       12    13  30    4.1889   514.5    3.375      50.651
2015    2       12    13  36    4.1860   514.2    3.375      50.588
2015    2       12    13  41    4.1831   513.9    3.376      50.527
2015    2       12    13  46    4.1802   513.6    3.376      50.466
2015    2       12    13  51    4.1774   513.3    3.377      50.406
2015    2       12    13  56    4.1746   513.0    3.378      50.346
2015    2       12    14   2    4.1718   512.8    3.379      50.287
2015    2       12    14   7    4.1691   512.5    3.380      50.229
2015    2       12    14  12    4.1665   512.2    3.381      50.172
2015    2       12    14  17    4.1638   511.9    3.381      50.115
2015    2       12    14  23    4.1612   511.6    3.382      50.059
2015    2       12    14  28    4.1587   511.3    3.384      50.003
2015    2       12    14  33    4.1562   511.0    3.385      49.949
2015    2       12    14  38    4.1536   510.7    3.386      49.894
2015    2       12    14  43    4.1512   510.5    3.387      49.841
2015    2       12    14  49    4.1487   510.2    3.388      49.788
2015    2       12    14  54    4.1463   509.9    3.389      49.736
2015    2       12    14  59    4.1439   509.6    3.391      49.683
2015    2       12    15   4    4.1415   509.3    3.392      49.632
2015    2       12    15  10    4.1391   509.0    3.393      49.580
2015    2       12    15  15    4.1367   508.8    3.395      49.529
2015    2       12    15  20    4.1343   508.5    3.396      49.478
2015    2       12    15  25    4.1318   508.2    3.397      49.427
2015    2       12    15  30    4.1294   507.9    3.399      49.376
2015    2       12    15  36    4.1270   507.7    3.400      49.325
2015    2       12    15  41    4.1245   507.4    3.402      49.275
2015    2       12    15  46    4.1221   507.1    3.403      49.224
2015    2       12    15  51    4.1196   506.8    3.404      49.174
2015    2       12    15  57    4.1171   506.6    3.406      49.123
2015    2       12    16   2    4.1146   506.3    3.407      49.072
2015    2       12    16   7    4.1121   506.0    3.409      49.021
2015    2       12    16  12    4.1095   505.7    3.410      48.969
2015    2       12    16  17    4.1070   505.5    3.411      48.918
2015    2       12    16  23    4.1044   505.2    3.412      48.866
2015    2       12    16  28    4.1018   504.9    3.414      48.813
2015    2       12    16  33    4.0992   504.6    3.415      48.760
2015    2       12    16  38    4.0966   504.3    3.416      48.707
2015    2       12    16  44    4.0940   504.0    3.417      48.653
2015    2       12    16  49    4.0913   503.8    3.418      48.599
2015    2       12    16  54    4.0887   503.5    3.420      48.545
2015    2       12    16  59    4.0860   503.2    3.421      48.490
2015    2       12    17   4    4.0834   502.9    3.422      48.435
2015    2       12    17  10    4.0808   502.6    3.423      48.379
2015    2       12    17  15    4.0782   502.3    3.424      48.324
2015    2       12    17  20    4.0755   502.0    3.425      48.268
2015    2       12    17  25    4.0730   501.7    3.426      48.212
2015    2       12    17  30    4.0704   501.4    3.427      48.155
2015    2       12    17  36    4.0679   501.1    3.428      48.099
2015    2       12    17  41    4.0653   500.9    3.429      48.043
2015    2       12    17  46    4.0628   500.6    3.430      47.986
2015    2       12    17  51    4.0603   500.3    3.431      47.930
2015    2       12    17  57    4.0578   500.0    3.432      47.874
2015    2       12    18   2    4.0555   499.7    3.433      47.817
2015    2       12    18   7    4.0530   499.4    3.434      47.761
2015    2       12    18  12    4.0507   499.1    3.435      47.705
2015    2       12    18  17    4.0483   498.8    3.436      47.648
2015    2       12    18  23    4.0460   498.5    3.437      47.591
2015    2       12    18  28    4.0436   498.2    3.438      47.534
2015    2       12    18  33    4.0413   498.0    3.439      47.477
2015    2       12    18  38    4.0390   497.7    3.440      47.420
2015    2       12    18  44    4.0367   497.4    3.441      47.363
2015    2       12    18  49    4.0344   497.1    3.442      47.306
2015    2       12    18  54    4.0321   496.8    3.443      47.248
2015    2       12    18  59    4.0298   496.5    3.443      47.190
2015    2       12    19   4    4.0276   496.2    3.444      47.132
2015    2       12    19  10    4.0253   495.9    3.445      47.074
2015    2       12    19  15    4.0229   495.6    3.446      47.015
2015    2       12    19  20    4.0206   495.3    3.447      46.956
2015    2       12    19  25    4.0184   495.0    3.447      46.897
2015    2       12    19  31    4.0161   494.7    3.448      46.837
2015    2       12    19  36    4.0138   494.4    3.449      46.777
2015    2       12    19  41    4.0115   494.1    3.450      46.716
2015    2       12    19  46    4.0092   493.8    3.450      46.656
2015    2       12    19  51    4.0069   493.5    3.451      46.594
2015    2       12    19  57    4.0046   493.2    3.452      46.533
2015    2       12    20   2    4.0023   492.9    3.452      46.471
2015    2       12    20   7    4.0001   492.6    3.453      46.409
2015    2       12    20  12    3.9977   492.3    3.454      46.347
2015    2       12    20  17    3.9954   492.0    3.454      46.285
2015    2       12    20  23    3.9931   491.7    3.455      46.222
2015    2       12    20  28    3.9908   491.4    3.456      46.159
2015    2       12    20  33    3.9885   491.1    3.456      46.096
2015    2       12    20  38    3.9863   490.7    3.457      46.033
2015    2       12    20  44    3.9840   490.4    3.458      45.970
2015    2       12    20  49    3.9817   490.1    3.459      45.907
2015    2       12    20  54    3.9795   489.8    3.459      45.845
2015    2       12    20  59    3.9772   489.5    3.460      45.782
2015    2       12    21   4    3.9750   489.2    3.461      45.720
2015    2       12    21  10    3.9729   488.9    3.462      45.657
2015    2       12    21  15    3.9706   488.6    3.463      45.596
2015    2       12    21  20    3.9685   488.2    3.464      45.534
2015    2       12    21  25    3.9663   487.9    3.465      45.473
2015    2       12    21  31    3.9642   487.6    3.466      45.412
2015    2       12    21  36    3.9621   487.3    3.467      45.352
2015    2       12    21  41    3.9600   487.0    3.468      45.292
2015    2       12    21  46    3.9579   486.7    3.470      45.233
2015    2       12    21  51    3.9558   486.4    3.471      45.174
2015    2       12    21  57    3.9538   486.1    3.472      45.116
2015    2       12    22   2    3.9517   485.8    3.474      45.059
2015    2       12    22   7    3.9497   485.4    3.475      45.001
2015    2       12    22  12    3.9477   485.1    3.477      44.944
2015    2       12    22  18    3.9457   484.8    3.478      44.888
2015    2       12    22  23    3.9437   484.5    3.480      44.832
2015    2       12    22  28    3.9417   484.2    3.481      44.776
2015    2       12    22  33    3.9397   483.9    3.483      44.721
2015    2       12    22  38    3.9378   483.6    3.485      44.666
2015    2       12    22  44    3.9358   483.2    3.486      44.611
2015    2       12    22  49    3.9338   482.9    3.488      44.556
2015    2       12    22  54    3.9318   482.6    3.490      44.501
2015    2       12    22  59    3.9298   482.3    3.492      44.447
2015    2       12    23   5    3.9279   482.0    3.494      44.392
2015    2       12    23  10    3.9259   481.6    3.496      44.337
2015    2       12    23  15    3.9239   481.3    3.497      44.282
2015    2       12    23  20    3.9220   481.0    3.499      44.228
2015    2       12    23  25    3.9200   480.7    3.501      44.173
2015    2       12    23  31    3.9181   480.3    3.503      44.118
2015    2       12    23  36    3.9162   480.0    3.505      44.063
2015    2       12    23  41    3.9142   479.7    3.508      44.008
2015    2       12    23  46    3.9123   479.3    3.510      43.953
2015    2       12    23  51    3.9104   479.0    3.512      43.899
2015    2       12    23  57    3.9086   478.7    3.514      43.844
2015    2       13     0   2    3.9068   478.3    3.517      43.790
2015    2       13     0   7    3.9050   478.0    3.519      43.736
2015    2       13     0  12    3.9033   477.6    3.521      43.682
2015    2       13     0  18    3.9016   477.3    3.524      43.629
2015    2       13     0  23    3.8999   476.9    3.527      43.577
2015    2       13     0  28    3.8983   476.6    3.530      43.525
2015    2       13     0  33    3.8968   476.3    3.532      43.474
2015    2       13     0  38    3.8953   475.9    3.535      43.423
2015    2       13     0  44    3.8939   475.6    3.538      43.374
2015    2       13     0  49    3.8926   475.2    3.542      43.325
2015    2       13     0  54    3.8913   474.9    3.545      43.277
2015    2       13     0  59    3.8901   474.5    3.548      43.229
2015    2       13     1   5    3.8888   474.2    3.552      43.183
2015    2       13     1  10    3.8877   473.9    3.555      43.136
2015    2       13     1  15    3.8867   473.5    3.559      43.091
2015    2       13     1  20    3.8857   473.2    3.563      43.046
2015    2       13     1  25    3.8847   472.8    3.566      43.002
2015    2       13     1  31    3.8839   472.5    3.570      42.959
2015    2       13     1  36    3.8829   472.2    3.574      42.916
2015    2       13     1  41    3.8821   471.8    3.578      42.873
2015    2       13     1  46    3.8813   471.5    3.582      42.830
2015    2       13     1  52    3.8806   471.2    3.586      42.788
2015    2       13     1  57    3.8798   470.9    3.590      42.746
2015    2       13     2   2    3.8791   470.5    3.595      42.705
2015    2       13     2   7    3.8785   470.2    3.599      42.663
2015    2       13     2  12    3.8778   469.9    3.603      42.622
2015    2       13     2  18    3.8771   469.5    3.607      42.580
2015    2       13     2  23    3.8764   469.2    3.611      42.539
2015    2       13     2  28    3.8758   468.9    3.616      42.497
2015    2       13     2  33    3.8751   468.6    3.620      42.456
2015    2       13     2  38    3.8745   468.2    3.624      42.414
2015    2       13     2  44    3.8739   467.9    3.628      42.372
2015    2       13     2  49    3.8733   467.6    3.632      42.330
2015    2       13     2  54    3.8726   467.2    3.636      42.288
2015    2       13     2  59    3.8719   466.9    3.640      42.246
2015    2       13     3   5    3.8713   466.6    3.644      42.203
2015    2       13     3  10    3.8707   466.3    3.648      42.160
2015    2       13     3  15    3.8701   465.9    3.652      42.117
2015    2       13     3  20    3.8694   465.6    3.656      42.074
2015    2       13     3  25    3.8688   465.3    3.660      42.030
2015    2       13     3  31    3.8684   464.9    3.664      41.986
2015    2       13     3  36    3.8678   464.6    3.667      41.942
2015    2       13     3  41    3.8671   464.3    3.671      41.898
2015    2       13     3  46    3.8665   463.9    3.675      41.853
2015    2       13     3  52    3.8661   463.6    3.678      41.809
2015    2       13     3  57    3.8656   463.3    3.682      41.764
2015    2       13     4   2    3.8650   463.0    3.686      41.718
2015    2       13     4   7    3.8645   462.6    3.689      41.673
2015    2       13     4  12    3.8640   462.3    3.693      41.627
2015    2       13     4  18    3.8635   462.0    3.696      41.581
2015    2       13     4  23    3.8632   461.6    3.700      41.535
2015    2       13     4  28    3.8627   461.3    3.703      41.489
2015    2       13     4  33    3.8622   461.0    3.707      41.443
2015    2       13     4  39    3.8619   460.7    3.710      41.396
2015    2       13     4  44    3.8615   460.3    3.714      41.349
2015    2       13     4  49    3.8613   460.0    3.717      41.302
2015    2       13     4  54    3.8608   459.7    3.721      41.255
2015    2       13     4  59    3.8605   459.3    3.724      41.207
2015    2       13     5   5    3.8603   459.0    3.728      41.159
2015    2       13     5  10    3.8599   458.7    3.731      41.111
2015    2       13     5  15    3.8598   458.3    3.734      41.062
2015    2       13     5  20    3.8595   458.0    3.738      41.014
2015    2       13     5  26    3.8591   457.7    3.741      40.965
2015    2       13     5  31    3.8589   457.3    3.745      40.916
2015    2       13     5  36    3.8587   457.0    3.748      40.867
2015    2       13     5  41    3.8587   456.7    3.752      40.817
2015    2       13     5  46    3.8584   456.3    3.755      40.767
2015    2       13     5  52    3.8584   456.0    3.759      40.718
2015    2       13     5  57    3.8581   455.7    3.762      40.668
2015    2       13     6   2    3.8583   455.3    3.766      40.618
2015    2       13     6   7    3.8580   455.0    3.769      40.568
2015    2       13     6  12    3.8582   454.7    3.773      40.518
2015    2       13     6  18    3.8582   454.3    3.777      40.468
2015    2       13     6  23    3.8580   454.0    3.781      40.418
2015    2       13     6  28    3.8583   453.6    3.785      40.368
2015    2       13     6  33    3.8584   453.3    3.789      40.319
2015    2       13     6  39    3.8586   453.0    3.793      40.270
2015    2       13     6  44    3.8586   452.6    3.797      40.221
2015    2       13     6  49    3.8588   452.3    3.801      40.172
2015    2       13     6  54    3.8590   451.9    3.806      40.124
2015    2       13     6  59    3.8594   451.6    3.810      40.076
2015    2       13     7   5    3.8599   451.3    3.815      40.029
2015    2       13     7  10    3.8601   450.9    3.819      39.982
2015    2       13     7  15    3.8608   450.6    3.824      39.936
2015    2       13     7  20    3.8611   450.3    3.829      39.891
2015    2       13     7  26    3.8617   449.9    3.834      39.846
2015    2       13     7  31    3.8623   449.6    3.839      39.802
2015    2       13     7  36    3.8631   449.3    3.844      39.758
2015    2       13     7  41    3.8636   448.9    3.850      39.716
2015    2       13     7  46    3.8644   448.6    3.855      39.674
2015    2       13     7  52    3.8654   448.3    3.861      39.632
2015    2       13     7  57    3.8661   448.0    3.867      39.592
2015    2       13     8   2    3.8670   447.6    3.872      39.552
2015    2       13     8   7    3.8679   447.3    3.878      39.512
2015    2       13     8  13    3.8689   447.0    3.884      39.474
2015    2       13     8  18    3.8701   446.7    3.890      39.436
2015    2       13     8  23    3.8712   446.4    3.897      39.398
2015    2       13     8  28    3.8723   446.0    3.903      39.361
2015    2       13     8  33    3.8733   445.7    3.909      39.325
2015    2       13     8  39    3.8745   445.4    3.916      39.289
2015    2       13     8  44    3.8757   445.1    3.922      39.253
2015    2       13     8  49    3.8769   444.8    3.929      39.218
2015    2       13     8  54    3.8784   444.5    3.935      39.183
2015    2       13     8  59    3.8796   444.2    3.942      39.149
2015    2       13     9   5    3.8809   443.9    3.948      39.115
2015    2       13     9  10    3.8825   443.6    3.955      39.081
2015    2       13     9  15    3.8837   443.2    3.962      39.047
2015    2       13     9  20    3.8851   442.9    3.968      39.014
2015    2       13     9  26    3.8868   442.6    3.975      38.981
2015    2       13     9  31    3.8881   442.3    3.982      38.948
2015    2       13     9  36    3.8898   442.0    3.989      38.916
2015    2       13     9  41    3.8912   441.7    3.995      38.883
2015    2       13     9  46    3.8928   441.4    4.002      38.851
2015    2       13     9  52    3.8944   441.1    4.009      38.819
2015    2       13     9  57    3.8961   440.8    4.016      38.787
2015    2       13    10   2    3.8978   440.5    4.023      38.755
2015    2       13    10   7    3.8998   440.2    4.030      38.724
2015    2       13    10  13    3.9016   439.9    4.037      38.693
2015    2       13    10  18    3.9032   439.6    4.044      38.662
2015    2       13    10  23    3.9051   439.3    4.050      38.631
2015    2       13    10  28    3.9072   439.0    4.057      38.601
2015    2       13    10  33    3.9089   438.7    4.064      38.571
2015    2       13    10  39    3.9109   438.4    4.071      38.541
2015    2       13    10  44    3.9130   438.1    4.078      38.511
2015    2       13    10  49    3.9151   437.8    4.086      38.481
2015    2       13    10  54    3.9173   437.5    4.093      38.452
2015    2       13    11   0    3.9194   437.2    4.100      38.423
2015    2       13    11   5    3.9219   436.9    4.107      38.395
2015    2       13    11  10    3.9242   436.6    4.114      38.366
2015    2       13    11  15    3.9263   436.3    4.121      38.338
2015    2       13    11  20    3.9289   436.0    4.129      38.310
2015    2       13    11  26    3.9313   435.8    4.136      38.282
2015    2       13    11  31    3.9337   435.5    4.143      38.255
2015    2       13    11  36    3.9360   435.2    4.151      38.228
2015    2       13    11  41    3.9385   434.9    4.158      38.201
2015    2       13    11  46    3.9413   434.6    4.165      38.174
2015    2       13    11  52    3.9436   434.3    4.173      38.147
2015    2       13    11  57    3.9462   434.1    4.180      38.121
2015    2       13    12   2    3.9491   433.8    4.188      38.095
2015    2       13    12   7    3.9515   433.5    4.195      38.069
2015    2       13    12  13    3.9542   433.2    4.203      38.043
2015    2       13    12  18    3.9569   433.0    4.210      38.017
2015    2       13    12  23    3.9596   432.7    4.218      37.991
2015    2       13    12  28    3.9627   432.4    4.226      37.966
2015    2       13    12  33    3.9654   432.2    4.233      37.941
2015    2       13    12  39    3.9682   431.9    4.241      37.915
2015    2       13    12  44    3.9707   431.6    4.249      37.890
2015    2       13    12  49    3.9736   431.4    4.257      37.865
2015    2       13    12  54    3.9764   431.1    4.264      37.840
2015    2       13    13   0    3.9793   430.8    4.272      37.815
2015    2       13    13   5    3.9821   430.6    4.280      37.791
2015    2       13    13  10    3.9853   430.3    4.288      37.766
2015    2       13    13  15    3.9879   430.0    4.296      37.741
2015    2       13    13  20    3.9910   429.8    4.304      37.716
2015    2       13    13  26    3.9939   429.5    4.312      37.692
2015    2       13    13  31    3.9966   429.3    4.320      37.667
2015    2       13    13  36    3.9995   429.0    4.328      37.643
2015    2       13    13  41    4.0027   428.7    4.336      37.618
2015    2       13    13  47    4.0054   428.5    4.344      37.594
2015    2       13    13  52    4.0084   428.2    4.352      37.570
2015    2       13    13  57    4.0116   428.0    4.360      37.545
2015    2       13    14   2    4.0143   427.7    4.368      37.521
2015    2       13    14   7    4.0176   427.5    4.376      37.497
2015    2       13    14  13    4.0203   427.2    4.384      37.473
2015    2       13    14  18    4.0236   426.9    4.393      37.449
2015    2       13    14  23    4.0267   426.7    4.401      37.425
2015    2       13    14  28    4.0294   426.4    4.409      37.401
2015    2       13    14  33    4.0328   426.2    4.417      37.377
2015    2       13    14  39    4.0358   425.9    4.426      37.352
2015    2       13    14  44    4.0389   425.7    4.434      37.329
2015    2       13    14  49    4.0420   425.4    4.442      37.305
2015    2       13    14  54    4.0452   425.2    4.451      37.281
2015    2       13    15   0    4.0480   424.9    4.459      37.257
2015    2       13    15   5    4.0515   424.7    4.467      37.234
2015    2       13    15  10    4.0546   424.4    4.476      37.210
2015    2       13    15  15    4.0576   424.2    4.484      37.187
2015    2       13    15  20    4.0611   423.9    4.493      37.163
2015    2       13    15  26    4.0641   423.7    4.501      37.140
2015    2       13    15  31    4.0676   423.5    4.510      37.117
2015    2       13    15  36    4.0709   423.2    4.518      37.094
2015    2       13    15  41    4.0742   423.0    4.527      37.072
2015    2       13    15  47    4.0774   422.7    4.535      37.049
2015    2       13    15  52    4.0807   422.5    4.544      37.026
2015    2       13    15  57    4.0842   422.2    4.553      37.004
2015    2       13    16   2    4.0876   422.0    4.561      36.982
2015    2       13    16   7    4.0911   421.8    4.570      36.960
2015    2       13    16  13    4.0949   421.5    4.579      36.939
2015    2       13    16  18    4.0984   421.3    4.588      36.917
2015    2       13    16  23    4.1020   421.0    4.597      36.896
2015    2       13    16  28    4.1057   420.8    4.606      36.875
2015    2       13    16  34    4.1094   420.6    4.615      36.855
2015    2       13    16  39    4.1131   420.3    4.624      36.834
2015    2       13    16  44    4.1166   420.1    4.633      36.815
2015    2       13    16  49    4.1204   419.9    4.642      36.795
2015    2       13    16  54    4.1242   419.6    4.651      36.775
2015    2       13    17   0    4.1281   419.4    4.660      36.756
2015    2       13    17   5    4.1321   419.2    4.669      36.737
2015    2       13    17  10    4.1360   418.9    4.679      36.719
2015    2       13    17  15    4.1403   418.7    4.688      36.701
2015    2       13    17  21    4.1443   418.5    4.697      36.683
2015    2       13    17  26    4.1482   418.3    4.707      36.666
2015    2       13    17  31    4.1526   418.0    4.716      36.648
2015    2       13    17  36    4.1566   417.8    4.726      36.632
2015    2       13    17  41    4.1610   417.6    4.735      36.615
2015    2       13    17  47    4.1650   417.4    4.745      36.599
2015    2       13    17  52    4.1694   417.2    4.755      36.584
2015    2       13    17  57    4.1737   416.9    4.765      36.568
2015    2       13    18   2    4.1783   416.7    4.775      36.553
2015    2       13    18   7    4.1828   416.5    4.785      36.539
2015    2       13    18  13    4.1871   416.3    4.795      36.525
2015    2       13    18  18    4.1918   416.1    4.805      36.511
2015    2       13    18  23    4.1963   415.9    4.815      36.497
2015    2       13    18  28    4.2009   415.7    4.825      36.484
2015    2       13    18  34    4.2055   415.5    4.835      36.471
2015    2       13    18  39    4.2102   415.2    4.845      36.459
2015    2       13    18  44    4.2149   415.0    4.856      36.447
2015    2       13    18  49    4.2194   414.8    4.866      36.435
2015    2       13    18  54    4.2241   414.6    4.877      36.424
2015    2       13    19   0    4.2291   414.4    4.887      36.413
2015    2       13    19   5    4.2337   414.2    4.898      36.402
2015    2       13    19  10    4.2385   414.0    4.908      36.392
2015    2       13    19  15    4.2434   413.8    4.919      36.382
2015    2       13    19  21    4.2482   413.6    4.930      36.373
2015    2       13    19  26    4.2533   413.4    4.941      36.364
2015    2       13    19  31    4.2582   413.2    4.952      36.355
2015    2       13    19  36    4.2632   413.0    4.962      36.346
2015    2       13    19  41    4.2681   412.9    4.973      36.338
2015    2       13    19  47    4.2730   412.7    4.984      36.331
2015    2       13    19  52    4.2780   412.5    4.995      36.323
2015    2       13    19  57    4.2828   412.3    5.006      36.316
2015    2       13    20   2    4.2879   412.1    5.018      36.309
2015    2       13    20   8    4.2929   411.9    5.029      36.303
2015    2       13    20  13    4.2979   411.7    5.040      36.296
2015    2       13    20  18    4.3029   411.5    5.051      36.290
2015    2       13    20  23    4.3079   411.4    5.062      36.285
2015    2       13    20  28    4.3127   411.2    5.074      36.279
2015    2       13    20  34    4.3177   411.0    5.085      36.274
2015    2       13    20  39    4.3228   410.8    5.096      36.269
2015    2       13    20  44    4.3278   410.6    5.108      36.264
2015    2       13    20  49    4.3328   410.5    5.119      36.260
2015    2       13    20  55    4.3380   410.3    5.130      36.256
2015    2       13    21   0    4.3431   410.1    5.142      36.252
2015    2       13    21   5    4.3482   409.9    5.153      36.248
2015    2       13    21  10    4.3532   409.8    5.165      36.244
2015    2       13    21  15    4.3583   409.6    5.176      36.241
2015    2       13    21  21    4.3632   409.4    5.188      36.238
2015    2       13    21  26    4.3684   409.2    5.199      36.235
2015    2       13    21  31    4.3735   409.1    5.211      36.232
2015    2       13    21  36    4.3784   408.9    5.222      36.229
2015    2       13    21  42    4.3837   408.7    5.234      36.227
2015    2       13    21  47    4.3887   408.6    5.245      36.224
2015    2       13    21  52    4.3940   408.4    5.257      36.222
2015    2       13    21  57    4.3991   408.2    5.268      36.220
2015    2       13    22   2    4.4041   408.1    5.280      36.218
2015    2       13    22   8    4.4092   407.9    5.291      36.216
2015    2       13    22  13    4.4144   407.8    5.303      36.214
2015    2       13    22  18    4.4195   407.6    5.315      36.213
2015    2       13    22  23    4.4247   407.4    5.326      36.211
2015    2       13    22  29    4.4299   407.3    5.338      36.210
2015    2       13    22  34    4.4352   407.1    5.349      36.209
2015    2       13    22  39    4.4404   407.0    5.361      36.208
2015    2       13    22  44    4.4456   406.8    5.373      36.206
2015    2       13    22  49    4.4510   406.6    5.385      36.206
2015    2       13    22  55    4.4562   406.5    5.396      36.205
2015    2       13    23   0    4.4616   406.3    5.408      36.204
2015    2       13    23   5    4.4668   406.2    5.420      36.204
2015    2       13    23  10    4.4721   406.0    5.431      36.204
2015    2       13    23  15    4.4774   405.9    5.443      36.204
2015    2       13    23  21    4.4828   405.7    5.455      36.204
2015    2       13    23  26    4.4882   405.6    5.467      36.204
2015    2       13    23  31    4.4938   405.4    5.479      36.204
2015    2       13    23  36    4.4992   405.3    5.491      36.205
2015    2       13    23  42    4.5047   405.1    5.503      36.205
2015    2       13    23  47    4.5102   405.0    5.515      36.206
2015    2       13    23  52    4.5155   404.8    5.527      36.207
2015    2       13    23  57    4.5212   404.7    5.539      36.209
2015    2       14     0   2    4.5268   404.5    5.551      36.210
2015    2       14     0   8    4.5322   404.4    5.563      36.212
2015    2       14     0  13    4.5380   404.2    5.575      36.214
2015    2       14     0  18    4.5435   404.1    5.587      36.216
2015    2       14     0  23    4.5493   404.0    5.599      36.218
2015    2       14     0  29    4.5549   403.8    5.611      36.221
2015    2       14     0  34    4.5606   403.7    5.624      36.224
2015    2       14     0  39    4.5664   403.5    5.636      36.227
2015    2       14     0  44    4.5723   403.4    5.648      36.230
2015    2       14     0  49    4.5781   403.3    5.661      36.234
2015    2       14     0  55    4.5838   403.1    5.673      36.237
2015    2       14     1   0    4.5899   403.0    5.685      36.242
2015    2       14     1   5    4.5956   402.8    5.698      36.246
2015    2       14     1  10    4.6017   402.7    5.710      36.250
2015    2       14     1  16    4.6077   402.6    5.723      36.255
2015    2       14     1  21    4.6135   402.4    5.735      36.260
2015    2       14     1  26    4.6197   402.3    5.748      36.266
2015    2       14     1  31    4.6258   402.2    5.760      36.271
2015    2       14     1  36    4.6318   402.1    5.773      36.277
2015    2       14     1  42    4.6379   401.9    5.786      36.284
2015    2       14     1  47    4.6441   401.8    5.798      36.290
2015    2       14     1  52    4.6502   401.7    5.811      36.297
2015    2       14     1  57    4.6563   401.6    5.824      36.304
2015    2       14     2   3    4.6627   401.4    5.836      36.312
2015    2       14     2   8    4.6688   401.3    5.849      36.319
2015    2       14     2  13    4.6751   401.2    5.862      36.327
2015    2       14     2  18    4.6814   401.1    5.874      36.335
2015    2       14     2  23    4.6877   400.9    5.887      36.344
2015    2       14     2  29    4.6942   400.8    5.900      36.352
2015    2       14     2  34    4.7004   400.7    5.913      36.361
2015    2       14     2  39    4.7068   400.6    5.925      36.370
2015    2       14     2  44    4.7134   400.5    5.938      36.380
2015    2       14     2  50    4.7198   400.4    5.951      36.389
2015    2       14     2  55    4.7261   400.3    5.963      36.399
2015    2       14     3   0    4.7326   400.1    5.976      36.409
2015    2       14     3   5    4.7392   400.0    5.989      36.419
2015    2       14     3  11    4.7455   399.9    6.002      36.429
2015    2       14     3  16    4.7521   399.8    6.014      36.439
2015    2       14     3  21    4.7587   399.7    6.027      36.449
2015    2       14     3  26    4.7650   399.6    6.040      36.460
2015    2       14     3  31    4.7716   399.5    6.052      36.470
2015    2       14     3  37    4.7781   399.4    6.065      36.481
2015    2       14     3  42    4.7847   399.3    6.078      36.492
2015    2       14     3  47    4.7912   399.2    6.090      36.502
2015    2       14     3  52    4.7978   399.1    6.103      36.513
2015    2       14     3  58    4.8044   399.0    6.116      36.524
2015    2       14     4   3    4.8109   398.9    6.128      36.534
2015    2       14     4   8    4.8175   398.8    6.141      36.545
2015    2       14     4  13    4.8242   398.7    6.153      36.556
2015    2       14     4  18    4.8307   398.6    6.166      36.567
2015    2       14     4  24    4.8374   398.5    6.178      36.578
2015    2       14     4  29    4.8440   398.4    6.191      36.589
2015    2       14     4  34    4.8506   398.3    6.204      36.600
2015    2       14     4  39    4.8571   398.2    6.216      36.612
2015    2       14     4  45    4.8637   398.1    6.229      36.623
2015    2       14     4  50    4.8703   398.0    6.241      36.634
2015    2       14     4  55    4.8770   397.9    6.254      36.646
2015    2       14     5   0    4.8837   397.8    6.266      36.657
2015    2       14     5   5    4.8902   397.7    6.279      36.669
2015    2       14     5  11    4.8968   397.6    6.292      36.681
2015    2       14     5  16    4.9034   397.5    6.304      36.693
2015    2       14     5  21    4.9101   397.4    6.317      36.705
2015    2       14     5  26    4.9168   397.3    6.329      36.717
2015    2       14     5  31    4.9234   397.2    6.342      36.730
2015    2       14     5  37    4.9301   397.1    6.355      36.742
2015    2       14     5  42    4.9368   397.1    6.368      36.755
2015    2       14     5  47    4.9437   397.0    6.380      36.769
2015    2       14     5  52    4.9502   396.9    6.393      36.782
2015    2       14     5  58    4.9571   396.8    6.406      36.796
2015    2       14     6   3    4.9637   396.7    6.419      36.810
2015    2       14     6   8    4.9707   396.6    6.432      36.824
2015    2       14     6  13    4.9773   396.5    6.445      36.838
2015    2       14     6  18    4.9841   396.4    6.458      36.853
2015    2       14     6  24    4.9909   396.4    6.471      36.868
2015    2       14     6  29    4.9979   396.3    6.484      36.884
2015    2       14     6  34    5.0047   396.2    6.497      36.900
2015    2       14     6  39    5.0117   396.1    6.510      36.916
2015    2       14     6  45    5.0186   396.0    6.524      36.933
2015    2       14     6  50    5.0254   395.9    6.537      36.950
2015    2       14     6  55    5.0324   395.9    6.550      36.968
2015    2       14     7   0    5.0395   395.8    6.564      36.986
2015    2       14     7   5    5.0463   395.7    6.577      37.004
2015    2       14     7  11    5.0533   395.6    6.591      37.023
2015    2       14     7  16    5.0605   395.5    6.604      37.042
2015    2       14     7  21    5.0676   395.5    6.618      37.062
2015    2       14     7  26    5.0745   395.4    6.631      37.082
2015    2       14     7  32    5.0816   395.3    6.645      37.103
2015    2       14     7  37    5.0887   395.3    6.658      37.123
2015    2       14     7  42    5.0960   395.2    6.672      37.145
2015    2       14     7  47    5.1032   395.1    6.685      37.166
2015    2       14     7  52    5.1103   395.0    6.699      37.188
2015    2       14     7  58    5.1174   395.0    6.712      37.210
2015    2       14     8   3    5.1246   394.9    6.726      37.232
2015    2       14     8   8    5.1318   394.8    6.739      37.254
2015    2       14     8  13    5.1391   394.8    6.753      37.277
2015    2       14     8  19    5.1463   394.7    6.766      37.300
2015    2       14     8  24    5.1536   394.6    6.779      37.322
2015    2       14     8  29    5.1610   394.6    6.793      37.345
2015    2       14     8  34    5.1682   394.5    6.806      37.368
2015    2       14     8  39    5.1757   394.4    6.819      37.391
2015    2       14     8  45    5.1829   394.4    6.832      37.414
2015    2       14     8  50    5.1904   394.3    6.846      37.437
2015    2       14     8  55    5.1978   394.3    6.859      37.460
2015    2       14     9   0    5.2052   394.2    6.872      37.483
2015    2       14     9   5    5.2126   394.1    6.885      37.506
2015    2       14     9  11    5.2201   394.1    6.898      37.529
2015    2       14     9  16    5.2276   394.0    6.911      37.552
2015    2       14     9  21    5.2352   393.9    6.924      37.574
2015    2       14     9  26    5.2426   393.9    6.937      37.597
2015    2       14     9  32    5.2502   393.8    6.949      37.619
2015    2       14     9  37    5.2578   393.8    6.962      37.641
2015    2       14     9  42    5.2655   393.7    6.975      37.663
2015    2       14     9  47    5.2731   393.7    6.988      37.685
2015    2       14     9  52    5.2809   393.6    7.001      37.706
2015    2       14     9  58    5.2886   393.5    7.013      37.728
2015    2       14    10   3    5.2965   393.5    7.026      37.749
2015    2       14    10   8    5.3044   393.4    7.039      37.770
2015    2       14    10  13    5.3123   393.4    7.052      37.791
2015    2       14    10  19    5.3200   393.3    7.065      37.811
2015    2       14    10  24    5.3280   393.3    7.077      37.831
2015    2       14    10  29    5.3360   393.2    7.090      37.852
2015    2       14    10  34    5.3440   393.2    7.103      37.871
2015    2       14    10  39    5.3521   393.1    7.116      37.891
2015    2       14    10  45    5.3602   393.1    7.129      37.911
2015    2       14    10  50    5.3684   393.0    7.142      37.931
2015    2       14    10  55    5.3766   393.0    7.155      37.951
2015    2       14    11   0    5.3848   392.9    7.169      37.971
2015    2       14    11   6    5.3930   392.9    7.182      37.990
2015    2       14    11  11    5.4013   392.8    7.195      38.010
2015    2       14    11  16    5.4096   392.8    7.209      38.030
2015    2       14    11  21    5.4181   392.7    7.222      38.050
2015    2       14    11  26    5.4263   392.7    7.236      38.071
2015    2       14    11  32    5.4347   392.6    7.249      38.093
2015    2       14    11  37    5.4429   392.6    7.263      38.114
2015    2       14    11  42    5.4514   392.6    7.277      38.137
2015    2       14    11  47    5.4597   392.5    7.290      38.161
2015    2       14    11  52    5.4678   392.5    7.304      38.185
2015    2       14    11  58    5.4760   392.4    7.317      38.210
2015    2       14    12   3    5.4844   392.4    7.331      38.236
2015    2       14    12   8    5.4926   392.4    7.344      38.263
2015    2       14    12  13    5.5006   392.4    7.357      38.290
2015    2       14    12  19    5.5089   392.3    7.370      38.318
2015    2       14    12  24    5.5170   392.3    7.384      38.348
2015    2       14    12  29    5.5251   392.3    7.397      38.378
2015    2       14    12  34    5.5332   392.2    7.409      38.409
2015    2       14    12  39    5.5412   392.2    7.422      38.441
2015    2       14    12  45    5.5491   392.2    7.435      38.474
2015    2       14    12  50    5.5571   392.2    7.448      38.508
2015    2       14    12  55    5.5652   392.2    7.460      38.541
2015    2       14    13   0    5.5730   392.1    7.473      38.576
2015    2       14    13   6    5.5810   392.1    7.485      38.611
2015    2       14    13  11    5.5890   392.1    7.497      38.646
2015    2       14    13  16    5.5968   392.1    7.510      38.681
2015    2       14    13  21    5.6049   392.1    7.522      38.717
2015    2       14    13  26    5.6128   392.0    7.534      38.753
2015    2       14    13  32    5.6207   392.0    7.546      38.789
2015    2       14    13  37    5.6286   392.0    7.558      38.826
2015    2       14    13  42    5.6364   392.0    7.570      38.862
2015    2       14    13  47    5.6444   392.0    7.582      38.899
2015    2       14    13  52    5.6523   391.9    7.594      38.935
2015    2       14    13  58    5.6601   391.9    7.606      38.972
2015    2       14    14   3    5.6681   391.9    7.618      39.009
2015    2       14    14   8    5.6760   391.9    7.630      39.046
2015    2       14    14  13    5.6838   391.9    7.642      39.083
2015    2       14    14  19    5.6918   391.9    7.654      39.120
2015    2       14    14  24    5.6997   391.9    7.666      39.157
2015    2       14    14  29    5.7076   391.9    7.677      39.194
2015    2       14    14  34    5.7156   391.8    7.689      39.231
2015    2       14    14  39    5.7235   391.8    7.701      39.269
2015    2       14    14  45    5.7315   391.8    7.712      39.306
2015    2       14    14  50    5.7394   391.8    7.724      39.343
2015    2       14    14  55    5.7473   391.8    7.735      39.381
2015    2       14    15   0    5.7553   391.8    7.747      39.418
2015    2       14    15   6    5.7633   391.8    7.758      39.455
2015    2       14    15  11    5.7714   391.8    7.769      39.492
2015    2       14    15  16    5.7794   391.8    7.780      39.529
2015    2       14    15  21    5.7874   391.8    7.792      39.566
2015    2       14    15  26    5.7955   391.8    7.803      39.603
2015    2       14    15  32    5.8036   391.8    7.814      39.640
2015    2       14    15  37    5.8118   391.8    7.825      39.676
2015    2       14    15  42    5.8200   391.7    7.836      39.712
2015    2       14    15  47    5.8282   391.7    7.847      39.748
2015    2       14    15  52    5.8364   391.7    7.859      39.784
2015    2       14    15  58    5.8447   391.7    7.870      39.820
2015    2       14    16   3    5.8531   391.7    7.881      39.855
2015    2       14    16   8    5.8615   391.7    7.892      39.891
2015    2       14    16  13    5.8699   391.7    7.903      39.926
2015    2       14    16  19    5.8784   391.7    7.915      39.961
2015    2       14    16  24    5.8869   391.7    7.926      39.995
2015    2       14    16  29    5.8956   391.7    7.938      40.030
2015    2       14    16  34    5.9043   391.7    7.950      40.065
2015    2       14    16  39    5.9131   391.7    7.962      40.100
2015    2       14    16  45    5.9221   391.7    7.974      40.135
2015    2       14    16  50    5.9311   391.7    7.986      40.169
2015    2       14    16  55    5.9401   391.7    7.998      40.204
2015    2       14    17   0    5.9493   391.7    8.011      40.239
2015    2       14    17   6    5.9586   391.7    8.024      40.274
2015    2       14    17  11    5.9681   391.7    8.037      40.310
2015    2       14    17  16    5.9776   391.7    8.051      40.346
2015    2       14    17  21    5.9874   391.7    8.065      40.383
2015    2       14    17  26    5.9970   391.7    8.079      40.421
2015    2       14    17  32    6.0069   391.7    8.093      40.459
2015    2       14    17  37    6.0169   391.7    8.108      40.498
2015    2       14    17  42    6.0272   391.7    8.123      40.538
2015    2       14    17  47    6.0373   391.7    8.139      40.577
2015    2       14    17  53    6.0477   391.7    8.155      40.617
2015    2       14    17  58    6.0582   391.7    8.171      40.658
2015    2       14    18   3    6.0687   391.7    8.187      40.701
2015    2       14    18   8    6.0796   391.8    8.204      40.746
2015    2       14    18  13    6.0902   391.8    8.221      40.793
2015    2       14    18  19    6.1009   391.8    8.238      40.841
2015    2       14    18  24    6.1117   391.9    8.255      40.891
2015    2       14    18  29    6.1225   391.9    8.273      40.942
2015    2       14    18  34    6.1334   391.9    8.290      40.994
2015    2       14    18  39    6.1442   392.0    8.307      41.048
2015    2       14    18  45    6.1550   392.0    8.324      41.102
2015    2       14    18  50    6.1657   392.1    8.341      41.157
2015    2       14    18  55    6.1764   392.1    8.358      41.213
2015    2       14    19   0    6.1869   392.2    8.374      41.269
2015    2       14    19   6    6.1974   392.2    8.390      41.327
2015    2       14    19  11    6.2077   392.3    8.405      41.385
2015    2       14    19  16    6.2180   392.4    8.420      41.445
2015    2       14    19  21    6.2283   392.4    8.435      41.505
2015    2       14    19  26    6.2381   392.5    8.449      41.565
2015    2       14    19  32    6.2482   392.6    8.463      41.624
2015    2       14    19  37    6.2580   392.6    8.476      41.684
2015    2       14    19  42    6.2674   392.7    8.489      41.743
2015    2       14    19  47    6.2770   392.8    8.501      41.803
2015    2       14    19  53    6.2867   392.9    8.513      41.862
2015    2       14    19  58    6.2958   392.9    8.524      41.920
2015    2       14    20   3    6.3051   393.0    8.535      41.979
2015    2       14    20   8    6.3143   393.1    8.545      42.037
2015    2       14    20  13    6.3233   393.1    8.555      42.094
2015    2       14    20  19    6.3324   393.2    8.565      42.151
2015    2       14    20  24    6.3413   393.3    8.574      42.208
2015    2       14    20  29    6.3502   393.3    8.583      42.264
2015    2       14    20  34    6.3592   393.4    8.592      42.319
2015    2       14    20  39    6.3678   393.4    8.600      42.373
2015    2       14    20  45    6.3767   393.5    8.609      42.428
2015    2       14    20  50    6.3853   393.6    8.617      42.481
2015    2       14    20  55    6.3941   393.6    8.625      42.534
2015    2       14    21   0    6.4027   393.7    8.632      42.587
2015    2       14    21   6    6.4113   393.7    8.640      42.638
2015    2       14    21  11    6.4197   393.8    8.647      42.689
2015    2       14    21  16    6.4283   393.9    8.654      42.740
2015    2       14    21  21    6.4368   393.9    8.661      42.790
2015    2       14    21  26    6.4454   394.0    8.668      42.839
2015    2       14    21  32    6.4540   394.0    8.675      42.888
2015    2       14    21  37    6.4624   394.1    8.682      42.937
2015    2       14    21  42    6.4709   394.1    8.688      42.985
2015    2       14    21  47    6.4794   394.2    8.695      43.033
2015    2       14    21  53    6.4878   394.2    8.701      43.080
2015    2       14    21  58    6.4964   394.3    8.708      43.127
2015    2       14    22   3    6.5048   394.4    8.714      43.173
2015    2       14    22   8    6.5133   394.4    8.721      43.220
2015    2       14    22  13    6.5218   394.5    8.727      43.266
2015    2       14    22  19    6.5304   394.5    8.733      43.312
2015    2       14    22  24    6.5389   394.6    8.739      43.357
2015    2       14    22  29    6.5475   394.6    8.746      43.403
2015    2       14    22  34    6.5561   394.7    8.752      43.448
2015    2       14    22  40    6.5647   394.7    8.758      43.493
2015    2       14    22  45    6.5733   394.8    8.765      43.538
2015    2       14    22  50    6.5820   394.8    8.771      43.584
2015    2       14    22  55    6.5907   394.9    8.777      43.629
2015    2       14    23   0    6.5995   395.0    8.784      43.674
2015    2       14    23   6    6.6083   395.0    8.791      43.720
2015    2       14    23  11    6.6172   395.1    8.797      43.766
2015    2       14    23  16    6.6261   395.1    8.804      43.812
2015    2       14    23  21    6.6352   395.2    8.811      43.859
2015    2       14    23  26    6.6442   395.2    8.818      43.906
2015    2       14    23  32    6.6534   395.3    8.825      43.954
2015    2       14    23  37    6.6626   395.4    8.832      44.002
2015    2       14    23  42    6.6719   395.4    8.840      44.051
2015    2       14    23  47    6.6813   395.5    8.848      44.100
2015    2       14    23  53    6.6907   395.6    8.856      44.151
2015    2       14    23  58    6.7003   395.6    8.864      44.202
2015    2       15     0   3    6.7100   395.7    8.873      44.254
2015    2       15     0   8    6.7199   395.8    8.882      44.307
2015    2       15     0  13    6.7298   395.8    8.891      44.361
2015    2       15     0  19    6.7398   395.9    8.901      44.415
2015    2       15     0  24    6.7500   396.0    8.911      44.471
2015    2       15     0  29    6.7602   396.1    8.921      44.529
2015    2       15     0  34    6.7706   396.2    8.932      44.588
2015    2       15     0  40    6.7811   396.2    8.943      44.648
2015    2       15     0  45    6.7917   396.3    8.955      44.711
2015    2       15     0  50    6.8024   396.4    8.967      44.775
2015    2       15     0  55    6.8133   396.5    8.980      44.840
2015    2       15     1   0    6.8243   396.6    8.993      44.907
2015    2       15     1   6    6.8354   396.7    9.007      44.974
2015    2       15     1  11    6.8464   396.8    9.021      45.043
2015    2       15     1  16    6.8579   396.9    9.035      45.115
2015    2       15     1  21    6.8693   397.0    9.050      45.189
2015    2       15     1  26    6.8808   397.1    9.066      45.265
2015    2       15     1  32    6.8923   397.2    9.082      45.344
2015    2       15     1  37    6.9039   397.3    9.098      45.425
2015    2       15     1  42    6.9155   397.5    9.115      45.508
2015    2       15     1  47    6.9271   397.6    9.131      45.594
2015    2       15     1  53    6.9386   397.7    9.148      45.682
2015    2       15     1  58    6.9502   397.9    9.165      45.772
2015    2       15     2   3    6.9619   398.0    9.182      45.863
2015    2       15     2   8    6.9735   398.1    9.200      45.955
2015    2       15     2  13    6.9853   398.3    9.217      46.048
2015    2       15     2  19    6.9968   398.4    9.234      46.142
2015    2       15     2  24    7.0080   398.6    9.251      46.239
2015    2       15     2  29    7.0194   398.8    9.268      46.338
2015    2       15     2  34    7.0307   398.9    9.285      46.439
2015    2       15     2  40    7.0418   399.1    9.301      46.542
2015    2       15     2  45    7.0527   399.3    9.317      46.645
2015    2       15     2  50    7.0637   399.4    9.333      46.749
2015    2       15     2  55    7.0744   399.6    9.348      46.853
2015    2       15     3   0    7.0851   399.8    9.362      46.957
2015    2       15     3   6    7.0955   400.0    9.376      47.062
2015    2       15     3  11    7.1059   400.1    9.390      47.165
2015    2       15     3  16    7.1160   400.3    9.402      47.269
2015    2       15     3  21    7.1261   400.5    9.415      47.372
2015    2       15     3  27    7.1360   400.7    9.426      47.475
2015    2       15     3  32    7.1458   400.9    9.438      47.578
2015    2       15     3  37    7.1555   401.0    9.448      47.680
2015    2       15     3  42    7.1651   401.2    9.458      47.782
2015    2       15     3  47    7.1745   401.4    9.467      47.882
2015    2       15     3  53    7.1839   401.6    9.476      47.981
2015    2       15     3  58    7.1932   401.7    9.484      48.079
2015    2       15     4   3    7.2024   401.9    9.492      48.176
2015    2       15     4   8    7.2116   402.1    9.499      48.272
2015    2       15     4  13    7.2206   402.3    9.506      48.367
2015    2       15     4  19    7.2297   402.4    9.512      48.461
2015    2       15     4  24    7.2386   402.6    9.518      48.553
2015    2       15     4  29    7.2475   402.8    9.523      48.645
2015    2       15     4  34    7.2563   402.9    9.528      48.736
2015    2       15     4  40    7.2651   403.1    9.533      48.827
2015    2       15     4  45    7.2739   403.3    9.537      48.916
2015    2       15     4  50    7.2826   403.4    9.541      49.005
2015    2       15     4  55    7.2913   403.6    9.544      49.092
2015    2       15     5   0    7.2999   403.8    9.547      49.179
2015    2       15     5   6    7.3087   404.0    9.550      49.265
2015    2       15     5  11    7.3172   404.1    9.552      49.350
2015    2       15     5  16    7.3257   404.3    9.554      49.435
2015    2       15     5  21    7.3344   404.5    9.556      49.519
2015    2       15     5  27    7.3428   404.6    9.558      49.602
2015    2       15     5  32    7.3513   404.8    9.559      49.684
2015    2       15     5  37    7.3598   405.0    9.560      49.766
2015    2       15     5  42    7.3683   405.1    9.560      49.847
2015    2       15     5  47    7.3769   405.3    9.561      49.927
2015    2       15     5  53    7.3853   405.5    9.561      50.007
2015    2       15     5  58    7.3938   405.6    9.561      50.086
2015    2       15     6   3    7.4023   405.8    9.561      50.164
2015    2       15     6   8    7.4108   406.0    9.561      50.242
2015    2       15     6  13    7.4192   406.1    9.560      50.320
2015    2       15     6  19    7.4276   406.3    9.560      50.397
2015    2       15     6  24    7.4362   406.5    9.559      50.473
2015    2       15     6  29    7.4447   406.6    9.558      50.550
2015    2       15     6  34    7.4531   406.8    9.557      50.625
2015    2       15     6  40    7.4616   407.0    9.556      50.701
2015    2       15     6  45    7.4702   407.1    9.555      50.776
2015    2       15     6  50    7.4789   407.3    9.554      50.852
2015    2       15     6  55    7.4874   407.5    9.553      50.927
2015    2       15     7   0    7.4961   407.7    9.552      51.002
2015    2       15     7   6    7.5048   407.8    9.551      51.077
2015    2       15     7  11    7.5134   408.0    9.550      51.152
2015    2       15     7  16    7.5222   408.2    9.549      51.227
2015    2       15     7  21    7.5309   408.3    9.548      51.303
2015    2       15     7  27    7.5397   408.5    9.547      51.378
2015    2       15     7  32    7.5486   408.7    9.546      51.454
2015    2       15     7  37    7.5574   408.9    9.546      51.530
2015    2       15     7  42    7.5663   409.0    9.545      51.606
2015    2       15     7  47    7.5752   409.2    9.544      51.683
2015    2       15     7  53    7.5842   409.4    9.544      51.760
2015    2       15     7  58    7.5931   409.6    9.544      51.838
2015    2       15     8   3    7.6021   409.8    9.544      51.916
2015    2       15     8   8    7.6110   409.9    9.544      51.994
2015    2       15     8  14    7.6201   410.1    9.544      52.073
2015    2       15     8  19    7.6292   410.3    9.544      52.152
2015    2       15     8  24    7.6381   410.5    9.545      52.232
2015    2       15     8  29    7.6471   410.7    9.546      52.312
2015    2       15     8  34    7.6562   410.8    9.547      52.393
2015    2       15     8  40    7.6654   411.0    9.548      52.474
2015    2       15     8  45    7.6743   411.2    9.549      52.555
2015    2       15     8  50    7.6833   411.4    9.551      52.637
2015    2       15     8  55    7.6924   411.6    9.553      52.719
2015    2       15     9   0    7.7015   411.8    9.555      52.801
2015    2       15     9   6    7.7105   412.0    9.557      52.884
2015    2       15     9  11    7.7199   412.2    9.560      52.968
2015    2       15     9  16    7.7290   412.4    9.564      53.051
2015    2       15     9  21    7.7380   412.5    9.567      53.135
2015    2       15     9  27    7.7471   412.7    9.571      53.219
2015    2       15     9  32    7.7557   412.9    9.575      53.303
2015    2       15     9  37    7.7647   413.1    9.580      53.390
2015    2       15     9  42    7.7736   413.3    9.585      53.477
2015    2       15     9  47    7.7826   413.5    9.590      53.566
2015    2       15     9  53    7.7914   413.7    9.595      53.657
2015    2       15     9  58    7.8007   413.9    9.601      53.749
2015    2       15    10   3    7.8090   414.1    9.607      53.842
2015    2       15    10   8    7.8178   414.3    9.613      53.937
2015    2       15    10  14    7.8264   414.5    9.619      54.033
2015    2       15    10  19    7.8350   414.8    9.626      54.130
2015    2       15    10  24    7.8439   415.0    9.632      54.229
2015    2       15    10  29    7.8524   415.2    9.639      54.328
2015    2       15    10  34    7.8603   415.4    9.646      54.429
2015    2       15    10  40    7.8686   415.6    9.653      54.532
2015    2       15    10  45    7.8773   415.8    9.660      54.636
2015    2       15    10  50    7.8851   416.0    9.667      54.742
2015    2       15    10  55    7.8937   416.2    9.674      54.849
2015    2       15    11   1    7.9015   416.4    9.682      54.957
2015    2       15    11   6    7.9100   416.7    9.690      55.067
2015    2       15    11  11    7.9182   416.9    9.697      55.179
2015    2       15    11  16    7.9259   417.1    9.706      55.293
2015    2       15    11  21    7.9345   417.3    9.714      55.409
2015    2       15    11  27    7.9426   417.6    9.722      55.528
2015    2       15    11  32    7.9508   417.8    9.731      55.649
2015    2       15    11  37    7.9585   418.0    9.740      55.773
2015    2       15    11  42    7.9667   418.2    9.749      55.897
2015    2       15    11  47    7.9753   418.5    9.759      56.023
2015    2       15    11  53    7.9836   418.7    9.768      56.151
2015    2       15    11  58    7.9916   418.9    9.778      56.283
2015    2       15    12   3    8.0004   419.2    9.788      56.420
2015    2       15    12   8    8.0085   419.5    9.798      56.561
2015    2       15    12  14    8.0170   419.7    9.808      56.706
2015    2       15    12  19    8.0259   420.0    9.817      56.853
2015    2       15    12  24    8.0344   420.3    9.827      57.004
2015    2       15    12  29    8.0430   420.5    9.836      57.158
2015    2       15    12  34    8.0512   420.8    9.844      57.313
2015    2       15    12  40    8.0599   421.1    9.853      57.470
2015    2       15    12  45    8.0684   421.4    9.861      57.628
2015    2       15    12  50    8.0770   421.7    9.868      57.786
2015    2       15    12  55    8.0855   422.0    9.875      57.945
2015    2       15    13   1    8.0940   422.3    9.881      58.103
2015    2       15    13   6    8.1024   422.6    9.887      58.261
2015    2       15    13  11    8.1108   422.9    9.892      58.420
2015    2       15    13  16    8.1193   423.3    9.896      58.579
2015    2       15    13  21    8.1274   423.6    9.899      58.738
2015    2       15    13  27    8.1356   423.9    9.902      58.894
2015    2       15    13  32    8.1437   424.2    9.903      59.048
2015    2       15    13  37    8.1517   424.6    9.904      59.199
2015    2       15    13  42    8.1596   424.9    9.905      59.347
2015    2       15    13  47    8.1676   425.2    9.904      59.493
2015    2       15    13  53    8.1753   425.5    9.903      59.637
2015    2       15    13  58    8.1829   425.9    9.902      59.779
2015    2       15    14   3    8.1906   426.2    9.899      59.918
2015    2       15    14   8    8.1981   426.5    9.896      60.055
2015    2       15    14  14    8.2055   426.9    9.893      60.190
2015    2       15    14  19    8.2128   427.2    9.889      60.322
2015    2       15    14  24    8.2202   427.5    9.884      60.453
2015    2       15    14  29    8.2273   427.9    9.879      60.581
2015    2       15    14  34    8.2345   428.2    9.873      60.707
2015    2       15    14  40    8.2416   428.6    9.867      60.831
2015    2       15    14  45    8.2485   428.9    9.860      60.953
2015    2       15    14  50    8.2555   429.3    9.853      61.074
2015    2       15    14  55    8.2623   429.6    9.845      61.192
2015    2       15    15   1    8.2691   429.9    9.837      61.309
2015    2       15    15   6    8.2758   430.3    9.829      61.424
2015    2       15    15  11    8.2824   430.6    9.820      61.538
2015    2       15    15  16    8.2890   431.0    9.811      61.651
2015    2       15    15  21    8.2954   431.3    9.801      61.761
2015    2       15    15  27    8.3018   431.7    9.792      61.871
2015    2       15    15  32    8.3082   432.0    9.782      61.980
2015    2       15    15  37    8.3145   432.4    9.771      62.087
2015    2       15    15  42    8.3207   432.7    9.761      62.194
2015    2       15    15  48    8.3269   433.0    9.750      62.300
2015    2       15    15  53    8.3330   433.4    9.739      62.404
2015    2       15    15  58    8.3391   433.7    9.729      62.509
2015    2       15    16   3    8.3452   434.1    9.718      62.612
2015    2       15    16   8    8.3512   434.4    9.707      62.715
2015    2       15    16  14    8.3571   434.7    9.695      62.818
2015    2       15    16  19    8.3630   435.1    9.684      62.921
2015    2       15    16  24    8.3689   435.4    9.673      63.023
2015    2       15    16  29    8.3747   435.7    9.662      63.126
2015    2       15    16  35    8.3805   436.1    9.651      63.228
2015    2       15    16  40    8.3864   436.4    9.639      63.331
2015    2       15    16  45    8.3921   436.8    9.628      63.433
2015    2       15    16  50    8.3978   437.1    9.617      63.536
2015    2       15    16  55    8.4035   437.4    9.606      63.640
2015    2       15    17   1    8.4092   437.8    9.596      63.744
2015    2       15    17   6    8.4148   438.1    9.585      63.848
2015    2       15    17  11    8.4204   438.4    9.574      63.953
2015    2       15    17  16    8.4259   438.8    9.564      64.059
2015    2       15    17  21    8.4314   439.1    9.554      64.166
2015    2       15    17  27    8.4369   439.5    9.544      64.273
2015    2       15    17  32    8.4424   439.8    9.534      64.382
2015    2       15    17  37    8.4477   440.1    9.524      64.492
2015    2       15    17  42    8.4531   440.5    9.515      64.603
2015    2       15    17  48    8.4585   440.8    9.506      64.715
2015    2       15    17  53    8.4639   441.1    9.498      64.828
2015    2       15    17  58    8.4693   441.5    9.490      64.942
2015    2       15    18   3    8.4746   441.8    9.482      65.057
2015    2       15    18   8    8.4799   442.1    9.475      65.173
2015    2       15    18  14    8.4853   442.5    9.468      65.290
2015    2       15    18  19    8.4906   442.8    9.461      65.409
2015    2       15    18  24    8.4960   443.1    9.455      65.530
2015    2       15    18  29    8.5013   443.5    9.450      65.652
2015    2       15    18  35    8.5066   443.8    9.445      65.776
2015    2       15    18  40    8.5121   444.2    9.441      65.902
2015    2       15    18  45    8.5175   444.5    9.437      66.030
2015    2       15    18  50    8.5228   444.8    9.433      66.159
2015    2       15    18  55    8.5282   445.2    9.430      66.288
2015    2       15    19   1    8.5338   445.5    9.428      66.418
2015    2       15    19   6    8.5393   445.9    9.426      66.549
2015    2       15    19  11    8.5448   446.2    9.425      66.682
2015    2       15    19  16    8.5501   446.6    9.424      66.820
2015    2       15    19  22    8.5557   446.9    9.423      66.961
2015    2       15    19  27    8.5612   447.3    9.423      67.105
2015    2       15    19  32    8.5672   447.7    9.423      67.253
2015    2       15    19  37    8.5728   448.0    9.422      67.403
2015    2       15    19  42    8.5784   448.4    9.422      67.556
2015    2       15    19  48    8.5836   448.8    9.422      67.711
2015    2       15    19  53    8.5892   449.2    9.421      67.867
2015    2       15    19  58    8.5952   449.6    9.421      68.025
2015    2       15    20   3    8.6007   450.0    9.420      68.183
2015    2       15    20   8    8.6061   450.4    9.419      68.342
2015    2       15    20  14    8.6110   450.9    9.418      68.501
2015    2       15    20  19    8.6167   451.3    9.416      68.661
2015    2       15    20  24    8.6219   451.7    9.414      68.821
2015    2       15    20  29    8.6269   452.1    9.411      68.983
2015    2       15    20  35    8.6319   452.6    9.407      69.145
2015    2       15    20  40    8.6362   453.0    9.403      69.306
2015    2       15    20  45    8.6409   453.5    9.399      69.465
2015    2       15    20  50    8.6455   453.9    9.393      69.623
2015    2       15    20  55    8.6504   454.4    9.388      69.778
2015    2       15    21   1    8.6541   454.9    9.381      69.932
2015    2       15    21   6    8.6582   455.3    9.375      70.084
2015    2       15    21  11    8.6621   455.8    9.367      70.235
2015    2       15    21  16    8.6665   456.3    9.359      70.385
2015    2       15    21  22    8.6695   456.7    9.350      70.533
2015    2       15    21  27    8.6730   457.2    9.341      70.680
2015    2       15    21  32    8.6769   457.7    9.332      70.826
2015    2       15    21  37    8.6801   458.2    9.322      70.971
2015    2       15    21  42    8.6831   458.7    9.311      71.114
2015    2       15    21  48    8.6860   459.1    9.300      71.257
2015    2       15    21  53    8.6881   459.6    9.288      71.398
2015    2       15    21  58    8.6913   460.1    9.276      71.539
2015    2       15    22   3    8.6930   460.6    9.264      71.680
2015    2       15    22   9    8.6959   461.1    9.251      71.819
2015    2       15    22  14    8.6974   461.6    9.238      71.957
2015    2       15    22  19    8.6993   462.1    9.224      72.094
2015    2       15    22  24    8.7011   462.6    9.210      72.231
2015    2       15    22  29    8.7034   463.1    9.196      72.367
2015    2       15    22  35    8.7043   463.6    9.181      72.503
2015    2       15    22  40    8.7057   464.1    9.166      72.637
2015    2       15    22  45    8.7076   464.6    9.151      72.770
2015    2       15    22  50    8.7082   465.1    9.136      72.903
2015    2       15    22  55    8.7100   465.6    9.120      73.035
2015    2       15    23   1    8.7110   466.1    9.104      73.166
2015    2       15    23   6    8.7120   466.6    9.088      73.297
2015    2       15    23  11    8.7123   467.1    9.072      73.427
2015    2       15    23  16    8.7131   467.6    9.055      73.556
2015    2       15    23  22    8.7146   468.1    9.038      73.684
2015    2       15    23  27    8.7154   468.7    9.022      73.812
2015    2       15    23  32    8.7161   469.2    9.005      73.939
2015    2       15    23  37    8.7160   469.7    8.988      74.066
2015    2       15    23  42    8.7173   470.2    8.970      74.192
2015    2       15    23  48    8.7179   470.7    8.953      74.318
2015    2       15    23  53    8.7176   471.2    8.935      74.444
2015    2       15    23  58    8.7180   471.7    8.918      74.570
2015    2       16     0   3    8.7183   472.2    8.900      74.695
2015    2       16     0   9    8.7185   472.8    8.881      74.819
2015    2       16     0  14    8.7187   473.3    8.863      74.943
2015    2       16     0  19    8.7194   473.8    8.844      75.067
2015    2       16     0  24    8.7193   474.4    8.825      75.190
2015    2       16     0  29    8.7183   474.9    8.806      75.313
2015    2       16     0  35    8.7186   475.5    8.786      75.437
2015    2       16     0  40    8.7179   476.0    8.766      75.560
2015    2       16     0  45    8.7163   476.6    8.745      75.683
2015    2       16     0  50    8.7159   477.1    8.723      75.805
2015    2       16     0  56    8.7146   477.7    8.701      75.926
2015    2       16     1   1    8.7121   478.3    8.679      76.048
2015    2       16     1   6    8.7103   478.8    8.656      76.169
2015    2       16     1  11    8.7090   479.4    8.633      76.289
2015    2       16     1  16    8.7066   479.9    8.608      76.407
2015    2       16     1  22    8.7039   480.5    8.584      76.523
2015    2       16     1  27    8.7009   481.1    8.558      76.638
2015    2       16     1  32    8.6965   481.7    8.532      76.754
2015    2       16     1  37    8.6928   482.2    8.505      76.869
2015    2       16     1  43    8.6895   482.8    8.477      76.976
2015    2       16     1  48    8.6840   483.4    8.448      77.076
2015    2       16     1  53    8.6799   483.9    8.419      77.169
2015    2       16     1  58    8.6747   484.5    8.390      77.257
2015    2       16     2   3    8.6682   485.0    8.361      77.340
2015    2       16     2   9    8.6635   485.6    8.331      77.419
2015    2       16     2  14    8.6576   486.1    8.302      77.493
2015    2       16     2  19    8.6516   486.6    8.273      77.563
2015    2       16     2  24    8.6453   487.1    8.244      77.631
2015    2       16     2  29    8.6391   487.7    8.215      77.697
2015    2       16     2  35    8.6317   488.2    8.186      77.761
2015    2       16     2  40    8.6253   488.7    8.158      77.823
2015    2       16     2  45    8.6198   489.3    8.130      77.885
2015    2       16     2  50    8.6124   489.8    8.102      77.944
2015    2       16     2  56    8.6058   490.3    8.076      78.000
2015    2       16     3   1    8.5993   490.8    8.049      78.056
2015    2       16     3   6    8.5938   491.3    8.024      78.114
2015    2       16     3  11    8.5874   491.8    7.999      78.174
2015    2       16     3  16    8.5809   492.4    7.974      78.236
2015    2       16     3  22    8.5745   492.9    7.949      78.299
2015    2       16     3  27    8.5680   493.4    7.926      78.363
2015    2       16     3  32    8.5605   493.9    7.902      78.427
2015    2       16     3  37    8.5551   494.4    7.879      78.493
2015    2       16     3  43    8.5486   494.9    7.856      78.558
2015    2       16     3  48    8.5408   495.5    7.834      78.625
2015    2       16     3  53    8.5343   496.0    7.811      78.692
2015    2       16     3  58    8.5276   496.5    7.790      78.759
2015    2       16     4   3    8.5221   497.0    7.768      78.828
2015    2       16     4   9    8.5154   497.5    7.747      78.896
2015    2       16     4  14    8.5075   498.0    7.726      78.966
2015    2       16     4  19    8.5007   498.5    7.706      79.036
2015    2       16     4  24    8.4951   499.1    7.686      79.106
2015    2       16     4  30    8.4870   499.6    7.666      79.178
2015    2       16     4  35    8.4814   500.1    7.646      79.250
2015    2       16     4  40    8.4744   500.6    7.627      79.323
2015    2       16     4  45    8.4663   501.1    7.607      79.397
2015    2       16     4  50    8.4605   501.6    7.588      79.471
2015    2       16     4  56    8.4535   502.1    7.570      79.547
2015    2       16     5   1    8.4452   502.6    7.551      79.624
2015    2       16     5   6    8.4381   503.1    7.532      79.701
2015    2       16     5  11    8.4321   503.6    7.514      79.779
2015    2       16     5  17    8.4249   504.1    7.496      79.859
2015    2       16     5  22    8.4164   504.6    7.477      79.940
2015    2       16     5  27    8.4091   505.2    7.459      80.021
2015    2       16     5  32    8.4016   505.7    7.441      80.103
2015    2       16     5  37    8.3954   506.2    7.422      80.186
2015    2       16     5  43    8.3865   506.7    7.404      80.269
2015    2       16     5  48    8.3800   507.2    7.386      80.352
2015    2       16     5  53    8.3722   507.7    7.367      80.436
2015    2       16     5  58    8.3631   508.2    7.349      80.518
2015    2       16     6   3    8.3551   508.7    7.330      80.600
2015    2       16     6   9    8.3470   509.2    7.311      80.682
2015    2       16     6  14    8.3399   509.8    7.292      80.762
2015    2       16     6  19    8.3305   510.3    7.273      80.839
2015    2       16     6  24    8.3231   510.8    7.253      80.914
2015    2       16     6  30    8.3133   511.3    7.233      80.986
2015    2       16     6  35    8.3042   511.8    7.212      81.055
2015    2       16     6  40    8.2962   512.4    7.191      81.120
2015    2       16     6  45    8.2867   512.9    7.170      81.177
2015    2       16     6  50    8.2759   513.4    7.148      81.227
2015    2       16     6  56    8.2660   513.9    7.126      81.269
2015    2       16     7   1    8.2560   514.3    7.103      81.304
2015    2       16     7   6    8.2470   514.8    7.081      81.333
2015    2       16     7  11    8.2367   515.3    7.058      81.356
2015    2       16     7  17    8.2263   515.8    7.035      81.373
2015    2       16     7  22    8.2148   516.3    7.012      81.386
2015    2       16     7  27    8.2054   516.7    6.989      81.395
2015    2       16     7  32    8.1949   517.2    6.965      81.400
2015    2       16     7  37    8.1843   517.7    6.942      81.400
2015    2       16     7  43    8.1737   518.1    6.919      81.399
2015    2       16     7  48    8.1629   518.6    6.896      81.398
2015    2       16     7  53    8.1523   519.1    6.873      81.397
2015    2       16     7  58    8.1414   519.6    6.850      81.395
2015    2       16     8   4    8.1306   520.1    6.827      81.394
2015    2       16     8   9    8.1196   520.5    6.804      81.393
2015    2       16     8  14    8.1087   521.0    6.781      81.394
2015    2       16     8  19    8.0975   521.5    6.757      81.395
2015    2       16     8  24    8.0863   522.0    6.734      81.396
2015    2       16     8  30    8.0749   522.5    6.710      81.396
2015    2       16     8  35    8.0635   523.0    6.686      81.395
2015    2       16     8  40    8.0518   523.5    6.662      81.394
2015    2       16     8  45    8.0401   524.0    6.637      81.396
2015    2       16     8  51    8.0281   524.5    6.612      81.399
2015    2       16     8  56    8.0160   525.0    6.587      81.397
2015    2       16     9   1    8.0024   525.5    6.561      81.389
2015    2       16     9   6    7.9910   526.0    6.535      81.372
2015    2       16     9  11    7.9783   526.4    6.509      81.350
2015    2       16     9  17    7.9655   526.9    6.483      81.324
2015    2       16     9  22    7.9515   527.3    6.457      81.294
2015    2       16     9  27    7.9387   527.8    6.432      81.260
2015    2       16     9  32    7.9268   528.2    6.406      81.221
2015    2       16     9  37    7.9128   528.7    6.381      81.178
2015    2       16     9  43    7.8998   529.1    6.357      81.134
2015    2       16     9  48    7.8879   529.5    6.332      81.088
2015    2       16     9  53    7.8750   530.0    6.309      81.041
2015    2       16     9  58    7.8622   530.4    6.285      80.993
2015    2       16    10   4    7.8493   530.8    6.263      80.945
2015    2       16    10   9    7.8365   531.2    6.241      80.892
2015    2       16    10  14    7.8227   531.6    6.219      80.838
2015    2       16    10  19    7.8109   532.0    6.198      80.787
2015    2       16    10  24    7.7983   532.5    6.178      80.739
2015    2       16    10  30    7.7857   532.9    6.158      80.695
2015    2       16    10  35    7.7732   533.3    6.139      80.653
2015    2       16    10  40    7.7607   533.7    6.120      80.612
2015    2       16    10  45    7.7482   534.1    6.102      80.573
2015    2       16    10  51    7.7349   534.5    6.083      80.536
2015    2       16    10  56    7.7224   534.9    6.066      80.500
2015    2       16    11   1    7.7099   535.3    6.048      80.466
2015    2       16    11   6    7.6973   535.7    6.031      80.432
2015    2       16    11  11    7.6847   536.1    6.014      80.400
2015    2       16    11  17    7.6728   536.5    5.998      80.370
2015    2       16    11  22    7.6602   536.8    5.981      80.340
2015    2       16    11  27    7.6475   537.2    5.965      80.312
2015    2       16    11  32    7.6348   537.6    5.949      80.285
2015    2       16    11  38    7.6220   537.9    5.934      80.259
2015    2       16    11  43    7.6093   538.3    5.918      80.234
2015    2       16    11  48    7.5966   538.6    5.903      80.211
2015    2       16    11  53    7.5839   539.0    5.888      80.188
2015    2       16    11  58    7.5705   539.3    5.873      80.166
2015    2       16    12   4    7.5585   539.7    5.858      80.145
2015    2       16    12   9    7.5458   540.0    5.843      80.123
2015    2       16    12  14    7.5331   540.4    5.828      80.102
2015    2       16    12  19    7.5204   540.7    5.814      80.082
2015    2       16    12  25    7.5078   541.1    5.799      80.062
2015    2       16    12  30    7.4946   541.4    5.785      80.042
2015    2       16    12  35    7.4826   541.7    5.770      80.022
2015    2       16    12  40    7.4700   542.1    5.756      80.002
2015    2       16    12  45    7.4574   542.4    5.741      79.983
2015    2       16    12  51    7.4448   542.7    5.727      79.963
2015    2       16    12  56    7.4323   543.0    5.713      79.942
2015    2       16    13   1    7.4193   543.3    5.699      79.921
2015    2       16    13   6    7.4072   543.6    5.684      79.900
2015    2       16    13  11    7.3942   544.0    5.670      79.878
2015    2       16    13  17    7.3817   544.3    5.656      79.855
2015    2       16    13  22    7.3691   544.6    5.641      79.829
2015    2       16    13  27    7.3568   544.9    5.627      79.801
2015    2       16    13  32    7.3440   545.3    5.612      79.769
2015    2       16    13  38    7.3310   545.6    5.596      79.735
2015    2       16    13  43    7.3178   546.0    5.581      79.697
2015    2       16    13  48    7.3044   546.3    5.565      79.651
2015    2       16    13  53    7.2908   546.6    5.548      79.595
2015    2       16    13  58    7.2772   547.0    5.531      79.530
2015    2       16    14   4    7.2634   547.3    5.514      79.455
2015    2       16    14   9    7.2496   547.6    5.497      79.372
2015    2       16    14  14    7.2357   547.9    5.480      79.280
2015    2       16    14  19    7.2218   548.1    5.463      79.180
2015    2       16    14  25    7.2078   548.4    5.445      79.075
2015    2       16    14  30    7.1940   548.7    5.428      78.965
2015    2       16    14  35    7.1803   548.9    5.411      78.852
2015    2       16    14  40    7.1665   549.1    5.394      78.734
2015    2       16    14  45    7.1530   549.3    5.378      78.614
2015    2       16    14  51    7.1395   549.5    5.362      78.492
2015    2       16    14  56    7.1262   549.7    5.346      78.371
2015    2       16    15   1    7.1131   549.9    5.331      78.254
2015    2       16    15   6    7.1001   550.1    5.317      78.139
2015    2       16    15  12    7.0873   550.3    5.302      78.027
2015    2       16    15  17    7.0747   550.5    5.288      77.918
2015    2       16    15  22    7.0622   550.6    5.275      77.813
2015    2       16    15  27    7.0500   550.8    5.262      77.710
2015    2       16    15  32    7.0380   551.0    5.249      77.611
2015    2       16    15  38    7.0259   551.1    5.237      77.515
2015    2       16    15  43    7.0144   551.3    5.225      77.422
2015    2       16    15  48    7.0026   551.4    5.214      77.332
2015    2       16    15  53    6.9914   551.5    5.203      77.244
2015    2       16    15  59    6.9801   551.7    5.192      77.160
2015    2       16    16   4    6.9687   551.8    5.182      77.079
2015    2       16    16   9    6.9578   551.9    5.172      76.999
2015    2       16    16  14    6.9470   552.0    5.162      76.922
2015    2       16    16  19    6.9365   552.1    5.153      76.848
2015    2       16    16  25    6.9260   552.3    5.144      76.777
2015    2       16    16  30    6.9160   552.4    5.135      76.708
2015    2       16    16  35    6.9055   552.5    5.127      76.640
2015    2       16    16  40    6.8958   552.6    5.119      76.574
2015    2       16    16  45    6.8855   552.7    5.111      76.509
2015    2       16    16  51    6.8760   552.8    5.103      76.447
2015    2       16    16  56    6.8663   552.9    5.096      76.387
2015    2       16    17   1    6.8563   553.0    5.089      76.329
2015    2       16    17   6    6.8467   553.2    5.082      76.273
2015    2       16    17  12    6.8375   553.3    5.075      76.218
2015    2       16    17  17    6.8276   553.4    5.068      76.165
2015    2       16    17  22    6.8181   553.6    5.061      76.112
2015    2       16    17  27    6.8090   553.7    5.055      76.061
2015    2       16    17  32    6.7991   553.9    5.048      76.010
2015    2       16    17  38    6.7900   554.0    5.042      75.960
2015    2       16    17  43    6.7801   554.2    5.035      75.909
2015    2       16    17  48    6.7706   554.4    5.028      75.859
2015    2       16    17  53    6.7610   554.5    5.021      75.808
2015    2       16    17  59    6.7513   554.7    5.015      75.757
2015    2       16    18   4    6.7416   554.9    5.008      75.706
2015    2       16    18   9    6.7318   555.0    5.001      75.655
2015    2       16    18  14    6.7220   555.2    4.994      75.603
2015    2       16    18  19    6.7125   555.4    4.986      75.550
2015    2       16    18  25    6.7025   555.5    4.979      75.496
2015    2       16    18  30    6.6924   555.7    4.972      75.442
2015    2       16    18  35    6.6818   555.9    4.964      75.387
2015    2       16    18  40    6.6720   556.0    4.957      75.332
2015    2       16    18  46    6.6617   556.2    4.949      75.275
2015    2       16    18  51    6.6513   556.3    4.941      75.219
2015    2       16    18  56    6.6404   556.5    4.933      75.161
2015    2       16    19   1    6.6299   556.6    4.925      75.104
2015    2       16    19   6    6.6200   556.8    4.917      75.045
2015    2       16    19  12    6.6094   556.9    4.909      74.986
2015    2       16    19  17    6.5984   557.1    4.901      74.926
2015    2       16    19  22    6.5879   557.2    4.892      74.865
2015    2       16    19  27    6.5774   557.4    4.884      74.804
2015    2       16    19  33    6.5674   557.5    4.875      74.742
2015    2       16    19  38    6.5564   557.7    4.867      74.680
2015    2       16    19  43    6.5460   557.8    4.859      74.617
2015    2       16    19  48    6.5356   557.9    4.850      74.554
2015    2       16    19  53    6.5252   558.0    4.842      74.490
2015    2       16    19  59    6.5154   558.2    4.833      74.427
2015    2       16    20   4    6.5046   558.3    4.825      74.363
2015    2       16    20   9    6.4945   558.4    4.817      74.299
2015    2       16    20  14    6.4848   558.5    4.809      74.234
2015    2       16    20  19    6.4743   558.6    4.801      74.170
2015    2       16    20  25    6.4643   558.6    4.793      74.106
2015    2       16    20  30    6.4544   558.7    4.786      74.043
2015    2       16    20  35    6.4446   558.8    4.778      73.980
2015    2       16    20  40    6.4353   558.9    4.771      73.916
2015    2       16    20  46    6.4252   559.0    4.763      73.853
2015    2       16    20  51    6.4161   559.1    4.756      73.790
2015    2       16    20  56    6.4065   559.2    4.749      73.726
2015    2       16    21   1    6.3970   559.3    4.741      73.661
2015    2       16    21   6    6.3875   559.4    4.734      73.596
2015    2       16    21  12    6.3781   559.5    4.727      73.531
2015    2       16    21  17    6.3682   559.6    4.720      73.465
2015    2       16    21  22    6.3594   559.7    4.713      73.398
2015    2       16    21  27    6.3496   559.8    4.706      73.330
2015    2       16    21  33    6.3404   559.9    4.699      73.261
2015    2       16    21  38    6.3313   560.0    4.692      73.191
2015    2       16    21  43    6.3222   560.1    4.685      73.121
2015    2       16    21  48    6.3136   560.2    4.678      73.050
2015    2       16    21  53    6.3046   560.3    4.671      72.979
2015    2       16    21  59    6.2951   560.4    4.665      72.907
2015    2       16    22   4    6.2868   560.5    4.658      72.837
2015    2       16    22   9    6.2779   560.5    4.651      72.766
2015    2       16    22  14    6.2691   560.6    4.645      72.695
2015    2       16    22  20    6.2604   560.7    4.638      72.624
2015    2       16    22  25    6.2512   560.7    4.632      72.552
2015    2       16    22  30    6.2426   560.8    4.626      72.482
2015    2       16    22  35    6.2340   560.9    4.619      72.412
2015    2       16    22  40    6.2261   560.9    4.613      72.343
2015    2       16    22  46    6.2172   561.0    4.607      72.274
2015    2       16    22  51    6.2093   561.1    4.602      72.206
2015    2       16    22  56    6.2011   561.1    4.596      72.138
2015    2       16    23   1    6.1928   561.2    4.590      72.071
2015    2       16    23   7    6.1841   561.2    4.585      72.004
2015    2       16    23  12    6.1765   561.3    4.579      71.938
2015    2       16    23  17    6.1680   561.3    4.574      71.873
2015    2       16    23  22    6.1600   561.4    4.569      71.808
2015    2       16    23  27    6.1525   561.5    4.564      71.743
2015    2       16    23  33    6.1445   561.5    4.559      71.680
2015    2       16    23  38    6.1361   561.6    4.554      71.617
2015    2       16    23  43    6.1283   561.6    4.549      71.554
2015    2       16    23  48    6.1209   561.7    4.544      71.493
2015    2       16    23  54    6.1126   561.7    4.539      71.431
2015    2       16    23  59    6.1049   561.8    4.535      71.371
2015    2       17     0   4    6.0976   561.8    4.530      71.311
