year    month   day   hour  minute  B_enl V_enl   n_enl       T_enl
[year] [month] [day] [hour][minute] [nT]  [km/s]  [cm-3]      [kK]
2015    2       18     0   4    4.7338   490.1    4.446      45.016
2015    2       18     0   9    4.7328   489.9    4.448      44.988
2015    2       18     0  14    4.7318   489.7    4.451      44.960
2015    2       18     0  19    4.7309   489.5    4.453      44.932
2015    2       18     0  25    4.7298   489.3    4.456      44.904
2015    2       18     0  30    4.7289   489.1    4.458      44.876
2015    2       18     0  35    4.7279   488.9    4.461      44.848
2015    2       18     0  40    4.7269   488.7    4.463      44.820
2015    2       18     0  46    4.7259   488.5    4.466      44.792
2015    2       18     0  51    4.7249   488.3    4.468      44.764
2015    2       18     0  56    4.7240   488.1    4.471      44.735
2015    2       18     1   1    4.7230   487.9    4.473      44.707
2015    2       18     1   7    4.7221   487.7    4.476      44.679
2015    2       18     1  12    4.7211   487.5    4.478      44.651
2015    2       18     1  17    4.7202   487.3    4.481      44.623
2015    2       18     1  22    4.7192   487.1    4.483      44.595
2015    2       18     1  28    4.7184   486.9    4.485      44.567
2015    2       18     1  33    4.7176   486.7    4.488      44.539
2015    2       18     1  38    4.7168   486.5    4.490      44.511
2015    2       18     1  43    4.7159   486.3    4.493      44.483
2015    2       18     1  49    4.7151   486.1    4.495      44.456
2015    2       18     1  54    4.7144   485.9    4.497      44.428
2015    2       18     1  59    4.7136   485.7    4.500      44.401
2015    2       18     2   4    4.7129   485.5    4.502      44.374
2015    2       18     2   9    4.7122   485.3    4.504      44.347
2015    2       18     2  15    4.7115   485.1    4.506      44.320
2015    2       18     2  20    4.7110   484.9    4.509      44.293
2015    2       18     2  25    4.7102   484.7    4.511      44.266
2015    2       18     2  30    4.7096   484.5    4.513      44.240
2015    2       18     2  36    4.7091   484.3    4.515      44.213
2015    2       18     2  41    4.7086   484.1    4.517      44.186
2015    2       18     2  46    4.7081   483.9    4.519      44.159
2015    2       18     2  51    4.7075   483.7    4.521      44.132
2015    2       18     2  57    4.7071   483.5    4.523      44.105
2015    2       18     3   2    4.7067   483.3    4.525      44.078
2015    2       18     3   7    4.7062   483.1    4.527      44.050
2015    2       18     3  12    4.7057   482.8    4.528      44.023
2015    2       18     3  18    4.7054   482.6    4.530      43.995
2015    2       18     3  23    4.7050   482.4    4.532      43.967
2015    2       18     3  28    4.7045   482.2    4.534      43.938
2015    2       18     3  33    4.7043   482.0    4.535      43.910
2015    2       18     3  39    4.7039   481.8    4.537      43.880
2015    2       18     3  44    4.7034   481.6    4.539      43.851
2015    2       18     3  49    4.7033   481.4    4.540      43.821
2015    2       18     3  54    4.7030   481.2    4.542      43.791
2015    2       18     4   0    4.7025   481.0    4.543      43.760
2015    2       18     4   5    4.7024   480.8    4.545      43.730
2015    2       18     4  10    4.7021   480.6    4.546      43.699
2015    2       18     4  15    4.7017   480.4    4.548      43.667
2015    2       18     4  21    4.7016   480.2    4.549      43.636
2015    2       18     4  26    4.7012   480.0    4.551      43.604
2015    2       18     4  31    4.7010   479.8    4.552      43.572
2015    2       18     4  36    4.7010   479.6    4.554      43.540
2015    2       18     4  42    4.7008   479.3    4.556      43.507
2015    2       18     4  47    4.7006   479.1    4.557      43.475
2015    2       18     4  52    4.7005   478.9    4.559      43.443
2015    2       18     4  57    4.7002   478.7    4.561      43.410
2015    2       18     5   3    4.7003   478.5    4.563      43.378
2015    2       18     5   8    4.7003   478.3    4.564      43.345
2015    2       18     5  13    4.7001   478.1    4.566      43.313
2015    2       18     5  18    4.7003   477.9    4.568      43.281
2015    2       18     5  24    4.7003   477.7    4.571      43.249
2015    2       18     5  29    4.7002   477.4    4.573      43.218
2015    2       18     5  34    4.7005   477.2    4.575      43.186
2015    2       18     5  39    4.7005   477.0    4.578      43.156
2015    2       18     5  45    4.7008   476.8    4.580      43.125
2015    2       18     5  50    4.7010   476.6    4.583      43.095
2015    2       18     5  55    4.7013   476.4    4.586      43.066
2015    2       18     6   0    4.7016   476.2    4.589      43.037
2015    2       18     6   6    4.7019   476.0    4.592      43.009
2015    2       18     6  11    4.7023   475.8    4.596      42.981
2015    2       18     6  16    4.7027   475.6    4.599      42.954
2015    2       18     6  21    4.7032   475.4    4.603      42.928
2015    2       18     6  27    4.7035   475.1    4.607      42.903
2015    2       18     6  32    4.7042   474.9    4.611      42.878
2015    2       18     6  37    4.7046   474.7    4.615      42.854
2015    2       18     6  42    4.7053   474.5    4.620      42.831
2015    2       18     6  48    4.7061   474.3    4.624      42.809
2015    2       18     6  53    4.7066   474.1    4.629      42.787
2015    2       18     6  58    4.7074   473.9    4.634      42.766
2015    2       18     7   3    4.7082   473.7    4.639      42.746
2015    2       18     7   9    4.7088   473.5    4.644      42.727
2015    2       18     7  14    4.7098   473.3    4.649      42.708
2015    2       18     7  19    4.7106   473.1    4.655      42.690
2015    2       18     7  24    4.7115   472.9    4.660      42.673
2015    2       18     7  30    4.7124   472.7    4.666      42.656
2015    2       18     7  35    4.7133   472.5    4.672      42.640
2015    2       18     7  40    4.7141   472.4    4.678      42.625
2015    2       18     7  45    4.7152   472.2    4.684      42.610
2015    2       18     7  51    4.7162   472.0    4.690      42.596
2015    2       18     7  56    4.7171   471.8    4.696      42.582
2015    2       18     8   1    4.7183   471.6    4.702      42.569
2015    2       18     8   6    4.7192   471.4    4.708      42.557
2015    2       18     8  11    4.7203   471.2    4.715      42.545
2015    2       18     8  17    4.7217   471.0    4.721      42.533
2015    2       18     8  22    4.7227   470.8    4.728      42.522
2015    2       18     8  27    4.7239   470.6    4.734      42.512
2015    2       18     8  32    4.7251   470.4    4.740      42.502
2015    2       18     8  38    4.7264   470.2    4.747      42.493
2015    2       18     8  43    4.7277   470.0    4.753      42.484
2015    2       18     8  48    4.7292   469.9    4.760      42.475
2015    2       18     8  53    4.7304   469.7    4.767      42.467
2015    2       18     8  59    4.7320   469.5    4.773      42.460
2015    2       18     9   4    4.7334   469.3    4.779      42.453
2015    2       18     9   9    4.7349   469.1    4.786      42.446
2015    2       18     9  14    4.7363   468.9    4.792      42.440
2015    2       18     9  20    4.7379   468.8    4.799      42.434
2015    2       18     9  25    4.7394   468.6    4.805      42.428
2015    2       18     9  30    4.7410   468.4    4.811      42.423
2015    2       18     9  35    4.7426   468.2    4.818      42.417
2015    2       18     9  41    4.7440   468.0    4.824      42.413
2015    2       18     9  46    4.7457   467.9    4.830      42.408
2015    2       18     9  51    4.7477   467.7    4.836      42.403
2015    2       18     9  56    4.7494   467.5    4.842      42.398
2015    2       18    10   2    4.7511   467.3    4.849      42.394
2015    2       18    10   7    4.7527   467.2    4.855      42.389
2015    2       18    10  12    4.7547   467.0    4.861      42.384
2015    2       18    10  17    4.7563   466.8    4.866      42.379
2015    2       18    10  23    4.7585   466.7    4.872      42.375
2015    2       18    10  28    4.7601   466.5    4.878      42.370
2015    2       18    10  33    4.7623   466.3    4.884      42.365
2015    2       18    10  38    4.7642   466.2    4.890      42.360
2015    2       18    10  44    4.7662   466.0    4.895      42.355
2015    2       18    10  49    4.7680   465.8    4.901      42.350
2015    2       18    10  54    4.7703   465.7    4.907      42.345
2015    2       18    10  59    4.7723   465.5    4.912      42.340
2015    2       18    11   5    4.7741   465.4    4.918      42.335
2015    2       18    11  10    4.7762   465.2    4.923      42.330
2015    2       18    11  15    4.7786   465.0    4.929      42.325
2015    2       18    11  20    4.7807   464.9    4.935      42.319
2015    2       18    11  26    4.7829   464.7    4.940      42.314
2015    2       18    11  31    4.7850   464.6    4.945      42.309
2015    2       18    11  36    4.7873   464.4    4.951      42.304
2015    2       18    11  41    4.7894   464.3    4.956      42.298
2015    2       18    11  47    4.7917   464.1    4.962      42.293
2015    2       18    11  52    4.7936   464.0    4.967      42.288
2015    2       18    11  57    4.7962   463.8    4.973      42.283
2015    2       18    12   2    4.7982   463.7    4.978      42.278
2015    2       18    12   8    4.8007   463.5    4.984      42.273
2015    2       18    12  13    4.8028   463.4    4.989      42.268
2015    2       18    12  18    4.8051   463.2    4.995      42.263
2015    2       18    12  23    4.8074   463.1    5.000      42.259
2015    2       18    12  29    4.8098   462.9    5.006      42.254
2015    2       18    12  34    4.8125   462.8    5.012      42.250
2015    2       18    12  39    4.8148   462.6    5.017      42.246
2015    2       18    12  44    4.8172   462.5    5.023      42.243
2015    2       18    12  50    4.8194   462.3    5.029      42.239
2015    2       18    12  55    4.8221   462.2    5.034      42.236
2015    2       18    13   0    4.8243   462.1    5.040      42.234
2015    2       18    13   5    4.8268   461.9    5.046      42.232
2015    2       18    13  11    4.8293   461.8    5.052      42.230
2015    2       18    13  16    4.8321   461.6    5.058      42.228
2015    2       18    13  21    4.8344   461.5    5.064      42.227
2015    2       18    13  26    4.8372   461.4    5.070      42.227
2015    2       18    13  32    4.8395   461.2    5.076      42.226
2015    2       18    13  37    4.8421   461.1    5.082      42.226
2015    2       18    13  42    4.8447   461.0    5.088      42.227
2015    2       18    13  47    4.8474   460.8    5.095      42.228
2015    2       18    13  53    4.8503   460.7    5.101      42.229
2015    2       18    13  58    4.8528   460.6    5.108      42.231
2015    2       18    14   3    4.8557   460.5    5.114      42.233
2015    2       18    14   8    4.8585   460.3    5.121      42.235
2015    2       18    14  13    4.8612   460.2    5.128      42.238
2015    2       18    14  19    4.8638   460.1    5.134      42.241
2015    2       18    14  24    4.8666   460.0    5.141      42.244
2015    2       18    14  29    4.8697   459.8    5.148      42.248
2015    2       18    14  34    4.8725   459.7    5.155      42.252
2015    2       18    14  40    4.8754   459.6    5.162      42.256
2015    2       18    14  45    4.8781   459.5    5.169      42.261
2015    2       18    14  50    4.8810   459.4    5.176      42.266
2015    2       18    14  55    4.8842   459.2    5.183      42.271
2015    2       18    15   1    4.8871   459.1    5.190      42.276
2015    2       18    15   6    4.8901   459.0    5.197      42.282
2015    2       18    15  11    4.8931   458.9    5.205      42.288
2015    2       18    15  16    4.8961   458.8    5.212      42.294
2015    2       18    15  22    4.8990   458.7    5.219      42.301
2015    2       18    15  27    4.9022   458.6    5.226      42.307
2015    2       18    15  32    4.9053   458.5    5.234      42.314
2015    2       18    15  37    4.9082   458.3    5.241      42.321
2015    2       18    15  43    4.9115   458.2    5.248      42.328
2015    2       18    15  48    4.9144   458.1    5.255      42.335
2015    2       18    15  53    4.9176   458.0    5.263      42.342
2015    2       18    15  58    4.9207   457.9    5.270      42.349
2015    2       18    16   4    4.9239   457.8    5.277      42.356
2015    2       18    16   9    4.9271   457.7    5.285      42.364
2015    2       18    16  14    4.9305   457.6    5.292      42.371
2015    2       18    16  19    4.9335   457.5    5.299      42.378
2015    2       18    16  25    4.9369   457.4    5.307      42.386
2015    2       18    16  30    4.9402   457.3    5.314      42.393
2015    2       18    16  35    4.9432   457.2    5.321      42.401
2015    2       18    16  40    4.9467   457.1    5.329      42.408
2015    2       18    16  46    4.9500   457.0    5.336      42.416
2015    2       18    16  51    4.9531   456.9    5.344      42.423
2015    2       18    16  56    4.9566   456.8    5.351      42.431
2015    2       18    17   1    4.9600   456.7    5.358      42.439
2015    2       18    17   7    4.9632   456.6    5.366      42.447
2015    2       18    17  12    4.9666   456.5    5.373      42.456
2015    2       18    17  17    4.9701   456.4    5.380      42.465
2015    2       18    17  22    4.9734   456.3    5.388      42.474
2015    2       18    17  28    4.9770   456.2    5.395      42.484
2015    2       18    17  33    4.9803   456.2    5.402      42.495
2015    2       18    17  38    4.9839   456.1    5.410      42.505
2015    2       18    17  43    4.9872   456.0    5.417      42.517
2015    2       18    17  49    4.9907   455.9    5.424      42.528
2015    2       18    17  54    4.9943   455.8    5.431      42.540
2015    2       18    17  59    4.9977   455.7    5.439      42.552
2015    2       18    18   4    5.0012   455.6    5.446      42.565
2015    2       18    18  10    5.0047   455.6    5.453      42.578
2015    2       18    18  15    5.0083   455.5    5.460      42.592
2015    2       18    18  20    5.0120   455.4    5.467      42.605
2015    2       18    18  25    5.0154   455.3    5.474      42.619
2015    2       18    18  31    5.0190   455.3    5.481      42.633
2015    2       18    18  36    5.0226   455.2    5.488      42.648
2015    2       18    18  41    5.0263   455.1    5.495      42.662
2015    2       18    18  46    5.0297   455.0    5.502      42.677
2015    2       18    18  52    5.0334   455.0    5.509      42.691
2015    2       18    18  57    5.0371   454.9    5.516      42.706
2015    2       18    19   2    5.0407   454.8    5.523      42.722
2015    2       18    19   7    5.0442   454.8    5.530      42.737
2015    2       18    19  13    5.0478   454.7    5.537      42.752
2015    2       18    19  18    5.0514   454.6    5.544      42.768
2015    2       18    19  23    5.0552   454.6    5.550      42.783
2015    2       18    19  28    5.0588   454.5    5.557      42.799
2015    2       18    19  34    5.0624   454.4    5.564      42.815
2015    2       18    19  39    5.0659   454.4    5.571      42.831
2015    2       18    19  44    5.0697   454.3    5.577      42.847
2015    2       18    19  49    5.0733   454.3    5.584      42.862
2015    2       18    19  55    5.0768   454.2    5.591      42.879
2015    2       18    20   0    5.0806   454.1    5.597      42.895
2015    2       18    20   5    5.0841   454.1    5.604      42.911
2015    2       18    20  10    5.0878   454.0    5.610      42.927
2015    2       18    20  15    5.0913   454.0    5.616      42.943
2015    2       18    20  21    5.0949   453.9    5.623      42.958
2015    2       18    20  26    5.0985   453.8    5.629      42.974
2015    2       18    20  31    5.1021   453.8    5.635      42.989
2015    2       18    20  36    5.1057   453.7    5.641      43.005
2015    2       18    20  42    5.1094   453.7    5.647      43.020
2015    2       18    20  47    5.1130   453.6    5.653      43.035
2015    2       18    20  52    5.1166   453.6    5.659      43.050
2015    2       18    20  57    5.1202   453.5    5.665      43.065
2015    2       18    21   3    5.1237   453.5    5.671      43.080
2015    2       18    21   8    5.1274   453.4    5.677      43.094
2015    2       18    21  13    5.1310   453.4    5.683      43.109
2015    2       18    21  18    5.1345   453.3    5.689      43.123
2015    2       18    21  24    5.1382   453.3    5.694      43.137
2015    2       18    21  29    5.1418   453.2    5.700      43.151
2015    2       18    21  34    5.1454   453.2    5.706      43.165
2015    2       18    21  39    5.1490   453.1    5.711      43.178
2015    2       18    21  45    5.1526   453.0    5.717      43.192
2015    2       18    21  50    5.1561   453.0    5.723      43.205
2015    2       18    21  55    5.1597   452.9    5.728      43.218
2015    2       18    22   0    5.1635   452.9    5.734      43.231
2015    2       18    22   6    5.1670   452.8    5.739      43.245
2015    2       18    22  11    5.1707   452.8    5.745      43.258
2015    2       18    22  16    5.1744   452.7    5.750      43.271
2015    2       18    22  21    5.1780   452.7    5.756      43.284
2015    2       18    22  27    5.1816   452.6    5.761      43.297
2015    2       18    22  32    5.1853   452.6    5.767      43.310
2015    2       18    22  37    5.1890   452.6    5.772      43.324
2015    2       18    22  42    5.1927   452.5    5.778      43.337
2015    2       18    22  48    5.1964   452.5    5.783      43.350
2015    2       18    22  53    5.2001   452.4    5.789      43.364
2015    2       18    22  58    5.2038   452.4    5.795      43.377
2015    2       18    23   3    5.2076   452.3    5.800      43.391
2015    2       18    23   9    5.2113   452.3    5.806      43.405
2015    2       18    23  14    5.2150   452.2    5.812      43.419
2015    2       18    23  19    5.2187   452.2    5.817      43.433
2015    2       18    23  24    5.2225   452.1    5.823      43.448
2015    2       18    23  30    5.2263   452.1    5.829      43.462
2015    2       18    23  35    5.2300   452.1    5.835      43.477
2015    2       18    23  40    5.2338   452.0    5.841      43.492
2015    2       18    23  45    5.2376   452.0    5.847      43.507
2015    2       18    23  51    5.2413   451.9    5.853      43.523
2015    2       18    23  56    5.2452   451.9    5.859      43.539
2015    2       19     0   1    5.2490   451.9    5.865      43.555
2015    2       19     0   6    5.2528   451.8    5.872      43.571
2015    2       19     0  12    5.2566   451.8    5.878      43.587
2015    2       19     0  17    5.2604   451.7    5.884      43.604
2015    2       19     0  22    5.2643   451.7    5.891      43.622
2015    2       19     0  27    5.2681   451.7    5.897      43.640
2015    2       19     0  33    5.2720   451.6    5.904      43.658
2015    2       19     0  38    5.2758   451.6    5.910      43.677
2015    2       19     0  43    5.2796   451.6    5.917      43.696
2015    2       19     0  48    5.2835   451.5    5.923      43.716
2015    2       19     0  54    5.2873   451.5    5.930      43.737
2015    2       19     0  59    5.2912   451.5    5.937      43.758
2015    2       19     1   4    5.2950   451.4    5.943      43.780
2015    2       19     1   9    5.2989   451.4    5.950      43.802
2015    2       19     1  15    5.3028   451.4    5.956      43.825
2015    2       19     1  20    5.3067   451.3    5.963      43.848
2015    2       19     1  25    5.3105   451.3    5.970      43.872
2015    2       19     1  30    5.3144   451.3    5.976      43.897
2015    2       19     1  36    5.3183   451.2    5.983      43.922
2015    2       19     1  41    5.3221   451.2    5.989      43.948
2015    2       19     1  46    5.3260   451.2    5.996      43.974
2015    2       19     1  51    5.3299   451.2    6.002      44.000
2015    2       19     1  57    5.3338   451.1    6.009      44.027
2015    2       19     2   2    5.3377   451.1    6.015      44.053
2015    2       19     2   7    5.3417   451.1    6.022      44.080
2015    2       19     2  12    5.3456   451.1    6.028      44.107
2015    2       19     2  17    5.3495   451.0    6.034      44.134
2015    2       19     2  23    5.3534   451.0    6.041      44.161
2015    2       19     2  28    5.3574   451.0    6.047      44.188
2015    2       19     2  33    5.3613   451.0    6.053      44.215
2015    2       19     2  38    5.3653   451.0    6.059      44.243
2015    2       19     2  44    5.3692   450.9    6.065      44.270
2015    2       19     2  49    5.3732   450.9    6.072      44.296
2015    2       19     2  54    5.3772   450.9    6.078      44.323
2015    2       19     2  59    5.3811   450.9    6.084      44.349
2015    2       19     3   5    5.3851   450.9    6.089      44.376
2015    2       19     3  10    5.3890   450.9    6.095      44.401
2015    2       19     3  15    5.3930   450.9    6.101      44.427
2015    2       19     3  20    5.3970   450.8    6.107      44.453
2015    2       19     3  26    5.4009   450.8    6.113      44.478
2015    2       19     3  31    5.4049   450.8    6.118      44.503
2015    2       19     3  36    5.4089   450.8    6.124      44.528
2015    2       19     3  41    5.4129   450.8    6.129      44.552
2015    2       19     3  47    5.4168   450.8    6.135      44.576
2015    2       19     3  52    5.4208   450.8    6.140      44.600
2015    2       19     3  57    5.4248   450.8    6.145      44.623
2015    2       19     4   2    5.4288   450.7    6.150      44.646
2015    2       19     4   8    5.4327   450.7    6.156      44.669
2015    2       19     4  13    5.4367   450.7    6.161      44.692
2015    2       19     4  18    5.4407   450.7    6.166      44.714
2015    2       19     4  23    5.4447   450.7    6.171      44.736
2015    2       19     4  29    5.4486   450.7    6.176      44.758
2015    2       19     4  34    5.4526   450.7    6.181      44.780
2015    2       19     4  39    5.4566   450.7    6.186      44.801
2015    2       19     4  44    5.4606   450.7    6.191      44.822
2015    2       19     4  50    5.4646   450.7    6.196      44.843
2015    2       19     4  55    5.4685   450.7    6.200      44.863
2015    2       19     5   0    5.4725   450.6    6.205      44.884
2015    2       19     5   5    5.4765   450.6    6.210      44.904
2015    2       19     5  11    5.4805   450.6    6.215      44.924
2015    2       19     5  16    5.4845   450.6    6.219      44.944
2015    2       19     5  21    5.4885   450.6    6.224      44.964
2015    2       19     5  26    5.4925   450.6    6.229      44.984
2015    2       19     5  32    5.4965   450.6    6.234      45.004
2015    2       19     5  37    5.5005   450.6    6.238      45.023
2015    2       19     5  42    5.5046   450.6    6.243      45.043
2015    2       19     5  47    5.5086   450.6    6.248      45.063
2015    2       19     5  53    5.5126   450.6    6.253      45.083
2015    2       19     5  58    5.5166   450.6    6.258      45.103
2015    2       19     6   3    5.5207   450.6    6.262      45.124
2015    2       19     6   8    5.5247   450.6    6.267      45.144
2015    2       19     6  14    5.5288   450.6    6.272      45.165
2015    2       19     6  19    5.5329   450.5    6.277      45.186
2015    2       19     6  24    5.5370   450.5    6.282      45.207
2015    2       19     6  29    5.5411   450.5    6.287      45.229
2015    2       19     6  35    5.5452   450.5    6.292      45.251
2015    2       19     6  40    5.5493   450.5    6.298      45.274
2015    2       19     6  45    5.5534   450.5    6.303      45.297
2015    2       19     6  50    5.5576   450.5    6.308      45.320
2015    2       19     6  56    5.5618   450.5    6.314      45.344
2015    2       19     7   1    5.5660   450.5    6.319      45.368
2015    2       19     7   6    5.5702   450.5    6.325      45.394
2015    2       19     7  11    5.5744   450.5    6.331      45.419
2015    2       19     7  17    5.5786   450.5    6.337      45.447
2015    2       19     7  22    5.5829   450.5    6.342      45.475
2015    2       19     7  27    5.5871   450.5    6.348      45.504
2015    2       19     7  32    5.5914   450.5    6.354      45.535
2015    2       19     7  38    5.5956   450.5    6.360      45.566
2015    2       19     7  43    5.5998   450.5    6.366      45.599
2015    2       19     7  48    5.6041   450.5    6.372      45.632
2015    2       19     7  53    5.6084   450.5    6.378      45.666
2015    2       19     7  59    5.6126   450.6    6.384      45.700
2015    2       19     8   4    5.6168   450.6    6.390      45.735
2015    2       19     8   9    5.6210   450.6    6.396      45.770
2015    2       19     8  14    5.6253   450.6    6.402      45.806
2015    2       19     8  19    5.6295   450.6    6.407      45.842
2015    2       19     8  25    5.6336   450.6    6.413      45.878
2015    2       19     8  30    5.6378   450.6    6.419      45.914
2015    2       19     8  35    5.6420   450.6    6.425      45.950
2015    2       19     8  40    5.6462   450.7    6.430      45.986
2015    2       19     8  46    5.6503   450.7    6.436      46.023
2015    2       19     8  51    5.6544   450.7    6.442      46.059
2015    2       19     8  56    5.6586   450.7    6.447      46.095
2015    2       19     9   1    5.6627   450.7    6.453      46.131
2015    2       19     9   7    5.6669   450.7    6.458      46.168
2015    2       19     9  12    5.6710   450.8    6.464      46.204
2015    2       19     9  17    5.6752   450.8    6.469      46.240
2015    2       19     9  22    5.6793   450.8    6.475      46.276
2015    2       19     9  28    5.6834   450.8    6.480      46.312
2015    2       19     9  33    5.6875   450.8    6.485      46.347
2015    2       19     9  38    5.6916   450.9    6.490      46.383
2015    2       19     9  43    5.6957   450.9    6.496      46.418
2015    2       19     9  49    5.6998   450.9    6.501      46.453
2015    2       19     9  54    5.7039   450.9    6.506      46.489
2015    2       19     9  59    5.7080   451.0    6.511      46.524
2015    2       19    10   4    5.7121   451.0    6.515      46.559
2015    2       19    10  10    5.7161   451.0    6.520      46.593
2015    2       19    10  15    5.7202   451.0    6.525      46.628
2015    2       19    10  20    5.7242   451.1    6.529      46.661
2015    2       19    10  25    5.7283   451.1    6.534      46.695
2015    2       19    10  31    5.7323   451.1    6.538      46.728
2015    2       19    10  36    5.7363   451.2    6.543      46.761
2015    2       19    10  41    5.7403   451.2    6.547      46.793
2015    2       19    10  46    5.7443   451.2    6.551      46.825
2015    2       19    10  52    5.7483   451.2    6.555      46.857
2015    2       19    10  57    5.7523   451.3    6.559      46.888
2015    2       19    11   2    5.7562   451.3    6.563      46.919
2015    2       19    11   7    5.7601   451.3    6.567      46.950
2015    2       19    11  13    5.7641   451.4    6.571      46.980
2015    2       19    11  18    5.7681   451.4    6.575      47.010
2015    2       19    11  23    5.7720   451.4    6.579      47.040
2015    2       19    11  28    5.7759   451.5    6.582      47.069
2015    2       19    11  34    5.7799   451.5    6.586      47.098
2015    2       19    11  39    5.7838   451.5    6.590      47.127
2015    2       19    11  44    5.7877   451.6    6.593      47.156
2015    2       19    11  49    5.7918   451.6    6.597      47.185
2015    2       19    11  55    5.7957   451.6    6.601      47.214
2015    2       19    12   0    5.7996   451.6    6.604      47.242
2015    2       19    12   5    5.8036   451.7    6.608      47.270
2015    2       19    12  10    5.8076   451.7    6.612      47.299
2015    2       19    12  16    5.8116   451.8    6.615      47.328
2015    2       19    12  21    5.8155   451.8    6.619      47.356
2015    2       19    12  26    5.8195   451.8    6.623      47.385
2015    2       19    12  31    5.8235   451.9    6.626      47.413
2015    2       19    12  37    5.8275   451.9    6.630      47.442
2015    2       19    12  42    5.8315   451.9    6.634      47.471
2015    2       19    12  47    5.8355   452.0    6.637      47.499
2015    2       19    12  52    5.8396   452.0    6.641      47.529
2015    2       19    12  58    5.8435   452.1    6.645      47.558
2015    2       19    13   3    5.8475   452.1    6.649      47.587
2015    2       19    13   8    5.8516   452.1    6.652      47.617
2015    2       19    13  13    5.8556   452.2    6.656      47.647
2015    2       19    13  19    5.8596   452.2    6.660      47.677
2015    2       19    13  24    5.8637   452.3    6.664      47.707
2015    2       19    13  29    5.8676   452.3    6.668      47.738
2015    2       19    13  34    5.8717   452.3    6.672      47.770
2015    2       19    13  40    5.8757   452.4    6.676      47.801
2015    2       19    13  45    5.8797   452.4    6.681      47.834
2015    2       19    13  50    5.8837   452.5    6.685      47.866
2015    2       19    13  55    5.8878   452.5    6.689      47.899
2015    2       19    14   1    5.8918   452.5    6.693      47.932
2015    2       19    14   6    5.8957   452.6    6.698      47.966
2015    2       19    14  11    5.8997   452.6    6.702      48.000
2015    2       19    14  16    5.9037   452.7    6.706      48.035
2015    2       19    14  21    5.9078   452.7    6.711      48.070
2015    2       19    14  27    5.9117   452.8    6.716      48.106
2015    2       19    14  32    5.9157   452.8    6.720      48.142
2015    2       19    14  37    5.9197   452.9    6.725      48.178
2015    2       19    14  42    5.9237   452.9    6.730      48.215
2015    2       19    14  48    5.9278   452.9    6.735      48.252
2015    2       19    14  53    5.9317   453.0    6.740      48.291
2015    2       19    14  58    5.9358   453.0    6.745      48.331
2015    2       19    15   3    5.9398   453.1    6.750      48.373
2015    2       19    15   9    5.9437   453.1    6.755      48.415
2015    2       19    15  14    5.9476   453.2    6.760      48.459
2015    2       19    15  19    5.9516   453.3    6.764      48.503
2015    2       19    15  24    5.9555   453.3    6.769      48.547
2015    2       19    15  30    5.9594   453.4    6.774      48.592
2015    2       19    15  35    5.9633   453.4    6.778      48.638
2015    2       19    15  40    5.9670   453.5    6.783      48.683
2015    2       19    15  45    5.9709   453.6    6.787      48.728
2015    2       19    15  51    5.9746   453.6    6.791      48.773
2015    2       19    15  56    5.9783   453.7    6.795      48.819
2015    2       19    16   1    5.9820   453.8    6.799      48.864
2015    2       19    16   6    5.9856   453.8    6.803      48.908
2015    2       19    16  12    5.9892   453.9    6.806      48.952
2015    2       19    16  17    5.9928   454.0    6.809      48.995
2015    2       19    16  22    5.9963   454.1    6.813      49.038
2015    2       19    16  27    5.9998   454.1    6.816      49.079
2015    2       19    16  33    6.0032   454.2    6.818      49.120
2015    2       19    16  38    6.0066   454.3    6.821      49.159
2015    2       19    16  43    6.0100   454.3    6.824      49.199
2015    2       19    16  48    6.0135   454.4    6.826      49.237
2015    2       19    16  54    6.0168   454.5    6.828      49.275
2015    2       19    16  59    6.0202   454.6    6.831      49.312
2015    2       19    17   4    6.0235   454.6    6.833      49.348
2015    2       19    17   9    6.0269   454.7    6.835      49.384
2015    2       19    17  15    6.0301   454.8    6.837      49.420
2015    2       19    17  20    6.0335   454.8    6.839      49.455
2015    2       19    17  25    6.0367   454.9    6.841      49.489
2015    2       19    17  30    6.0399   455.0    6.842      49.523
2015    2       19    17  36    6.0432   455.1    6.844      49.557
2015    2       19    17  41    6.0465   455.1    6.846      49.590
2015    2       19    17  46    6.0497   455.2    6.847      49.623
2015    2       19    17  51    6.0530   455.3    6.849      49.656
2015    2       19    17  57    6.0561   455.4    6.850      49.688
2015    2       19    18   2    6.0593   455.4    6.852      49.720
2015    2       19    18   7    6.0625   455.5    6.853      49.752
2015    2       19    18  12    6.0658   455.6    6.855      49.783
2015    2       19    18  18    6.0690   455.7    6.856      49.814
2015    2       19    18  23    6.0722   455.7    6.857      49.845
2015    2       19    18  28    6.0754   455.8    6.859      49.876
2015    2       19    18  33    6.0785   455.9    6.860      49.907
2015    2       19    18  39    6.0818   456.0    6.861      49.938
2015    2       19    18  44    6.0850   456.0    6.863      49.968
2015    2       19    18  49    6.0882   456.1    6.864      49.999
2015    2       19    18  54    6.0914   456.2    6.865      50.029
2015    2       19    19   0    6.0946   456.3    6.867      50.060
2015    2       19    19   5    6.0977   456.3    6.868      50.090
2015    2       19    19  10    6.1010   456.4    6.869      50.121
2015    2       19    19  15    6.1041   456.5    6.871      50.152
2015    2       19    19  21    6.1074   456.6    6.872      50.183
2015    2       19    19  26    6.1105   456.6    6.873      50.214
2015    2       19    19  31    6.1137   456.7    6.875      50.245
2015    2       19    19  36    6.1169   456.8    6.876      50.276
2015    2       19    19  42    6.1200   456.9    6.878      50.307
2015    2       19    19  47    6.1233   457.0    6.879      50.339
2015    2       19    19  52    6.1265   457.0    6.881      50.370
2015    2       19    19  57    6.1295   457.1    6.882      50.402
2015    2       19    20   3    6.1327   457.2    6.884      50.434
2015    2       19    20   8    6.1358   457.3    6.885      50.466
2015    2       19    20  13    6.1390   457.4    6.887      50.499
2015    2       19    20  18    6.1421   457.4    6.889      50.531
2015    2       19    20  23    6.1452   457.5    6.891      50.564
2015    2       19    20  29    6.1483   457.6    6.893      50.597
2015    2       19    20  34    6.1513   457.7    6.894      50.631
2015    2       19    20  39    6.1543   457.8    6.896      50.665
2015    2       19    20  44    6.1573   457.8    6.898      50.699
2015    2       19    20  50    6.1603   457.9    6.900      50.734
2015    2       19    20  55    6.1634   458.0    6.902      50.770
2015    2       19    21   0    6.1663   458.1    6.905      50.805
2015    2       19    21   5    6.1693   458.2    6.907      50.842
2015    2       19    21  11    6.1722   458.2    6.909      50.878
2015    2       19    21  16    6.1753   458.3    6.911      50.915
2015    2       19    21  21    6.1781   458.4    6.913      50.952
2015    2       19    21  26    6.1811   458.5    6.915      50.989
2015    2       19    21  32    6.1838   458.5    6.917      51.027
2015    2       19    21  37    6.1868   458.6    6.919      51.065
2015    2       19    21  42    6.1895   458.7    6.921      51.103
2015    2       19    21  47    6.1924   458.8    6.924      51.141
2015    2       19    21  53    6.1953   458.9    6.926      51.180
2015    2       19    21  58    6.1982   458.9    6.928      51.219
2015    2       19    22   3    6.2009   459.0    6.930      51.258
2015    2       19    22   8    6.2038   459.1    6.932      51.297
2015    2       19    22  14    6.2065   459.2    6.935      51.336
2015    2       19    22  19    6.2095   459.2    6.937      51.376
2015    2       19    22  24    6.2122   459.3    6.940      51.416
2015    2       19    22  29    6.2151   459.4    6.942      51.458
2015    2       19    22  35    6.2178   459.5    6.945      51.499
2015    2       19    22  40    6.2208   459.6    6.947      51.542
2015    2       19    22  45    6.2236   459.7    6.950      51.584
2015    2       19    22  50    6.2262   459.7    6.952      51.628
2015    2       19    22  56    6.2290   459.8    6.955      51.671
2015    2       19    23   1    6.2317   459.9    6.957      51.714
2015    2       19    23   6    6.2346   460.0    6.959      51.758
2015    2       19    23  11    6.2373   460.1    6.961      51.800
2015    2       19    23  17    6.2399   460.2    6.964      51.843
2015    2       19    23  22    6.2424   460.3    6.965      51.885
2015    2       19    23  27    6.2450   460.4    6.967      51.928
2015    2       19    23  32    6.2476   460.5    6.969      51.969
2015    2       19    23  38    6.2501   460.6    6.970      52.011
2015    2       19    23  43    6.2525   460.7    6.971      52.051
2015    2       19    23  48    6.2551   460.8    6.972      52.090
2015    2       19    23  53    6.2575   460.9    6.973      52.128
2015    2       19    23  59    6.2598   461.0    6.974      52.166
2015    2       20     0   4    6.2621   461.1    6.975      52.202
2015    2       20     0   9    6.2644   461.2    6.975      52.238
2015    2       20     0  14    6.2666   461.3    6.975      52.273
2015    2       20     0  20    6.2689   461.4    6.976      52.307
2015    2       20     0  25    6.2710   461.5    6.976      52.340
2015    2       20     0  30    6.2732   461.6    6.976      52.373
2015    2       20     0  35    6.2754   461.7    6.975      52.405
2015    2       20     0  41    6.2775   461.8    6.975      52.437
2015    2       20     0  46    6.2797   461.9    6.975      52.468
2015    2       20     0  51    6.2817   462.0    6.975      52.498
2015    2       20     0  56    6.2838   462.1    6.974      52.528
2015    2       20     1   2    6.2860   462.2    6.974      52.558
2015    2       20     1   7    6.2880   462.3    6.973      52.587
2015    2       20     1  12    6.2901   462.4    6.973      52.616
2015    2       20     1  17    6.2923   462.6    6.972      52.645
2015    2       20     1  23    6.2942   462.7    6.972      52.673
2015    2       20     1  28    6.2964   462.8    6.971      52.702
2015    2       20     1  33    6.2983   462.9    6.971      52.730
2015    2       20     1  38    6.3004   463.0    6.970      52.758
2015    2       20     1  44    6.3025   463.1    6.970      52.785
2015    2       20     1  49    6.3045   463.2    6.969      52.813
2015    2       20     1  54    6.3065   463.3    6.969      52.840
2015    2       20     1  59    6.3086   463.4    6.968      52.868
2015    2       20     2   4    6.3105   463.5    6.968      52.895
2015    2       20     2  10    6.3126   463.6    6.967      52.923
2015    2       20     2  15    6.3146   463.7    6.967      52.950
2015    2       20     2  20    6.3167   463.8    6.966      52.977
2015    2       20     2  25    6.3187   463.9    6.966      53.005
2015    2       20     2  31    6.3206   464.0    6.966      53.033
2015    2       20     2  36    6.3227   464.1    6.965      53.061
2015    2       20     2  41    6.3246   464.2    6.965      53.090
2015    2       20     2  46    6.3266   464.4    6.965      53.119
2015    2       20     2  52    6.3286   464.5    6.965      53.148
2015    2       20     2  57    6.3305   464.6    6.965      53.177
2015    2       20     3   2    6.3325   464.7    6.964      53.207
2015    2       20     3   7    6.3345   464.8    6.964      53.237
2015    2       20     3  13    6.3365   464.9    6.964      53.267
2015    2       20     3  18    6.3384   465.0    6.964      53.297
2015    2       20     3  23    6.3404   465.1    6.964      53.328
2015    2       20     3  28    6.3423   465.2    6.964      53.359
2015    2       20     3  34    6.3444   465.3    6.964      53.390
2015    2       20     3  39    6.3463   465.4    6.965      53.422
2015    2       20     3  44    6.3483   465.5    6.965      53.453
2015    2       20     3  49    6.3503   465.6    6.965      53.485
2015    2       20     3  55    6.3522   465.7    6.966      53.518
2015    2       20     4   0    6.3542   465.8    6.966      53.551
2015    2       20     4   5    6.3563   465.9    6.967      53.585
2015    2       20     4  10    6.3583   466.0    6.967      53.619
2015    2       20     4  16    6.3604   466.1    6.968      53.653
2015    2       20     4  21    6.3623   466.2    6.969      53.688
2015    2       20     4  26    6.3644   466.3    6.971      53.724
2015    2       20     4  31    6.3665   466.4    6.972      53.761
2015    2       20     4  37    6.3685   466.5    6.973      53.798
2015    2       20     4  42    6.3705   466.6    6.974      53.837
2015    2       20     4  47    6.3726   466.7    6.976      53.877
2015    2       20     4  52    6.3746   466.8    6.977      53.917
2015    2       20     4  58    6.3766   466.9    6.979      53.958
2015    2       20     5   3    6.3787   467.0    6.980      54.000
2015    2       20     5   8    6.3806   467.2    6.981      54.041
2015    2       20     5  13    6.3826   467.3    6.983      54.083
2015    2       20     5  19    6.3844   467.4    6.984      54.124
2015    2       20     5  24    6.3864   467.5    6.985      54.166
2015    2       20     5  29    6.3881   467.6    6.986      54.209
2015    2       20     5  34    6.3900   467.7    6.987      54.252
2015    2       20     5  40    6.3917   467.9    6.987      54.294
2015    2       20     5  45    6.3934   468.0    6.988      54.336
2015    2       20     5  50    6.3949   468.1    6.988      54.377
2015    2       20     5  55    6.3966   468.2    6.988      54.417
2015    2       20     6   1    6.3981   468.3    6.988      54.457
2015    2       20     6   6    6.3995   468.5    6.988      54.496
2015    2       20     6  11    6.4010   468.6    6.988      54.534
2015    2       20     6  16    6.4025   468.7    6.987      54.571
2015    2       20     6  22    6.4037   468.8    6.986      54.608
2015    2       20     6  27    6.4050   469.0    6.985      54.644
2015    2       20     6  32    6.4063   469.1    6.984      54.679
2015    2       20     6  37    6.4075   469.2    6.982      54.713
2015    2       20     6  43    6.4087   469.4    6.981      54.746
2015    2       20     6  48    6.4099   469.5    6.979      54.778
2015    2       20     6  53    6.4110   469.6    6.977      54.809
2015    2       20     6  58    6.4121   469.7    6.975      54.840
2015    2       20     7   4    6.4131   469.9    6.973      54.869
2015    2       20     7   9    6.4140   470.0    6.970      54.898
2015    2       20     7  14    6.4151   470.1    6.968      54.926
2015    2       20     7  19    6.4160   470.3    6.965      54.954
2015    2       20     7  25    6.4169   470.4    6.963      54.980
2015    2       20     7  30    6.4178   470.5    6.960      55.006
2015    2       20     7  35    6.4187   470.6    6.957      55.032
2015    2       20     7  40    6.4196   470.8    6.954      55.057
2015    2       20     7  46    6.4205   470.9    6.951      55.081
2015    2       20     7  51    6.4212   471.0    6.948      55.105
2015    2       20     7  56    6.4220   471.2    6.945      55.128
2015    2       20     8   1    6.4228   471.3    6.942      55.150
2015    2       20     8   6    6.4236   471.4    6.938      55.172
2015    2       20     8  12    6.4245   471.5    6.935      55.194
2015    2       20     8  17    6.4251   471.7    6.932      55.216
2015    2       20     8  22    6.4260   471.8    6.929      55.237
2015    2       20     8  27    6.4266   471.9    6.926      55.258
2015    2       20     8  33    6.4274   472.1    6.922      55.278
2015    2       20     8  38    6.4280   472.2    6.919      55.298
2015    2       20     8  43    6.4288   472.3    6.916      55.319
2015    2       20     8  48    6.4294   472.5    6.913      55.339
2015    2       20     8  54    6.4302   472.6    6.909      55.359
2015    2       20     8  59    6.4309   472.7    6.906      55.379
2015    2       20     9   4    6.4315   472.8    6.903      55.399
2015    2       20     9   9    6.4322   473.0    6.900      55.419
2015    2       20     9  15    6.4329   473.1    6.897      55.439
2015    2       20     9  20    6.4336   473.2    6.895      55.459
2015    2       20     9  25    6.4344   473.4    6.892      55.479
2015    2       20     9  30    6.4350   473.5    6.889      55.500
2015    2       20     9  36    6.4359   473.6    6.887      55.521
2015    2       20     9  41    6.4366   473.7    6.884      55.542
2015    2       20     9  46    6.4373   473.9    6.882      55.564
2015    2       20     9  51    6.4382   474.0    6.880      55.587
2015    2       20     9  57    6.4390   474.1    6.878      55.610
2015    2       20    10   2    6.4398   474.3    6.876      55.635
2015    2       20    10   7    6.4406   474.4    6.875      55.660
2015    2       20    10  12    6.4413   474.5    6.873      55.687
2015    2       20    10  18    6.4422   474.7    6.872      55.714
2015    2       20    10  23    6.4429   474.8    6.870      55.741
2015    2       20    10  28    6.4439   474.9    6.869      55.770
2015    2       20    10  33    6.4445   475.1    6.868      55.800
2015    2       20    10  39    6.4454   475.2    6.866      55.830
2015    2       20    10  44    6.4460   475.3    6.865      55.861
2015    2       20    10  49    6.4467   475.5    6.864      55.894
2015    2       20    10  54    6.4474   475.6    6.863      55.926
2015    2       20    11   0    6.4482   475.8    6.862      55.959
2015    2       20    11   5    6.4486   475.9    6.861      55.993
2015    2       20    11  10    6.4492   476.0    6.860      56.026
2015    2       20    11  15    6.4497   476.2    6.859      56.059
2015    2       20    11  21    6.4503   476.3    6.857      56.093
2015    2       20    11  26    6.4508   476.5    6.856      56.125
2015    2       20    11  31    6.4510   476.6    6.855      56.158
2015    2       20    11  36    6.4513   476.8    6.854      56.191
2015    2       20    11  42    6.4519   476.9    6.852      56.224
2015    2       20    11  47    6.4520   477.1    6.851      56.255
2015    2       20    11  52    6.4522   477.2    6.849      56.287
2015    2       20    11  57    6.4524   477.3    6.848      56.318
2015    2       20    12   3    6.4528   477.5    6.847      56.350
2015    2       20    12   8    6.4527   477.6    6.845      56.382
2015    2       20    12  13    6.4527   477.8    6.844      56.413
2015    2       20    12  18    6.4529   477.9    6.842      56.445
2015    2       20    12  24    6.4526   478.1    6.840      56.477
2015    2       20    12  29    6.4525   478.2    6.838      56.508
2015    2       20    12  34    6.4523   478.4    6.836      56.540
2015    2       20    12  39    6.4520   478.5    6.834      56.571
2015    2       20    12  45    6.4519   478.7    6.832      56.601
2015    2       20    12  50    6.4513   478.9    6.829      56.630
2015    2       20    12  55    6.4511   479.0    6.826      56.660
2015    2       20    13   0    6.4503   479.2    6.823      56.688
2015    2       20    13   6    6.4500   479.3    6.820      56.716
2015    2       20    13  11    6.4491   479.5    6.817      56.744
2015    2       20    13  16    6.4486   479.6    6.813      56.770
2015    2       20    13  21    6.4478   479.8    6.809      56.795
2015    2       20    13  27    6.4469   479.9    6.805      56.819
2015    2       20    13  32    6.4458   480.1    6.801      56.842
2015    2       20    13  37    6.4448   480.3    6.796      56.864
2015    2       20    13  42    6.4441   480.4    6.792      56.885
2015    2       20    13  48    6.4430   480.6    6.787      56.904
2015    2       20    13  53    6.4419   480.7    6.782      56.924
2015    2       20    13  58    6.4405   480.9    6.777      56.942
2015    2       20    14   3    6.4396   481.0    6.771      56.959
2015    2       20    14   8    6.4381   481.2    6.766      56.976
2015    2       20    14  14    6.4369   481.4    6.760      56.992
2015    2       20    14  19    6.4358   481.5    6.755      57.007
2015    2       20    14  24    6.4345   481.7    6.749      57.022
2015    2       20    14  29    6.4330   481.8    6.743      57.036
2015    2       20    14  35    6.4318   482.0    6.738      57.049
2015    2       20    14  40    6.4302   482.1    6.732      57.062
2015    2       20    14  45    6.4290   482.3    6.726      57.074
2015    2       20    14  50    6.4276   482.4    6.720      57.085
2015    2       20    14  56    6.4261   482.6    6.713      57.096
2015    2       20    15   1    6.4244   482.7    6.707      57.106
2015    2       20    15   6    6.4231   482.9    6.701      57.116
2015    2       20    15  11    6.4216   483.0    6.695      57.126
2015    2       20    15  17    6.4200   483.2    6.689      57.134
2015    2       20    15  22    6.4182   483.3    6.682      57.143
2015    2       20    15  27    6.4169   483.5    6.676      57.151
2015    2       20    15  32    6.4150   483.6    6.670      57.158
2015    2       20    15  38    6.4136   483.7    6.663      57.165
2015    2       20    15  43    6.4120   483.9    6.657      57.172
2015    2       20    15  48    6.4103   484.0    6.651      57.178
2015    2       20    15  53    6.4084   484.2    6.644      57.184
2015    2       20    15  59    6.4067   484.3    6.638      57.189
2015    2       20    16   4    6.4050   484.4    6.631      57.194
2015    2       20    16   9    6.4035   484.6    6.625      57.199
2015    2       20    16  14    6.4015   484.7    6.619      57.204
2015    2       20    16  20    6.3998   484.9    6.613      57.208
2015    2       20    16  25    6.3980   485.0    6.606      57.212
2015    2       20    16  30    6.3965   485.1    6.600      57.216
2015    2       20    16  35    6.3944   485.3    6.594      57.219
2015    2       20    16  41    6.3926   485.4    6.588      57.223
2015    2       20    16  46    6.3908   485.5    6.582      57.226
2015    2       20    16  51    6.3893   485.7    6.576      57.230
2015    2       20    16  56    6.3875   485.8    6.570      57.234
2015    2       20    17   2    6.3857   485.9    6.564      57.237
2015    2       20    17   7    6.3839   486.0    6.559      57.241
2015    2       20    17  12    6.3821   486.2    6.553      57.245
2015    2       20    17  17    6.3800   486.3    6.548      57.249
2015    2       20    17  23    6.3783   486.4    6.542      57.254
2015    2       20    17  28    6.3768   486.6    6.537      57.260
2015    2       20    17  33    6.3750   486.7    6.532      57.265
2015    2       20    17  38    6.3729   486.8    6.527      57.272
2015    2       20    17  44    6.3711   486.9    6.522      57.278
2015    2       20    17  49    6.3692   487.1    6.518      57.285
2015    2       20    17  54    6.3673   487.2    6.513      57.293
2015    2       20    17  59    6.3657   487.3    6.508      57.301
2015    2       20    18   5    6.3635   487.5    6.504      57.310
2015    2       20    18  10    6.3618   487.6    6.499      57.320
2015    2       20    18  15    6.3594   487.7    6.495      57.330
2015    2       20    18  20    6.3573   487.9    6.491      57.340
2015    2       20    18  26    6.3556   488.0    6.486      57.350
2015    2       20    18  31    6.3533   488.1    6.482      57.360
2015    2       20    18  36    6.3507   488.3    6.477      57.369
2015    2       20    18  41    6.3484   488.4    6.473      57.378
2015    2       20    18  47    6.3464   488.5    6.468      57.387
2015    2       20    18  52    6.3439   488.7    6.464      57.396
2015    2       20    18  57    6.3410   488.8    6.459      57.404
2015    2       20    19   2    6.3387   488.9    6.454      57.411
2015    2       20    19   8    6.3361   489.1    6.450      57.418
2015    2       20    19  13    6.3333   489.2    6.445      57.423
2015    2       20    19  18    6.3305   489.4    6.440      57.428
2015    2       20    19  23    6.3273   489.5    6.435      57.433
2015    2       20    19  28    6.3248   489.6    6.429      57.436
2015    2       20    19  34    6.3218   489.7    6.424      57.439
2015    2       20    19  39    6.3184   489.9    6.419      57.441
2015    2       20    19  44    6.3153   490.0    6.413      57.443
2015    2       20    19  49    6.3126   490.1    6.408      57.443
2015    2       20    19  55    6.3090   490.3    6.402      57.443
2015    2       20    20   0    6.3058   490.4    6.397      57.443
2015    2       20    20   5    6.3025   490.5    6.391      57.441
2015    2       20    20  10    6.2996   490.6    6.386      57.439
2015    2       20    20  16    6.2959   490.8    6.380      57.437
2015    2       20    20  21    6.2925   490.9    6.374      57.434
2015    2       20    20  26    6.2895   491.0    6.368      57.430
2015    2       20    20  31    6.2860   491.1    6.362      57.426
2015    2       20    20  37    6.2822   491.2    6.356      57.421
2015    2       20    20  42    6.2791   491.4    6.350      57.415
2015    2       20    20  47    6.2752   491.5    6.344      57.409
2015    2       20    20  52    6.2716   491.6    6.338      57.402
2015    2       20    20  58    6.2684   491.7    6.332      57.395
2015    2       20    21   3    6.2648   491.8    6.326      57.387
2015    2       20    21   8    6.2608   491.9    6.320      57.379
2015    2       20    21  13    6.2576   492.0    6.314      57.370
2015    2       20    21  19    6.2536   492.1    6.308      57.361
2015    2       20    21  24    6.2499   492.2    6.302      57.351
2015    2       20    21  29    6.2466   492.4    6.295      57.340
2015    2       20    21  34    6.2426   492.5    6.289      57.329
2015    2       20    21  40    6.2392   492.6    6.283      57.318
2015    2       20    21  45    6.2355   492.7    6.277      57.306
2015    2       20    21  50    6.2318   492.8    6.270      57.293
2015    2       20    21  55    6.2279   492.9    6.264      57.280
2015    2       20    22   1    6.2242   493.0    6.258      57.266
2015    2       20    22   6    6.2207   493.1    6.251      57.252
2015    2       20    22  11    6.2168   493.2    6.245      57.238
2015    2       20    22  16    6.2131   493.3    6.238      57.222
2015    2       20    22  22    6.2096   493.4    6.232      57.207
2015    2       20    22  27    6.2059   493.4    6.225      57.191
2015    2       20    22  32    6.2022   493.5    6.219      57.174
2015    2       20    22  37    6.1985   493.6    6.212      57.157
2015    2       20    22  43    6.1947   493.7    6.206      57.139
2015    2       20    22  48    6.1910   493.8    6.199      57.121
2015    2       20    22  53    6.1870   493.9    6.193      57.102
2015    2       20    22  58    6.1835   494.0    6.186      57.083
2015    2       20    23   4    6.1798   494.1    6.179      57.064
2015    2       20    23   9    6.1758   494.2    6.173      57.044
2015    2       20    23  14    6.1722   494.3    6.166      57.023
2015    2       20    23  19    6.1684   494.3    6.160      57.002
2015    2       20    23  25    6.1646   494.4    6.153      56.981
2015    2       20    23  30    6.1608   494.5    6.146      56.959
2015    2       20    23  35    6.1570   494.6    6.139      56.937
2015    2       20    23  40    6.1532   494.7    6.133      56.914
2015    2       20    23  46    6.1494   494.7    6.126      56.892
2015    2       20    23  51    6.1454   494.8    6.119      56.868
2015    2       20    23  56    6.1417   494.9    6.113      56.844
2015    2       21     0   1    6.1377   495.0    6.106      56.820
2015    2       21     0   7    6.1340   495.1    6.099      56.796
2015    2       21     0  12    6.1301   495.1    6.092      56.771
2015    2       21     0  17    6.1261   495.2    6.086      56.746
2015    2       21     0  22    6.1222   495.3    6.079      56.721
2015    2       21     0  28    6.1182   495.3    6.072      56.695
2015    2       21     0  33    6.1145   495.4    6.065      56.669
2015    2       21     0  38    6.1106   495.5    6.059      56.643
2015    2       21     0  43    6.1065   495.6    6.052      56.616
2015    2       21     0  49    6.1025   495.6    6.045      56.590
2015    2       21     0  54    6.0986   495.7    6.039      56.563
2015    2       21     0  59    6.0946   495.8    6.032      56.535
2015    2       21     1   4    6.0908   495.8    6.026      56.508
2015    2       21     1   9    6.0866   495.9    6.019      56.480
2015    2       21     1  15    6.0828   495.9    6.013      56.452
2015    2       21     1  20    6.0787   496.0    6.006      56.424
2015    2       21     1  25    6.0747   496.1    6.000      56.396
2015    2       21     1  30    6.0708   496.1    5.994      56.368
2015    2       21     1  36    6.0667   496.2    5.987      56.340
2015    2       21     1  41    6.0625   496.2    5.981      56.312
2015    2       21     1  46    6.0586   496.3    5.975      56.284
2015    2       21     1  51    6.0544   496.3    5.969      56.256
2015    2       21     1  57    6.0504   496.4    5.963      56.227
2015    2       21     2   2    6.0463   496.4    5.957      56.199
2015    2       21     2   7    6.0422   496.5    5.951      56.170
2015    2       21     2  12    6.0379   496.5    5.945      56.142
2015    2       21     2  18    6.0339   496.6    5.940      56.113
2015    2       21     2  23    6.0296   496.6    5.934      56.084
2015    2       21     2  28    6.0255   496.7    5.929      56.054
2015    2       21     2  33    6.0211   496.7    5.923      56.025
2015    2       21     2  39    6.0171   496.8    5.918      55.996
2015    2       21     2  44    6.0127   496.8    5.912      55.966
2015    2       21     2  49    6.0084   496.9    5.907      55.936
2015    2       21     2  54    6.0043   496.9    5.902      55.906
2015    2       21     3   0    6.0000   497.0    5.896      55.876
2015    2       21     3   5    5.9958   497.0    5.891      55.845
2015    2       21     3  10    5.9915   497.0    5.886      55.814
2015    2       21     3  15    5.9871   497.1    5.881      55.783
2015    2       21     3  21    5.9829   497.1    5.876      55.752
2015    2       21     3  26    5.9786   497.1    5.871      55.720
2015    2       21     3  31    5.9742   497.2    5.866      55.688
2015    2       21     3  36    5.9699   497.2    5.862      55.656
2015    2       21     3  42    5.9656   497.2    5.857      55.623
2015    2       21     3  47    5.9614   497.2    5.852      55.590
2015    2       21     3  52    5.9569   497.3    5.847      55.557
2015    2       21     3  57    5.9527   497.3    5.843      55.524
2015    2       21     4   3    5.9483   497.3    5.838      55.490
2015    2       21     4   8    5.9441   497.3    5.834      55.456
2015    2       21     4  13    5.9398   497.3    5.829      55.422
2015    2       21     4  18    5.9355   497.4    5.825      55.387
2015    2       21     4  24    5.9313   497.4    5.820      55.352
2015    2       21     4  29    5.9270   497.4    5.816      55.317
2015    2       21     4  34    5.9228   497.4    5.811      55.282
2015    2       21     4  39    5.9186   497.4    5.807      55.246
2015    2       21     4  45    5.9143   497.4    5.803      55.210
2015    2       21     4  50    5.9102   497.4    5.799      55.174
2015    2       21     4  55    5.9060   497.4    5.795      55.137
2015    2       21     5   0    5.9019   497.4    5.790      55.101
2015    2       21     5   6    5.8978   497.4    5.786      55.064
2015    2       21     5  11    5.8937   497.4    5.782      55.026
2015    2       21     5  16    5.8897   497.4    5.778      54.989
2015    2       21     5  21    5.8857   497.4    5.774      54.950
2015    2       21     5  27    5.8816   497.4    5.770      54.912
2015    2       21     5  32    5.8777   497.4    5.766      54.873
2015    2       21     5  37    5.8738   497.4    5.762      54.834
2015    2       21     5  42    5.8698   497.4    5.758      54.795
2015    2       21     5  48    5.8659   497.4    5.754      54.755
2015    2       21     5  53    5.8621   497.4    5.749      54.715
2015    2       21     5  58    5.8583   497.4    5.745      54.675
2015    2       21     6   3    5.8545   497.4    5.741      54.634
2015    2       21     6   9    5.8507   497.4    5.737      54.593
2015    2       21     6  14    5.8470   497.4    5.733      54.552
2015    2       21     6  19    5.8433   497.4    5.729      54.510
2015    2       21     6  24    5.8396   497.4    5.724      54.469
2015    2       21     6  30    5.8359   497.4    5.720      54.427
2015    2       21     6  35    5.8322   497.4    5.716      54.385
2015    2       21     6  40    5.8286   497.4    5.712      54.342
2015    2       21     6  45    5.8250   497.4    5.707      54.300
2015    2       21     6  50    5.8214   497.3    5.703      54.257
2015    2       21     6  56    5.8178   497.3    5.699      54.214
2015    2       21     7   1    5.8143   497.3    5.694      54.171
2015    2       21     7   6    5.8108   497.3    5.690      54.128
2015    2       21     7  11    5.8073   497.3    5.686      54.085
2015    2       21     7  17    5.8038   497.3    5.681      54.041
2015    2       21     7  22    5.8003   497.3    5.677      53.998
2015    2       21     7  27    5.7968   497.3    5.672      53.954
2015    2       21     7  32    5.7933   497.3    5.668      53.910
2015    2       21     7  38    5.7899   497.2    5.663      53.866
2015    2       21     7  43    5.7865   497.2    5.659      53.822
2015    2       21     7  48    5.7831   497.2    5.654      53.778
2015    2       21     7  53    5.7797   497.2    5.650      53.734
2015    2       21     7  59    5.7763   497.2    5.645      53.690
2015    2       21     8   4    5.7729   497.2    5.641      53.646
2015    2       21     8   9    5.7695   497.2    5.636      53.602
2015    2       21     8  14    5.7662   497.2    5.632      53.557
2015    2       21     8  20    5.7629   497.1    5.627      53.513
2015    2       21     8  25    5.7595   497.1    5.623      53.469
2015    2       21     8  30    5.7561   497.1    5.619      53.424
2015    2       21     8  35    5.7528   497.1    5.614      53.380
2015    2       21     8  41    5.7495   497.1    5.610      53.336
2015    2       21     8  46    5.7463   497.1    5.605      53.291
2015    2       21     8  51    5.7430   497.0    5.601      53.247
2015    2       21     8  56    5.7398   497.0    5.596      53.202
2015    2       21     9   2    5.7365   497.0    5.592      53.158
2015    2       21     9   7    5.7333   497.0    5.588      53.113
2015    2       21     9  12    5.7301   497.0    5.584      53.069
2015    2       21     9  17    5.7269   497.0    5.579      53.024
2015    2       21     9  23    5.7237   496.9    5.575      52.980
2015    2       21     9  28    5.7206   496.9    5.571      52.935
2015    2       21     9  33    5.7173   496.9    5.567      52.891
2015    2       21     9  38    5.7142   496.9    5.563      52.846
2015    2       21     9  44    5.7111   496.9    5.559      52.802
2015    2       21     9  49    5.7080   496.8    5.555      52.758
2015    2       21     9  54    5.7049   496.8    5.551      52.714
2015    2       21     9  59    5.7018   496.8    5.547      52.669
2015    2       21    10   5    5.6988   496.8    5.543      52.626
2015    2       21    10  10    5.6956   496.7    5.539      52.582
2015    2       21    10  15    5.6926   496.7    5.536      52.538
2015    2       21    10  20    5.6896   496.7    5.532      52.495
2015    2       21    10  26    5.6866   496.7    5.529      52.452
2015    2       21    10  31    5.6834   496.6    5.525      52.408
2015    2       21    10  36    5.6805   496.6    5.522      52.366
2015    2       21    10  41    5.6775   496.6    5.519      52.323
2015    2       21    10  47    5.6744   496.6    5.516      52.281
2015    2       21    10  52    5.6715   496.5    5.513      52.239
2015    2       21    10  57    5.6684   496.5    5.510      52.197
2015    2       21    11   2    5.6656   496.5    5.507      52.155
2015    2       21    11   8    5.6625   496.4    5.505      52.114
2015    2       21    11  13    5.6596   496.4    5.502      52.073
2015    2       21    11  18    5.6566   496.4    5.500      52.033
2015    2       21    11  23    5.6536   496.3    5.497      51.992
2015    2       21    11  29    5.6508   496.3    5.495      51.953
2015    2       21    11  34    5.6479   496.3    5.493      51.913
2015    2       21    11  39    5.6449   496.2    5.491      51.874
2015    2       21    11  44    5.6419   496.2    5.489      51.835
2015    2       21    11  50    5.6390   496.1    5.487      51.796
2015    2       21    11  55    5.6362   496.1    5.485      51.758
2015    2       21    12   0    5.6332   496.0    5.484      51.720
2015    2       21    12   5    5.6304   496.0    5.482      51.682
2015    2       21    12  11    5.6274   496.0    5.481      51.645
2015    2       21    12  16    5.6246   495.9    5.480      51.607
2015    2       21    12  21    5.6215   495.9    5.479      51.571
2015    2       21    12  26    5.6185   495.8    5.478      51.534
2015    2       21    12  31    5.6157   495.8    5.477      51.498
2015    2       21    12  37    5.6128   495.7    5.476      51.462
2015    2       21    12  42    5.6098   495.6    5.475      51.426
2015    2       21    12  47    5.6068   495.6    5.475      51.391
2015    2       21    12  52    5.6037   495.5    5.474      51.356
2015    2       21    12  58    5.6007   495.5    5.474      51.322
2015    2       21    13   3    5.5975   495.4    5.474      51.287
2015    2       21    13   8    5.5944   495.4    5.473      51.253
2015    2       21    13  13    5.5915   495.3    5.473      51.218
2015    2       21    13  19    5.5883   495.2    5.473      51.184
2015    2       21    13  24    5.5853   495.2    5.473      51.150
2015    2       21    13  29    5.5820   495.1    5.473      51.116
2015    2       21    13  34    5.5791   495.0    5.473      51.081
2015    2       21    13  40    5.5758   495.0    5.473      51.047
2015    2       21    13  45    5.5726   494.9    5.474      51.013
2015    2       21    13  50    5.5694   494.8    5.474      50.978
2015    2       21    13  55    5.5664   494.7    5.474      50.943
2015    2       21    14   1    5.5631   494.7    5.474      50.908
2015    2       21    14   6    5.5599   494.6    5.474      50.874
2015    2       21    14  11    5.5568   494.5    5.474      50.839
2015    2       21    14  16    5.5536   494.5    5.475      50.804
2015    2       21    14  22    5.5504   494.4    5.475      50.768
2015    2       21    14  27    5.5470   494.3    5.475      50.733
2015    2       21    14  32    5.5438   494.2    5.475      50.697
2015    2       21    14  37    5.5407   494.2    5.475      50.661
2015    2       21    14  43    5.5375   494.1    5.475      50.625
2015    2       21    14  48    5.5342   494.0    5.475      50.588
2015    2       21    14  53    5.5309   493.9    5.475      50.551
2015    2       21    14  58    5.5278   493.9    5.475      50.514
2015    2       21    15   4    5.5245   493.8    5.475      50.476
2015    2       21    15   9    5.5213   493.7    5.475      50.438
2015    2       21    15  14    5.5181   493.6    5.474      50.400
2015    2       21    15  19    5.5148   493.6    5.474      50.361
2015    2       21    15  25    5.5116   493.5    5.474      50.322
2015    2       21    15  30    5.5084   493.4    5.473      50.282
2015    2       21    15  35    5.5052   493.3    5.473      50.242
2015    2       21    15  40    5.5020   493.2    5.472      50.201
2015    2       21    15  46    5.4986   493.2    5.471      50.160
2015    2       21    15  51    5.4954   493.1    5.471      50.119
2015    2       21    15  56    5.4924   493.0    5.470      50.077
2015    2       21    16   1    5.4892   492.9    5.469      50.034
2015    2       21    16   7    5.4859   492.8    5.468      49.991
2015    2       21    16  12    5.4827   492.7    5.467      49.948
2015    2       21    16  17    5.4795   492.7    5.466      49.905
2015    2       21    16  22    5.4763   492.6    5.465      49.861
2015    2       21    16  28    5.4731   492.5    5.464      49.816
2015    2       21    16  33    5.4700   492.4    5.462      49.772
2015    2       21    16  38    5.4669   492.3    5.461      49.727
2015    2       21    16  43    5.4636   492.2    5.460      49.681
2015    2       21    16  49    5.4606   492.1    5.458      49.636
2015    2       21    16  54    5.4574   492.1    5.457      49.590
2015    2       21    16  59    5.4543   492.0    5.455      49.544
2015    2       21    17   4    5.4510   491.9    5.454      49.497
2015    2       21    17  10    5.4478   491.8    5.452      49.450
2015    2       21    17  15    5.4447   491.7    5.450      49.403
2015    2       21    17  20    5.4416   491.6    5.449      49.356
2015    2       21    17  25    5.4384   491.5    5.447      49.309
2015    2       21    17  31    5.4351   491.5    5.445      49.261
2015    2       21    17  36    5.4319   491.4    5.443      49.213
2015    2       21    17  41    5.4287   491.3    5.441      49.165
2015    2       21    17  46    5.4255   491.2    5.439      49.116
2015    2       21    17  52    5.4223   491.1    5.437      49.068
2015    2       21    17  57    5.4193   491.0    5.435      49.019
2015    2       21    18   2    5.4161   490.9    5.433      48.970
2015    2       21    18   7    5.4127   490.9    5.431      48.921
2015    2       21    18  13    5.4097   490.8    5.429      48.872
2015    2       21    18  18    5.4063   490.7    5.427      48.822
2015    2       21    18  23    5.4031   490.6    5.425      48.773
2015    2       21    18  28    5.3999   490.5    5.423      48.723
2015    2       21    18  33    5.3967   490.4    5.420      48.674
2015    2       21    18  39    5.3936   490.3    5.418      48.624
2015    2       21    18  44    5.3903   490.2    5.416      48.574
2015    2       21    18  49    5.3872   490.2    5.413      48.524
2015    2       21    18  54    5.3840   490.1    5.411      48.474
2015    2       21    19   0    5.3808   490.0    5.409      48.425
2015    2       21    19   5    5.3776   489.9    5.406      48.374
2015    2       21    19  10    5.3743   489.8    5.404      48.324
2015    2       21    19  15    5.3712   489.7    5.401      48.274
2015    2       21    19  21    5.3681   489.6    5.399      48.224
2015    2       21    19  26    5.3648   489.5    5.397      48.174
2015    2       21    19  31    5.3618   489.4    5.394      48.124
2015    2       21    19  36    5.3586   489.3    5.392      48.074
2015    2       21    19  42    5.3555   489.3    5.389      48.024
2015    2       21    19  47    5.3523   489.2    5.387      47.974
2015    2       21    19  52    5.3492   489.1    5.385      47.924
2015    2       21    19  57    5.3461   489.0    5.382      47.874
2015    2       21    20   3    5.3432   488.9    5.380      47.824
2015    2       21    20   8    5.3400   488.8    5.378      47.775
2015    2       21    20  13    5.3371   488.7    5.376      47.725
2015    2       21    20  18    5.3341   488.6    5.373      47.675
2015    2       21    20  24    5.3310   488.5    5.371      47.626
2015    2       21    20  29    5.3280   488.4    5.369      47.577
2015    2       21    20  34    5.3252   488.3    5.367      47.528
2015    2       21    20  39    5.3223   488.2    5.365      47.479
2015    2       21    20  45    5.3193   488.1    5.363      47.431
2015    2       21    20  50    5.3165   488.1    5.361      47.382
2015    2       21    20  55    5.3136   488.0    5.359      47.334
2015    2       21    21   0    5.3107   487.9    5.358      47.287
2015    2       21    21   6    5.3079   487.8    5.356      47.239
2015    2       21    21  11    5.3052   487.7    5.355      47.192
2015    2       21    21  16    5.3024   487.6    5.353      47.145
2015    2       21    21  21    5.2997   487.5    5.352      47.099
2015    2       21    21  27    5.2970   487.4    5.351      47.053
2015    2       21    21  32    5.2943   487.3    5.349      47.007
2015    2       21    21  37    5.2917   487.2    5.348      46.962
2015    2       21    21  42    5.2890   487.1    5.348      46.917
2015    2       21    21  48    5.2865   487.0    5.347      46.873
2015    2       21    21  53    5.2839   486.9    5.346      46.829
2015    2       21    21  58    5.2814   486.8    5.346      46.786
2015    2       21    22   3    5.2789   486.7    5.345      46.743
2015    2       21    22   9    5.2764   486.6    5.345      46.701
2015    2       21    22  14    5.2739   486.5    5.345      46.660
2015    2       21    22  19    5.2715   486.4    5.345      46.619
2015    2       21    22  24    5.2690   486.3    5.345      46.579
2015    2       21    22  30    5.2667   486.2    5.346      46.539
2015    2       21    22  35    5.2643   486.1    5.346      46.500
2015    2       21    22  40    5.2620   486.0    5.347      46.462
2015    2       21    22  45    5.2597   485.9    5.347      46.424
2015    2       21    22  51    5.2574   485.8    5.348      46.387
2015    2       21    22  56    5.2552   485.7    5.349      46.351
2015    2       21    23   1    5.2530   485.6    5.350      46.315
2015    2       21    23   6    5.2507   485.5    5.351      46.280
2015    2       21    23  12    5.2485   485.4    5.353      46.245
2015    2       21    23  17    5.2463   485.3    5.354      46.210
2015    2       21    23  22    5.2440   485.2    5.355      46.176
2015    2       21    23  27    5.2418   485.1    5.357      46.142
2015    2       21    23  33    5.2396   485.0    5.358      46.108
2015    2       21    23  38    5.2373   484.9    5.359      46.074
2015    2       21    23  43    5.2351   484.8    5.361      46.040
2015    2       21    23  48    5.2328   484.7    5.362      46.006
2015    2       21    23  53    5.2305   484.6    5.363      45.972
2015    2       21    23  59    5.2282   484.5    5.365      45.938
2015    2       22     0   4    5.2259   484.4    5.366      45.903
2015    2       22     0   9    5.2236   484.3    5.367      45.869
2015    2       22     0  14    5.2212   484.2    5.368      45.834
2015    2       22     0  20    5.2189   484.1    5.370      45.798
2015    2       22     0  25    5.2165   484.0    5.371      45.763
2015    2       22     0  30    5.2141   483.9    5.372      45.727
2015    2       22     0  35    5.2117   483.8    5.373      45.690
2015    2       22     0  41    5.2094   483.7    5.373      45.654
2015    2       22     0  46    5.2070   483.6    5.374      45.617
2015    2       22     0  51    5.2046   483.5    5.375      45.580
2015    2       22     0  56    5.2022   483.4    5.376      45.542
2015    2       22     1   2    5.1998   483.3    5.377      45.505
2015    2       22     1   7    5.1974   483.2    5.377      45.468
2015    2       22     1  12    5.1951   483.1    5.378      45.430
2015    2       22     1  17    5.1927   483.0    5.379      45.392
2015    2       22     1  23    5.1903   482.9    5.379      45.354
2015    2       22     1  28    5.1880   482.8    5.380      45.316
2015    2       22     1  33    5.1856   482.6    5.381      45.279
2015    2       22     1  38    5.1834   482.5    5.381      45.241
2015    2       22     1  44    5.1810   482.4    5.382      45.204
2015    2       22     1  49    5.1787   482.3    5.383      45.167
2015    2       22     1  54    5.1765   482.2    5.383      45.130
2015    2       22     1  59    5.1742   482.1    5.384      45.093
2015    2       22     2   5    5.1720   482.0    5.385      45.056
2015    2       22     2  10    5.1697   481.9    5.386      45.019
2015    2       22     2  15    5.1676   481.8    5.386      44.983
2015    2       22     2  20    5.1653   481.7    5.387      44.947
2015    2       22     2  26    5.1632   481.6    5.388      44.911
2015    2       22     2  31    5.1611   481.4    5.389      44.875
2015    2       22     2  36    5.1589   481.3    5.390      44.840
2015    2       22     2  41    5.1568   481.2    5.391      44.805
2015    2       22     2  47    5.1547   481.1    5.391      44.770
2015    2       22     2  52    5.1526   481.0    5.392      44.737
2015    2       22     2  57    5.1505   480.9    5.393      44.703
2015    2       22     3   2    5.1484   480.8    5.394      44.670
2015    2       22     3   8    5.1463   480.7    5.395      44.638
2015    2       22     3  13    5.1443   480.6    5.395      44.605
2015    2       22     3  18    5.1422   480.5    5.396      44.573
2015    2       22     3  23    5.1402   480.4    5.397      44.541
2015    2       22     3  29    5.1380   480.2    5.397      44.509
2015    2       22     3  34    5.1361   480.1    5.398      44.477
2015    2       22     3  39    5.1340   480.0    5.398      44.445
2015    2       22     3  44    5.1319   479.9    5.398      44.413
2015    2       22     3  50    5.1297   479.8    5.399      44.381
2015    2       22     3  55    5.1278   479.7    5.399      44.349
2015    2       22     4   0    5.1256   479.6    5.399      44.317
2015    2       22     4   5    5.1235   479.5    5.399      44.284
2015    2       22     4  11    5.1215   479.4    5.399      44.251
2015    2       22     4  16    5.1194   479.3    5.399      44.218
2015    2       22     4  21    5.1174   479.2    5.399      44.185
2015    2       22     4  26    5.1152   479.1    5.399      44.151
2015    2       22     4  32    5.1132   479.0    5.399      44.117
2015    2       22     4  37    5.1111   478.9    5.399      44.083
2015    2       22     4  42    5.1091   478.7    5.399      44.049
2015    2       22     4  47    5.1070   478.6    5.399      44.014
2015    2       22     4  53    5.1051   478.5    5.399      43.980
2015    2       22     4  58    5.1029   478.4    5.398      43.945
2015    2       22     5   3    5.1010   478.3    5.398      43.910
2015    2       22     5   8    5.0988   478.2    5.398      43.874
2015    2       22     5  14    5.0968   478.1    5.398      43.839
2015    2       22     5  19    5.0949   478.0    5.397      43.803
2015    2       22     5  24    5.0928   477.9    5.397      43.768
2015    2       22     5  29    5.0907   477.8    5.397      43.732
2015    2       22     5  35    5.0888   477.7    5.396      43.696
2015    2       22     5  40    5.0868   477.6    5.396      43.660
2015    2       22     5  45    5.0847   477.4    5.396      43.623
2015    2       22     5  50    5.0827   477.3    5.395      43.587
2015    2       22     5  55    5.0808   477.2    5.395      43.551
2015    2       22     6   1    5.0787   477.1    5.395      43.514
2015    2       22     6   6    5.0768   477.0    5.394      43.477
2015    2       22     6  11    5.0747   476.9    5.394      43.441
2015    2       22     6  16    5.0728   476.8    5.394      43.404
2015    2       22     6  22    5.0708   476.7    5.393      43.367
2015    2       22     6  27    5.0689   476.6    5.393      43.330
2015    2       22     6  32    5.0668   476.4    5.393      43.293
2015    2       22     6  37    5.0649   476.3    5.393      43.256
2015    2       22     6  43    5.0629   476.2    5.392      43.219
2015    2       22     6  48    5.0611   476.1    5.392      43.182
2015    2       22     6  53    5.0591   476.0    5.392      43.145
2015    2       22     6  58    5.0573   475.9    5.392      43.109
2015    2       22     7   4    5.0553   475.7    5.391      43.072
2015    2       22     7   9    5.0534   475.6    5.391      43.035
2015    2       22     7  14    5.0515   475.5    5.391      42.999
2015    2       22     7  19    5.0497   475.4    5.391      42.962
2015    2       22     7  25    5.0479   475.3    5.391      42.926
2015    2       22     7  30    5.0461   475.2    5.391      42.890
2015    2       22     7  35    5.0442   475.0    5.391      42.854
2015    2       22     7  40    5.0425   474.9    5.391      42.818
2015    2       22     7  46    5.0408   474.8    5.391      42.782
2015    2       22     7  51    5.0390   474.7    5.391      42.747
2015    2       22     7  56    5.0373   474.6    5.392      42.712
2015    2       22     8   1    5.0356   474.4    5.392      42.677
2015    2       22     8   7    5.0340   474.3    5.392      42.642
2015    2       22     8  12    5.0323   474.2    5.392      42.607
2015    2       22     8  17    5.0306   474.1    5.393      42.572
2015    2       22     8  22    5.0291   473.9    5.393      42.538
2015    2       22     8  28    5.0274   473.8    5.394      42.504
2015    2       22     8  33    5.0260   473.7    5.395      42.470
2015    2       22     8  38    5.0244   473.6    5.395      42.436
2015    2       22     8  43    5.0229   473.4    5.396      42.403
2015    2       22     8  49    5.0214   473.3    5.397      42.370
2015    2       22     8  54    5.0200   473.2    5.398      42.338
2015    2       22     8  59    5.0185   473.1    5.399      42.306
2015    2       22     9   4    5.0171   472.9    5.400      42.275
2015    2       22     9  10    5.0157   472.8    5.401      42.244
2015    2       22     9  15    5.0143   472.7    5.402      42.214
2015    2       22     9  20    5.0129   472.6    5.403      42.184
2015    2       22     9  25    5.0116   472.4    5.404      42.154
2015    2       22     9  31    5.0102   472.3    5.405      42.124
2015    2       22     9  36    5.0090   472.2    5.406      42.095
2015    2       22     9  41    5.0077   472.1    5.407      42.065
2015    2       22     9  46    5.0064   472.0    5.408      42.036
2015    2       22     9  52    5.0050   471.8    5.410      42.007
2015    2       22     9  57    5.0038   471.7    5.411      41.978
2015    2       22    10   2    5.0025   471.6    5.412      41.950
2015    2       22    10   7    5.0013   471.5    5.413      41.921
2015    2       22    10  13    5.0000   471.4    5.414      41.892
2015    2       22    10  18    4.9987   471.2    5.415      41.863
2015    2       22    10  23    4.9975   471.1    5.417      41.834
2015    2       22    10  28    4.9963   471.0    5.418      41.804
2015    2       22    10  34    4.9950   470.9    5.419      41.775
2015    2       22    10  39    4.9939   470.7    5.420      41.746
2015    2       22    10  44    4.9927   470.6    5.421      41.716
2015    2       22    10  49    4.9915   470.5    5.423      41.687
2015    2       22    10  55    4.9902   470.4    5.424      41.657
2015    2       22    11   0    4.9891   470.3    5.425      41.627
2015    2       22    11   5    4.9879   470.1    5.426      41.597
2015    2       22    11  10    4.9868   470.0    5.427      41.567
2015    2       22    11  16    4.9856   469.9    5.428      41.537
2015    2       22    11  21    4.9845   469.8    5.429      41.507
2015    2       22    11  26    4.9833   469.7    5.431      41.477
2015    2       22    11  31    4.9822   469.5    5.432      41.446
2015    2       22    11  36    4.9811   469.4    5.433      41.416
2015    2       22    11  42    4.9800   469.3    5.434      41.385
2015    2       22    11  47    4.9789   469.2    5.435      41.355
2015    2       22    11  52    4.9777   469.1    5.436      41.324
2015    2       22    11  57    4.9766   468.9    5.437      41.293
2015    2       22    12   3    4.9755   468.8    5.438      41.262
2015    2       22    12   8    4.9744   468.7    5.439      41.231
2015    2       22    12  13    4.9732   468.6    5.439      41.200
2015    2       22    12  18    4.9722   468.4    5.440      41.169
2015    2       22    12  24    4.9711   468.3    5.441      41.138
2015    2       22    12  29    4.9700   468.2    5.441      41.106
2015    2       22    12  34    4.9690   468.1    5.442      41.075
2015    2       22    12  39    4.9679   467.9    5.443      41.044
2015    2       22    12  45    4.9668   467.8    5.443      41.013
2015    2       22    12  50    4.9656   467.7    5.444      40.981
2015    2       22    12  55    4.9647   467.6    5.444      40.950
2015    2       22    13   0    4.9636   467.4    5.445      40.918
2015    2       22    13   6    4.9626   467.3    5.445      40.887
2015    2       22    13  11    4.9615   467.2    5.445      40.855
2015    2       22    13  16    4.9604   467.0    5.445      40.824
2015    2       22    13  21    4.9595   466.9    5.446      40.792
2015    2       22    13  27    4.9584   466.8    5.446      40.760
2015    2       22    13  32    4.9574   466.7    5.446      40.728
2015    2       22    13  37    4.9564   466.5    5.446      40.696
2015    2       22    13  42    4.9554   466.4    5.446      40.664
2015    2       22    13  48    4.9545   466.3    5.446      40.632
2015    2       22    13  53    4.9535   466.1    5.446      40.599
2015    2       22    13  58    4.9525   466.0    5.446      40.567
2015    2       22    14   3    4.9515   465.9    5.446      40.534
2015    2       22    14   9    4.9505   465.8    5.446      40.501
2015    2       22    14  14    4.9496   465.6    5.446      40.469
2015    2       22    14  19    4.9488   465.5    5.446      40.436
2015    2       22    14  24    4.9478   465.4    5.446      40.403
2015    2       22    14  30    4.9469   465.2    5.446      40.370
2015    2       22    14  35    4.9459   465.1    5.446      40.337
2015    2       22    14  40    4.9451   465.0    5.446      40.303
2015    2       22    14  45    4.9441   464.8    5.446      40.270
2015    2       22    14  51    4.9434   464.7    5.446      40.237
2015    2       22    14  56    4.9425   464.6    5.445      40.203
2015    2       22    15   1    4.9415   464.4    5.445      40.170
2015    2       22    15   6    4.9408   464.3    5.445      40.136
2015    2       22    15  12    4.9399   464.2    5.445      40.103
2015    2       22    15  17    4.9391   464.0    5.445      40.069
2015    2       22    15  22    4.9382   463.9    5.444      40.036
2015    2       22    15  27    4.9375   463.8    5.444      40.002
2015    2       22    15  33    4.9367   463.6    5.444      39.968
2015    2       22    15  38    4.9359   463.5    5.444      39.935
2015    2       22    15  43    4.9351   463.4    5.444      39.901
2015    2       22    15  48    4.9344   463.2    5.444      39.868
2015    2       22    15  54    4.9336   463.1    5.444      39.834
2015    2       22    15  59    4.9328   463.0    5.444      39.801
2015    2       22    16   4    4.9321   462.8    5.443      39.767
2015    2       22    16   9    4.9314   462.7    5.443      39.734
2015    2       22    16  15    4.9307   462.6    5.443      39.701
2015    2       22    16  20    4.9300   462.4    5.444      39.667
2015    2       22    16  25    4.9292   462.3    5.444      39.634
2015    2       22    16  30    4.9287   462.1    5.444      39.601
2015    2       22    16  36    4.9280   462.0    5.444      39.568
2015    2       22    16  41    4.9273   461.9    5.444      39.536
2015    2       22    16  46    4.9268   461.7    5.445      39.503
2015    2       22    16  51    4.9262   461.6    5.445      39.471
2015    2       22    16  56    4.9256   461.4    5.446      39.438
2015    2       22    17   2    4.9249   461.3    5.446      39.406
2015    2       22    17   7    4.9245   461.2    5.447      39.375
2015    2       22    17  12    4.9239   461.0    5.448      39.343
2015    2       22    17  17    4.9235   460.9    5.449      39.312
2015    2       22    17  23    4.9229   460.7    5.450      39.281
2015    2       22    17  28    4.9225   460.6    5.451      39.250
2015    2       22    17  33    4.9221   460.5    5.452      39.220
2015    2       22    17  38    4.9217   460.3    5.453      39.190
2015    2       22    17  44    4.9212   460.2    5.455      39.160
2015    2       22    17  49    4.9210   460.0    5.456      39.131
2015    2       22    17  54    4.9205   459.9    5.458      39.102
2015    2       22    17  59    4.9203   459.8    5.459      39.073
2015    2       22    18   5    4.9199   459.6    5.461      39.045
2015    2       22    18  10    4.9197   459.5    5.463      39.017
2015    2       22    18  15    4.9194   459.3    5.465      38.990
2015    2       22    18  20    4.9192   459.2    5.468      38.963
2015    2       22    18  26    4.9190   459.1    5.470      38.937
2015    2       22    18  31    4.9187   458.9    5.472      38.910
2015    2       22    18  36    4.9186   458.8    5.475      38.885
2015    2       22    18  41    4.9184   458.7    5.478      38.859
2015    2       22    18  47    4.9182   458.5    5.480      38.834
2015    2       22    18  52    4.9180   458.4    5.483      38.809
2015    2       22    18  57    4.9179   458.2    5.486      38.785
2015    2       22    19   2    4.9178   458.1    5.489      38.761
2015    2       22    19   8    4.9176   458.0    5.492      38.737
2015    2       22    19  13    4.9175   457.8    5.495      38.714
2015    2       22    19  18    4.9174   457.7    5.498      38.691
2015    2       22    19  23    4.9172   457.6    5.501      38.668
2015    2       22    19  29    4.9171   457.4    5.505      38.646
2015    2       22    19  34    4.9170   457.3    5.508      38.623
2015    2       22    19  39    4.9169   457.2    5.511      38.601
2015    2       22    19  44    4.9167   457.0    5.515      38.579
2015    2       22    19  50    4.9166   456.9    5.518      38.558
2015    2       22    19  55    4.9165   456.8    5.522      38.536
2015    2       22    20   0    4.9163   456.6    5.525      38.515
2015    2       22    20   5    4.9162   456.5    5.529      38.494
2015    2       22    20  11    4.9160   456.4    5.532      38.473
2015    2       22    20  16    4.9160   456.2    5.536      38.452
2015    2       22    20  21    4.9158   456.1    5.539      38.431
2015    2       22    20  26    4.9158   456.0    5.543      38.411
2015    2       22    20  32    4.9156   455.8    5.546      38.390
2015    2       22    20  37    4.9156   455.7    5.550      38.370
2015    2       22    20  42    4.9155   455.6    5.553      38.350
2015    2       22    20  47    4.9154   455.4    5.557      38.330
2015    2       22    20  53    4.9154   455.3    5.561      38.310
2015    2       22    20  58    4.9153   455.2    5.564      38.290
2015    2       22    21   3    4.9153   455.0    5.568      38.271
2015    2       22    21   8    4.9152   454.9    5.571      38.251
2015    2       22    21  14    4.9152   454.8    5.575      38.232
2015    2       22    21  19    4.9152   454.6    5.578      38.212
2015    2       22    21  24    4.9152   454.5    5.582      38.193
2015    2       22    21  29    4.9153   454.3    5.585      38.174
2015    2       22    21  35    4.9153   454.2    5.589      38.155
2015    2       22    21  40    4.9153   454.1    5.593      38.137
2015    2       22    21  45    4.9155   453.9    5.596      38.118
2015    2       22    21  50    4.9155   453.8    5.600      38.100
2015    2       22    21  56    4.9157   453.7    5.603      38.081
2015    2       22    22   1    4.9157   453.6    5.607      38.063
2015    2       22    22   6    4.9161   453.4    5.611      38.045
2015    2       22    22  11    4.9162   453.3    5.614      38.027
2015    2       22    22  17    4.9163   453.2    5.618      38.009
2015    2       22    22  22    4.9167   453.0    5.622      37.992
2015    2       22    22  27    4.9169   452.9    5.625      37.974
2015    2       22    22  32    4.9172   452.8    5.629      37.957
2015    2       22    22  37    4.9175   452.6    5.633      37.940
2015    2       22    22  43    4.9180   452.5    5.637      37.923
2015    2       22    22  48    4.9184   452.4    5.640      37.906
2015    2       22    22  53    4.9186   452.2    5.644      37.889
2015    2       22    22  58    4.9191   452.1    5.648      37.873
2015    2       22    23   4    4.9195   452.0    5.652      37.856
2015    2       22    23   9    4.9200   451.9    5.656      37.840
2015    2       22    23  14    4.9204   451.7    5.660      37.824
2015    2       22    23  19    4.9207   451.6    5.664      37.808
2015    2       22    23  25    4.9212   451.5    5.668      37.792
2015    2       22    23  30    4.9216   451.4    5.672      37.776
2015    2       22    23  35    4.9223   451.2    5.676      37.760
2015    2       22    23  40    4.9227   451.1    5.680      37.745
2015    2       22    23  46    4.9231   451.0    5.684      37.729
2015    2       22    23  51    4.9236   450.9    5.688      37.713
2015    2       22    23  56    4.9242   450.7    5.693      37.698
2015    2       23     0   1    4.9245   450.6    5.697      37.683
2015    2       23     0   7    4.9252   450.5    5.701      37.667
2015    2       23     0  12    4.9256   450.4    5.705      37.652
2015    2       23     0  17    4.9262   450.2    5.710      37.637
2015    2       23     0  22    4.9266   450.1    5.714      37.621
2015    2       23     0  28    4.9273   450.0    5.719      37.606
2015    2       23     0  33    4.9278   449.9    5.723      37.592
2015    2       23     0  38    4.9283   449.8    5.727      37.577
2015    2       23     0  43    4.9287   449.6    5.732      37.562
2015    2       23     0  49    4.9293   449.5    5.736      37.547
2015    2       23     0  54    4.9300   449.4    5.741      37.533
2015    2       23     0  59    4.9304   449.3    5.745      37.519
2015    2       23     1   4    4.9311   449.1    5.750      37.505
2015    2       23     1  10    4.9316   449.0    5.755      37.490
2015    2       23     1  15    4.9323   448.9    5.759      37.477
2015    2       23     1  20    4.9330   448.8    5.764      37.463
2015    2       23     1  25    4.9336   448.7    5.769      37.450
2015    2       23     1  31    4.9341   448.6    5.773      37.437
2015    2       23     1  36    4.9348   448.4    5.778      37.424
2015    2       23     1  41    4.9356   448.3    5.783      37.411
2015    2       23     1  46    4.9363   448.2    5.788      37.399
2015    2       23     1  52    4.9371   448.1    5.793      37.386
2015    2       23     1  57    4.9376   448.0    5.798      37.374
2015    2       23     2   2    4.9386   447.9    5.803      37.362
2015    2       23     2   7    4.9392   447.7    5.808      37.351
2015    2       23     2  13    4.9401   447.6    5.813      37.339
2015    2       23     2  18    4.9409   447.5    5.818      37.328
2015    2       23     2  23    4.9416   447.4    5.823      37.317
2015    2       23     2  28    4.9426   447.3    5.828      37.306
2015    2       23     2  34    4.9433   447.2    5.833      37.296
2015    2       23     2  39    4.9444   447.1    5.839      37.285
2015    2       23     2  44    4.9453   447.0    5.844      37.276
2015    2       23     2  49    4.9462   446.9    5.850      37.266
2015    2       23     2  55    4.9470   446.7    5.855      37.256
2015    2       23     3   0    4.9479   446.6    5.861      37.247
2015    2       23     3   5    4.9490   446.5    5.866      37.238
2015    2       23     3  10    4.9499   446.4    5.872      37.229
2015    2       23     3  16    4.9510   446.3    5.877      37.221
2015    2       23     3  21    4.9519   446.2    5.883      37.212
2015    2       23     3  26    4.9530   446.1    5.889      37.205
2015    2       23     3  31    4.9542   446.0    5.894      37.197
2015    2       23     3  37    4.9552   445.9    5.900      37.189
2015    2       23     3  42    4.9563   445.8    5.906      37.182
2015    2       23     3  47    4.9574   445.7    5.912      37.175
2015    2       23     3  52    4.9586   445.6    5.918      37.168
2015    2       23     3  58    4.9597   445.5    5.923      37.162
2015    2       23     4   3    4.9609   445.4    5.929      37.156
2015    2       23     4   8    4.9620   445.3    5.935      37.150
2015    2       23     4  13    4.9632   445.2    5.941      37.145
2015    2       23     4  18    4.9646   445.0    5.947      37.139
2015    2       23     4  24    4.9658   444.9    5.954      37.134
2015    2       23     4  29    4.9670   444.8    5.960      37.130
2015    2       23     4  34    4.9684   444.7    5.966      37.125
2015    2       23     4  39    4.9696   444.6    5.972      37.121
2015    2       23     4  45    4.9712   444.5    5.978      37.117
2015    2       23     4  50    4.9726   444.4    5.985      37.114
2015    2       23     4  55    4.9738   444.3    5.991      37.111
2015    2       23     5   0    4.9755   444.2    5.998      37.108
2015    2       23     5   6    4.9770   444.1    6.004      37.106
2015    2       23     5  11    4.9785   444.0    6.011      37.104
2015    2       23     5  16    4.9800   443.9    6.018      37.102
2015    2       23     5  21    4.9816   443.8    6.025      37.101
2015    2       23     5  27    4.9833   443.7    6.032      37.100
2015    2       23     5  32    4.9848   443.6    6.039      37.100
2015    2       23     5  37    4.9865   443.5    6.046      37.100
2015    2       23     5  42    4.9884   443.5    6.053      37.100
2015    2       23     5  48    4.9902   443.4    6.060      37.102
2015    2       23     5  53    4.9920   443.3    6.068      37.103
2015    2       23     5  58    4.9938   443.2    6.075      37.106
2015    2       23     6   3    4.9958   443.1    6.083      37.109
2015    2       23     6   9    4.9977   443.0    6.090      37.113
2015    2       23     6  14    4.9996   442.9    6.098      37.117
2015    2       23     6  19    5.0017   442.8    6.105      37.121
2015    2       23     6  24    5.0037   442.7    6.113      37.127
2015    2       23     6  30    5.0057   442.7    6.120      37.132
2015    2       23     6  35    5.0078   442.6    6.128      37.138
2015    2       23     6  40    5.0097   442.5    6.135      37.145
2015    2       23     6  45    5.0118   442.4    6.143      37.151
2015    2       23     6  51    5.0140   442.4    6.150      37.159
2015    2       23     6  56    5.0160   442.3    6.157      37.166
2015    2       23     7   1    5.0180   442.2    6.165      37.173
2015    2       23     7   6    5.0201   442.1    6.172      37.181
2015    2       23     7  12    5.0221   442.1    6.179      37.188
2015    2       23     7  17    5.0242   442.0    6.186      37.195
2015    2       23     7  22    5.0262   441.9    6.193      37.202
2015    2       23     7  27    5.0283   441.8    6.199      37.209
2015    2       23     7  33    5.0304   441.8    6.206      37.215
2015    2       23     7  38    5.0323   441.7    6.213      37.221
2015    2       23     7  43    5.0345   441.6    6.219      37.227
2015    2       23     7  48    5.0364   441.6    6.225      37.233
2015    2       23     7  54    5.0384   441.5    6.231      37.238
2015    2       23     7  59    5.0404   441.4    6.237      37.243
2015    2       23     8   4    5.0424   441.4    6.243      37.248
2015    2       23     8   9    5.0445   441.3    6.249      37.252
2015    2       23     8  15    5.0464   441.2    6.255      37.256
2015    2       23     8  20    5.0484   441.2    6.261      37.259
2015    2       23     8  25    5.0505   441.1    6.266      37.262
2015    2       23     8  30    5.0524   441.1    6.272      37.265
2015    2       23     8  36    5.0544   441.0    6.277      37.268
2015    2       23     8  41    5.0564   440.9    6.283      37.270
2015    2       23     8  46    5.0585   440.9    6.288      37.273
2015    2       23     8  51    5.0605   440.8    6.293      37.275
2015    2       23     8  57    5.0625   440.7    6.298      37.276
2015    2       23     9   2    5.0644   440.7    6.304      37.278
2015    2       23     9   7    5.0664   440.6    6.309      37.279
2015    2       23     9  12    5.0686   440.5    6.314      37.280
2015    2       23     9  18    5.0706   440.5    6.319      37.281
2015    2       23     9  23    5.0725   440.4    6.324      37.282
2015    2       23     9  28    5.0745   440.4    6.329      37.282
2015    2       23     9  33    5.0765   440.3    6.333      37.283
2015    2       23     9  39    5.0787   440.2    6.338      37.283
2015    2       23     9  44    5.0806   440.2    6.343      37.283
2015    2       23     9  49    5.0826   440.1    6.348      37.283
2015    2       23     9  54    5.0847   440.1    6.352      37.283
2015    2       23    10   0    5.0867   440.0    6.357      37.283
2015    2       23    10   5    5.0888   439.9    6.362      37.282
2015    2       23    10  10    5.0909   439.9    6.366      37.282
2015    2       23    10  15    5.0928   439.8    6.371      37.281
2015    2       23    10  20    5.0949   439.8    6.375      37.281
2015    2       23    10  26    5.0970   439.7    6.380      37.280
2015    2       23    10  31    5.0990   439.6    6.385      37.279
2015    2       23    10  36    5.1010   439.6    6.389      37.279
2015    2       23    10  41    5.1032   439.5    6.394      37.278
2015    2       23    10  47    5.1052   439.5    6.398      37.277
2015    2       23    10  52    5.1073   439.4    6.403      37.277
2015    2       23    10  57    5.1093   439.4    6.407      37.276
2015    2       23    11   2    5.1115   439.3    6.412      37.276
2015    2       23    11   8    5.1135   439.3    6.416      37.275
2015    2       23    11  13    5.1157   439.2    6.421      37.275
2015    2       23    11  18    5.1177   439.1    6.425      37.275
2015    2       23    11  23    5.1198   439.1    6.430      37.275
2015    2       23    11  29    5.1219   439.0    6.435      37.275
2015    2       23    11  34    5.1241   439.0    6.439      37.275
2015    2       23    11  39    5.1263   438.9    6.444      37.276
2015    2       23    11  44    5.1283   438.9    6.448      37.276
2015    2       23    11  50    5.1305   438.8    6.453      37.277
2015    2       23    11  55    5.1326   438.8    6.458      37.278
2015    2       23    12   0    5.1348   438.7    6.463      37.280
2015    2       23    12   5    5.1369   438.7    6.467      37.282
2015    2       23    12  11    5.1391   438.6    6.472      37.283
2015    2       23    12  16    5.1413   438.6    6.477      37.286
2015    2       23    12  21    5.1435   438.5    6.482      37.288
2015    2       23    12  26    5.1456   438.5    6.487      37.291
2015    2       23    12  32    5.1478   438.4    6.492      37.294
2015    2       23    12  37    5.1500   438.4    6.497      37.298
2015    2       23    12  42    5.1523   438.3    6.502      37.301
2015    2       23    12  47    5.1545   438.3    6.507      37.305
2015    2       23    12  53    5.1567   438.3    6.512      37.310
2015    2       23    12  58    5.1589   438.2    6.518      37.314
2015    2       23    13   3    5.1612   438.2    6.523      37.319
2015    2       23    13   8    5.1634   438.1    6.528      37.324
2015    2       23    13  14    5.1657   438.1    6.533      37.330
2015    2       23    13  19    5.1679   438.0    6.539      37.337
2015    2       23    13  24    5.1702   438.0    6.544      37.343
2015    2       23    13  29    5.1725   438.0    6.549      37.350
2015    2       23    13  35    5.1747   437.9    6.554      37.358
2015    2       23    13  40    5.1770   437.9    6.559      37.366
2015    2       23    13  45    5.1793   437.9    6.565      37.374
2015    2       23    13  50    5.1815   437.8    6.570      37.383
2015    2       23    13  56    5.1838   437.8    6.575      37.391
2015    2       23    14   1    5.1860   437.7    6.580      37.400
2015    2       23    14   6    5.1883   437.7    6.585      37.409
2015    2       23    14  11    5.1905   437.7    6.590      37.418
2015    2       23    14  17    5.1927   437.6    6.594      37.427
2015    2       23    14  22    5.1949   437.6    6.599      37.436
2015    2       23    14  27    5.1972   437.6    6.604      37.445
2015    2       23    14  32    5.1994   437.5    6.608      37.454
2015    2       23    14  38    5.2016   437.5    6.613      37.463
2015    2       23    14  43    5.2038   437.5    6.617      37.472
2015    2       23    14  48    5.2060   437.4    6.621      37.481
2015    2       23    14  53    5.2082   437.4    6.626      37.489
2015    2       23    14  59    5.2104   437.4    6.630      37.497
2015    2       23    15   4    5.2126   437.3    6.634      37.506
2015    2       23    15   9    5.2148   437.3    6.638      37.514
2015    2       23    15  14    5.2169   437.3    6.642      37.522
2015    2       23    15  20    5.2191   437.3    6.646      37.530
2015    2       23    15  25    5.2213   437.2    6.650      37.538
2015    2       23    15  30    5.2235   437.2    6.654      37.545
2015    2       23    15  35    5.2257   437.2    6.658      37.553
2015    2       23    15  41    5.2279   437.1    6.662      37.560
2015    2       23    15  46    5.2301   437.1    6.666      37.568
2015    2       23    15  51    5.2323   437.1    6.670      37.575
2015    2       23    15  56    5.2345   437.0    6.673      37.582
2015    2       23    16   1    5.2367   437.0    6.677      37.590
2015    2       23    16   7    5.2389   437.0    6.681      37.597
2015    2       23    16  12    5.2411   436.9    6.684      37.604
2015    2       23    16  17    5.2433   436.9    6.688      37.611
2015    2       23    16  22    5.2455   436.9    6.692      37.618
2015    2       23    16  28    5.2477   436.9    6.695      37.625
2015    2       23    16  33    5.2499   436.8    6.699      37.632
2015    2       23    16  38    5.2521   436.8    6.702      37.639
2015    2       23    16  43    5.2543   436.8    6.706      37.646
2015    2       23    16  49    5.2565   436.7    6.709      37.653
2015    2       23    16  54    5.2587   436.7    6.713      37.659
2015    2       23    16  59    5.2609   436.7    6.716      37.666
2015    2       23    17   4    5.2631   436.6    6.720      37.673
2015    2       23    17  10    5.2652   436.6    6.723      37.680
2015    2       23    17  15    5.2674   436.6    6.726      37.687
2015    2       23    17  20    5.2696   436.6    6.730      37.693
2015    2       23    17  25    5.2717   436.5    6.733      37.700
2015    2       23    17  31    5.2739   436.5    6.737      37.707
2015    2       23    17  36    5.2760   436.5    6.740      37.714
2015    2       23    17  41    5.2782   436.4    6.743      37.720
2015    2       23    17  46    5.2803   436.4    6.747      37.727
2015    2       23    17  52    5.2824   436.4    6.750      37.734
2015    2       23    17  57    5.2846   436.4    6.753      37.741
2015    2       23    18   2    5.2867   436.3    6.756      37.748
2015    2       23    18   7    5.2888   436.3    6.759      37.755
2015    2       23    18  13    5.2909   436.3    6.763      37.762
2015    2       23    18  18    5.2930   436.3    6.766      37.769
2015    2       23    18  23    5.2951   436.2    6.769      37.776
2015    2       23    18  28    5.2971   436.2    6.772      37.783
2015    2       23    18  34    5.2992   436.2    6.775      37.790
2015    2       23    18  39    5.3013   436.1    6.778      37.797
2015    2       23    18  44    5.3034   436.1    6.781      37.805
2015    2       23    18  49    5.3054   436.1    6.784      37.812
2015    2       23    18  55    5.3075   436.1    6.787      37.819
2015    2       23    19   0    5.3095   436.0    6.790      37.827
2015    2       23    19   5    5.3115   436.0    6.793      37.834
2015    2       23    19  10    5.3136   436.0    6.796      37.842
2015    2       23    19  16    5.3156   436.0    6.799      37.850
2015    2       23    19  21    5.3177   435.9    6.801      37.858
2015    2       23    19  26    5.3197   435.9    6.804      37.865
2015    2       23    19  31    5.3217   435.9    6.807      37.873
2015    2       23    19  37    5.3238   435.9    6.810      37.881
2015    2       23    19  42    5.3258   435.8    6.812      37.889
2015    2       23    19  47    5.3278   435.8    6.815      37.897
2015    2       23    19  52    5.3298   435.8    6.818      37.905
2015    2       23    19  58    5.3318   435.8    6.820      37.913
2015    2       23    20   3    5.3338   435.7    6.823      37.921
2015    2       23    20   8    5.3358   435.7    6.826      37.929
2015    2       23    20  13    5.3378   435.7    6.828      37.937
2015    2       23    20  19    5.3398   435.7    6.831      37.945
2015    2       23    20  24    5.3418   435.7    6.833      37.953
2015    2       23    20  29    5.3438   435.6    6.836      37.961
2015    2       23    20  34    5.3458   435.6    6.838      37.969
2015    2       23    20  40    5.3478   435.6    6.841      37.977
2015    2       23    20  45    5.3498   435.6    6.843      37.985
2015    2       23    20  50    5.3518   435.5    6.846      37.992
2015    2       23    20  55    5.3538   435.5    6.848      38.000
2015    2       23    21   1    5.3558   435.5    6.850      38.008
2015    2       23    21   6    5.3578   435.5    6.853      38.015
2015    2       23    21  11    5.3598   435.5    6.855      38.023
2015    2       23    21  16    5.3618   435.4    6.857      38.030
2015    2       23    21  22    5.3638   435.4    6.859      38.037
2015    2       23    21  27    5.3658   435.4    6.862      38.045
2015    2       23    21  32    5.3678   435.4    6.864      38.052
2015    2       23    21  37    5.3698   435.4    6.866      38.059
2015    2       23    21  42    5.3718   435.3    6.868      38.066
2015    2       23    21  48    5.3738   435.3    6.871      38.074
2015    2       23    21  53    5.3758   435.3    6.873      38.081
2015    2       23    21  58    5.3778   435.3    6.875      38.088
2015    2       23    22   3    5.3798   435.3    6.877      38.095
2015    2       23    22   9    5.3819   435.2    6.879      38.102
2015    2       23    22  14    5.3839   435.2    6.881      38.109
2015    2       23    22  19    5.3859   435.2    6.883      38.116
2015    2       23    22  24    5.3879   435.2    6.885      38.124
2015    2       23    22  30    5.3899   435.2    6.887      38.131
2015    2       23    22  35    5.3920   435.2    6.890      38.138
2015    2       23    22  40    5.3941   435.1    6.892      38.145
2015    2       23    22  45    5.3961   435.1    6.894      38.153
2015    2       23    22  51    5.3981   435.1    6.896      38.160
2015    2       23    22  56    5.4001   435.1    6.898      38.167
2015    2       23    23   1    5.4022   435.1    6.900      38.175
2015    2       23    23   6    5.4042   435.1    6.902      38.182
2015    2       23    23  12    5.4063   435.0    6.904      38.190
2015    2       23    23  17    5.4083   435.0    6.906      38.198
2015    2       23    23  22    5.4104   435.0    6.908      38.206
2015    2       23    23  27    5.4124   435.0    6.910      38.213
2015    2       23    23  33    5.4146   435.0    6.912      38.221
2015    2       23    23  38    5.4166   435.0    6.915      38.229
2015    2       23    23  43    5.4187   434.9    6.917      38.238
2015    2       23    23  48    5.4207   434.9    6.919      38.246
2015    2       23    23  54    5.4228   434.9    6.921      38.254
2015    2       23    23  59    5.4248   434.9    6.923      38.263
2015    2       24     0   4    5.4269   434.9    6.925      38.271
2015    2       24     0   9    5.4290   434.9    6.927      38.280
2015    2       24     0  15    5.4311   434.9    6.930      38.289
2015    2       24     0  20    5.4331   434.9    6.932      38.298
2015    2       24     0  25    5.4352   434.8    6.934      38.307
2015    2       24     0  30    5.4372   434.8    6.936      38.316
2015    2       24     0  36    5.4393   434.8    6.938      38.325
2015    2       24     0  41    5.4413   434.8    6.941      38.334
2015    2       24     0  46    5.4433   434.8    6.943      38.344
2015    2       24     0  51    5.4454   434.8    6.945      38.354
2015    2       24     0  57    5.4474   434.8    6.947      38.363
2015    2       24     1   2    5.4494   434.8    6.950      38.373
2015    2       24     1   7    5.4514   434.7    6.952      38.383
2015    2       24     1  12    5.4534   434.7    6.954      38.394
2015    2       24     1  18    5.4554   434.7    6.956      38.404
2015    2       24     1  23    5.4574   434.7    6.958      38.414
2015    2       24     1  28    5.4593   434.7    6.961      38.425
2015    2       24     1  33    5.4613   434.7    6.963      38.436
2015    2       24     1  39    5.4632   434.7    6.965      38.447
2015    2       24     1  44    5.4652   434.7    6.967      38.458
2015    2       24     1  49    5.4672   434.7    6.969      38.469
2015    2       24     1  54    5.4691   434.7    6.971      38.480
2015    2       24     2   0    5.4710   434.6    6.974      38.492
2015    2       24     2   5    5.4729   434.6    6.976      38.504
2015    2       24     2  10    5.4749   434.6    6.978      38.515
2015    2       24     2  15    5.4768   434.6    6.980      38.527
2015    2       24     2  21    5.4787   434.6    6.982      38.539
2015    2       24     2  26    5.4806   434.6    6.984      38.551
2015    2       24     2  31    5.4825   434.6    6.986      38.563
2015    2       24     2  36    5.4844   434.6    6.988      38.575
2015    2       24     2  42    5.4863   434.6    6.990      38.588
2015    2       24     2  47    5.4882   434.6    6.992      38.600
2015    2       24     2  52    5.4901   434.5    6.994      38.612
2015    2       24     2  57    5.4920   434.5    6.996      38.625
2015    2       24     3   3    5.4939   434.5    6.998      38.637
2015    2       24     3   8    5.4957   434.5    7.000      38.650
2015    2       24     3  13    5.4977   434.5    7.002      38.663
2015    2       24     3  18    5.4995   434.5    7.004      38.675
2015    2       24     3  23    5.5014   434.5    7.005      38.688
2015    2       24     3  29    5.5033   434.5    7.007      38.700
2015    2       24     3  34    5.5051   434.5    7.009      38.713
2015    2       24     3  39    5.5070   434.5    7.011      38.725
2015    2       24     3  44    5.5088   434.5    7.013      38.737
2015    2       24     3  50    5.5107   434.4    7.014      38.750
2015    2       24     3  55    5.5126   434.4    7.016      38.762
2015    2       24     4   0    5.5145   434.4    7.017      38.774
2015    2       24     4   5    5.5163   434.4    7.019      38.786
2015    2       24     4  11    5.5182   434.4    7.021      38.797
2015    2       24     4  16    5.5200   434.4    7.022      38.809
2015    2       24     4  21    5.5219   434.4    7.024      38.821
2015    2       24     4  26    5.5237   434.4    7.025      38.832
2015    2       24     4  32    5.5255   434.4    7.026      38.843
2015    2       24     4  37    5.5274   434.4    7.028      38.854
2015    2       24     4  42    5.5292   434.4    7.029      38.864
2015    2       24     4  47    5.5311   434.4    7.030      38.875
2015    2       24     4  53    5.5329   434.4    7.031      38.885
2015    2       24     4  58    5.5347   434.3    7.033      38.895
2015    2       24     5   3    5.5366   434.3    7.034      38.905
2015    2       24     5   8    5.5384   434.3    7.035      38.915
2015    2       24     5  14    5.5402   434.3    7.036      38.925
2015    2       24     5  19    5.5420   434.3    7.037      38.934
2015    2       24     5  24    5.5439   434.3    7.038      38.944
2015    2       24     5  29    5.5457   434.3    7.039      38.953
2015    2       24     5  35    5.5475   434.3    7.040      38.962
2015    2       24     5  40    5.5494   434.3    7.041      38.971
2015    2       24     5  45    5.5512   434.3    7.042      38.980
2015    2       24     5  50    5.5530   434.3    7.043      38.989
2015    2       24     5  56    5.5548   434.3    7.043      38.997
2015    2       24     6   1    5.5567   434.3    7.044      39.006
2015    2       24     6   6    5.5585   434.3    7.045      39.014
2015    2       24     6  11    5.5603   434.2    7.046      39.023
2015    2       24     6  17    5.5621   434.2    7.047      39.031
2015    2       24     6  22    5.5639   434.2    7.047      39.039
2015    2       24     6  27    5.5658   434.2    7.048      39.048
2015    2       24     6  32    5.5676   434.2    7.049      39.056
2015    2       24     6  38    5.5694   434.2    7.050      39.064
2015    2       24     6  43    5.5713   434.2    7.051      39.072
2015    2       24     6  48    5.5731   434.2    7.051      39.081
2015    2       24     6  53    5.5749   434.2    7.052      39.089
2015    2       24     6  59    5.5768   434.2    7.053      39.097
2015    2       24     7   4    5.5786   434.2    7.053      39.105
2015    2       24     7   9    5.5805   434.2    7.054      39.114
2015    2       24     7  14    5.5824   434.2    7.055      39.122
2015    2       24     7  20    5.5843   434.2    7.056      39.130
2015    2       24     7  25    5.5861   434.2    7.057      39.139
2015    2       24     7  30    5.5880   434.2    7.057      39.148
2015    2       24     7  35    5.5899   434.1    7.058      39.156
2015    2       24     7  41    5.5918   434.1    7.059      39.165
2015    2       24     7  46    5.5937   434.1    7.060      39.174
2015    2       24     7  51    5.5956   434.1    7.061      39.183
2015    2       24     7  56    5.5975   434.1    7.062      39.192
2015    2       24     8   2    5.5994   434.1    7.062      39.201
2015    2       24     8   7    5.6013   434.1    7.063      39.211
2015    2       24     8  12    5.6032   434.1    7.064      39.220
2015    2       24     8  17    5.6052   434.1    7.065      39.230
2015    2       24     8  23    5.6071   434.1    7.066      39.239
2015    2       24     8  28    5.6090   434.1    7.067      39.249
2015    2       24     8  33    5.6110   434.1    7.068      39.260
2015    2       24     8  38    5.6129   434.1    7.069      39.270
2015    2       24     8  44    5.6148   434.1    7.070      39.280
2015    2       24     8  49    5.6168   434.1    7.071      39.291
2015    2       24     8  54    5.6187   434.1    7.073      39.301
2015    2       24     8  59    5.6207   434.1    7.074      39.312
2015    2       24     9   4    5.6226   434.1    7.075      39.323
2015    2       24     9  10    5.6245   434.1    7.076      39.334
2015    2       24     9  15    5.6265   434.1    7.077      39.345
2015    2       24     9  20    5.6284   434.1    7.078      39.356
2015    2       24     9  25    5.6304   434.1    7.080      39.368
2015    2       24     9  31    5.6323   434.1    7.081      39.380
2015    2       24     9  36    5.6343   434.1    7.082      39.391
2015    2       24     9  41    5.6363   434.1    7.084      39.403
2015    2       24     9  46    5.6382   434.1    7.085      39.415
2015    2       24     9  52    5.6402   434.1    7.086      39.427
2015    2       24     9  57    5.6422   434.1    7.088      39.439
2015    2       24    10   2    5.6441   434.1    7.089      39.451
2015    2       24    10   7    5.6461   434.1    7.091      39.464
2015    2       24    10  13    5.6480   434.1    7.092      39.476
2015    2       24    10  18    5.6500   434.1    7.094      39.489
2015    2       24    10  23    5.6520   434.1    7.095      39.501
2015    2       24    10  28    5.6539   434.1    7.097      39.514
2015    2       24    10  34    5.6559   434.1    7.098      39.527
2015    2       24    10  39    5.6579   434.1    7.100      39.540
2015    2       24    10  44    5.6599   434.1    7.101      39.553
2015    2       24    10  49    5.6618   434.1    7.103      39.567
2015    2       24    10  55    5.6638   434.1    7.105      39.580
2015    2       24    11   0    5.6658   434.1    7.107      39.593
2015    2       24    11   5    5.6678   434.1    7.108      39.607
2015    2       24    11  10    5.6698   434.1    7.110      39.621
2015    2       24    11  16    5.6718   434.1    7.112      39.635
2015    2       24    11  21    5.6737   434.1    7.114      39.649
2015    2       24    11  26    5.6757   434.1    7.115      39.663
2015    2       24    11  31    5.6777   434.1    7.117      39.677
2015    2       24    11  37    5.6797   434.1    7.119      39.691
2015    2       24    11  42    5.6816   434.1    7.120      39.705
2015    2       24    11  47    5.6836   434.1    7.122      39.719
2015    2       24    11  52    5.6855   434.1    7.123      39.733
2015    2       24    11  58    5.6875   434.1    7.125      39.747
2015    2       24    12   3    5.6894   434.1    7.126      39.761
2015    2       24    12   8    5.6913   434.1    7.128      39.774
2015    2       24    12  13    5.6932   434.1    7.129      39.788
2015    2       24    12  19    5.6951   434.1    7.130      39.801
2015    2       24    12  24    5.6970   434.2    7.131      39.815
2015    2       24    12  29    5.6989   434.2    7.132      39.828
2015    2       24    12  34    5.7008   434.2    7.133      39.840
2015    2       24    12  40    5.7027   434.2    7.134      39.853
2015    2       24    12  45    5.7046   434.2    7.135      39.865
2015    2       24    12  50    5.7065   434.2    7.136      39.877
2015    2       24    12  55    5.7083   434.2    7.137      39.889
2015    2       24    13   1    5.7102   434.2    7.138      39.901
2015    2       24    13   6    5.7121   434.2    7.139      39.912
2015    2       24    13  11    5.7139   434.2    7.140      39.923
2015    2       24    13  16    5.7158   434.2    7.140      39.934
2015    2       24    13  22    5.7177   434.2    7.141      39.945
2015    2       24    13  27    5.7196   434.2    7.142      39.956
2015    2       24    13  32    5.7214   434.2    7.142      39.967
2015    2       24    13  37    5.7233   434.2    7.143      39.977
2015    2       24    13  43    5.7252   434.2    7.143      39.987
2015    2       24    13  48    5.7271   434.2    7.144      39.998
2015    2       24    13  53    5.7290   434.2    7.144      40.008
2015    2       24    13  58    5.7309   434.2    7.145      40.018
2015    2       24    14   4    5.7327   434.2    7.145      40.027
2015    2       24    14   9    5.7347   434.2    7.146      40.037
2015    2       24    14  14    5.7366   434.2    7.146      40.047
2015    2       24    14  19    5.7385   434.2    7.147      40.056
2015    2       24    14  25    5.7404   434.2    7.147      40.066
2015    2       24    14  30    5.7424   434.3    7.148      40.075
2015    2       24    14  35    5.7444   434.3    7.148      40.085
2015    2       24    14  40    5.7463   434.3    7.149      40.094
2015    2       24    14  46    5.7483   434.3    7.149      40.104
2015    2       24    14  51    5.7503   434.3    7.150      40.114
2015    2       24    14  56    5.7523   434.3    7.150      40.123
2015    2       24    15   1    5.7544   434.3    7.151      40.133
2015    2       24    15   6    5.7564   434.3    7.151      40.142
2015    2       24    15  12    5.7585   434.3    7.152      40.152
2015    2       24    15  17    5.7606   434.3    7.152      40.162
2015    2       24    15  22    5.7627   434.3    7.153      40.172
2015    2       24    15  27    5.7648   434.3    7.154      40.183
2015    2       24    15  33    5.7669   434.3    7.154      40.193
2015    2       24    15  38    5.7691   434.3    7.155      40.204
2015    2       24    15  43    5.7713   434.3    7.156      40.215
2015    2       24    15  48    5.7735   434.3    7.157      40.226
2015    2       24    15  54    5.7757   434.3    7.158      40.237
2015    2       24    15  59    5.7779   434.3    7.159      40.249
2015    2       24    16   4    5.7801   434.3    7.160      40.260
2015    2       24    16   9    5.7824   434.3    7.161      40.272
2015    2       24    16  15    5.7847   434.3    7.162      40.285
2015    2       24    16  20    5.7870   434.3    7.163      40.297
2015    2       24    16  25    5.7893   434.3    7.164      40.310
2015    2       24    16  30    5.7916   434.4    7.166      40.323
2015    2       24    16  36    5.7940   434.4    7.167      40.336
2015    2       24    16  41    5.7963   434.4    7.169      40.349
2015    2       24    16  46    5.7987   434.4    7.170      40.363
2015    2       24    16  51    5.8011   434.4    7.172      40.377
2015    2       24    16  57    5.8035   434.4    7.173      40.391
2015    2       24    17   2    5.8058   434.4    7.175      40.405
2015    2       24    17   7    5.8083   434.4    7.177      40.420
2015    2       24    17  12    5.8106   434.4    7.179      40.434
2015    2       24    17  18    5.8131   434.5    7.181      40.450
2015    2       24    17  23    5.8155   434.5    7.183      40.465
2015    2       24    17  28    5.8179   434.5    7.185      40.480
2015    2       24    17  33    5.8203   434.5    7.187      40.496
2015    2       24    17  39    5.8227   434.5    7.189      40.512
2015    2       24    17  44    5.8251   434.5    7.191      40.528
2015    2       24    17  49    5.8275   434.6    7.193      40.544
2015    2       24    17  54    5.8299   434.6    7.195      40.561
2015    2       24    18   0    5.8323   434.6    7.197      40.577
2015    2       24    18   5    5.8347   434.6    7.200      40.594
2015    2       24    18  10    5.8370   434.6    7.202      40.611
2015    2       24    18  15    5.8394   434.6    7.204      40.627
2015    2       24    18  21    5.8418   434.7    7.206      40.644
2015    2       24    18  26    5.8441   434.7    7.208      40.661
2015    2       24    18  31    5.8465   434.7    7.210      40.678
2015    2       24    18  36    5.8488   434.7    7.212      40.695
2015    2       24    18  42    5.8511   434.8    7.215      40.712
2015    2       24    18  47    5.8534   434.8    7.217      40.729
2015    2       24    18  52    5.8557   434.8    7.219      40.746
2015    2       24    18  57    5.8580   434.8    7.221      40.763
2015    2       24    19   3    5.8603   434.9    7.223      40.780
2015    2       24    19   8    5.8625   434.9    7.224      40.797
2015    2       24    19  13    5.8648   434.9    7.226      40.814
2015    2       24    19  18    5.8670   434.9    7.228      40.830
2015    2       24    19  24    5.8693   435.0    7.230      40.847
2015    2       24    19  29    5.8715   435.0    7.232      40.863
2015    2       24    19  34    5.8738   435.0    7.233      40.880
2015    2       24    19  39    5.8760   435.0    7.235      40.896
2015    2       24    19  45    5.8782   435.1    7.236      40.912
2015    2       24    19  50    5.8804   435.1    7.238      40.928
2015    2       24    19  55    5.8827   435.1    7.239      40.944
2015    2       24    20   0    5.8849   435.1    7.241      40.959
2015    2       24    20   6    5.8872   435.2    7.242      40.974
2015    2       24    20  11    5.8894   435.2    7.243      40.990
2015    2       24    20  16    5.8916   435.2    7.245      41.005
2015    2       24    20  21    5.8939   435.2    7.246      41.020
2015    2       24    20  27    5.8962   435.3    7.247      41.035
2015    2       24    20  32    5.8984   435.3    7.248      41.050
2015    2       24    20  37    5.9007   435.3    7.250      41.065
2015    2       24    20  42    5.9030   435.3    7.251      41.080
2015    2       24    20  47    5.9054   435.4    7.252      41.094
2015    2       24    20  53    5.9077   435.4    7.254      41.109
2015    2       24    20  58    5.9100   435.4    7.255      41.124
2015    2       24    21   3    5.9124   435.4    7.256      41.138
2015    2       24    21   8    5.9148   435.5    7.258      41.153
2015    2       24    21  14    5.9172   435.5    7.259      41.168
2015    2       24    21  19    5.9196   435.5    7.260      41.183
2015    2       24    21  24    5.9220   435.5    7.262      41.198
2015    2       24    21  29    5.9245   435.6    7.264      41.213
2015    2       24    21  35    5.9270   435.6    7.265      41.228
2015    2       24    21  40    5.9295   435.6    7.267      41.243
2015    2       24    21  45    5.9321   435.6    7.269      41.259
2015    2       24    21  50    5.9346   435.7    7.271      41.274
2015    2       24    21  56    5.9373   435.7    7.272      41.290
2015    2       24    22   1    5.9399   435.7    7.275      41.306
2015    2       24    22   6    5.9426   435.8    7.277      41.322
2015    2       24    22  11    5.9452   435.8    7.279      41.339
2015    2       24    22  17    5.9480   435.8    7.282      41.356
2015    2       24    22  22    5.9507   435.8    7.284      41.374
2015    2       24    22  27    5.9535   435.9    7.287      41.393
2015    2       24    22  32    5.9562   435.9    7.289      41.412
2015    2       24    22  38    5.9591   435.9    7.292      41.432
2015    2       24    22  43    5.9619   436.0    7.294      41.453
2015    2       24    22  48    5.9648   436.0    7.297      41.474
2015    2       24    22  53    5.9676   436.1    7.300      41.496
2015    2       24    22  59    5.9704   436.1    7.302      41.518
2015    2       24    23   4    5.9733   436.1    7.305      41.540
2015    2       24    23   9    5.9761   436.2    7.308      41.563
2015    2       24    23  14    5.9789   436.2    7.310      41.585
2015    2       24    23  20    5.9817   436.3    7.312      41.608
2015    2       24    23  25    5.9846   436.3    7.315      41.631
2015    2       24    23  30    5.9873   436.4    7.317      41.654
2015    2       24    23  35    5.9901   436.4    7.319      41.677
2015    2       24    23  41    5.9929   436.5    7.321      41.699
2015    2       24    23  46    5.9957   436.5    7.323      41.721
2015    2       24    23  51    5.9984   436.5    7.325      41.742
2015    2       24    23  56    6.0012   436.6    7.326      41.764
2015    2       25     0   2    6.0039   436.6    7.328      41.785
2015    2       25     0   7    6.0067   436.7    7.330      41.805
2015    2       25     0  12    6.0093   436.7    7.331      41.825
2015    2       25     0  17    6.0121   436.8    7.333      41.846
2015    2       25     0  23    6.0149   436.8    7.334      41.865
2015    2       25     0  28    6.0176   436.9    7.336      41.885
2015    2       25     0  33    6.0203   436.9    7.337      41.904
2015    2       25     0  38    6.0229   437.0    7.339      41.923
2015    2       25     0  44    6.0257   437.0    7.340      41.942
2015    2       25     0  49    6.0284   437.1    7.342      41.961
2015    2       25     0  54    6.0310   437.1    7.343      41.979
2015    2       25     0  59    6.0337   437.2    7.344      41.997
2015    2       25     1   5    6.0364   437.2    7.346      42.016
2015    2       25     1  10    6.0391   437.3    7.347      42.034
2015    2       25     1  15    6.0417   437.3    7.348      42.052
2015    2       25     1  20    6.0444   437.4    7.349      42.070
2015    2       25     1  26    6.0470   437.4    7.351      42.088
2015    2       25     1  31    6.0496   437.5    7.352      42.105
2015    2       25     1  36    6.0522   437.5    7.353      42.123
2015    2       25     1  41    6.0549   437.5    7.354      42.140
2015    2       25     1  47    6.0574   437.6    7.355      42.158
2015    2       25     1  52    6.0600   437.6    7.356      42.175
2015    2       25     1  57    6.0627   437.7    7.357      42.192
2015    2       25     2   2    6.0652   437.7    7.357      42.209
2015    2       25     2   8    6.0678   437.8    7.358      42.225
2015    2       25     2  13    6.0704   437.8    7.359      42.242
2015    2       25     2  18    6.0730   437.9    7.360      42.258
2015    2       25     2  23    6.0756   437.9    7.360      42.274
2015    2       25     2  28    6.0782   438.0    7.361      42.290
2015    2       25     2  34    6.0808   438.0    7.362      42.305
2015    2       25     2  39    6.0834   438.1    7.363      42.321
2015    2       25     2  44    6.0860   438.1    7.363      42.336
2015    2       25     2  49    6.0886   438.2    7.364      42.351
2015    2       25     2  55    6.0913   438.2    7.364      42.366
2015    2       25     3   0    6.0939   438.3    7.365      42.382
2015    2       25     3   5    6.0966   438.3    7.366      42.397
2015    2       25     3  10    6.0993   438.4    7.367      42.412
2015    2       25     3  16    6.1020   438.4    7.367      42.427
2015    2       25     3  21    6.1048   438.5    7.368      42.442
2015    2       25     3  26    6.1075   438.5    7.369      42.458
2015    2       25     3  31    6.1103   438.6    7.370      42.473
2015    2       25     3  37    6.1131   438.6    7.371      42.489
2015    2       25     3  42    6.1159   438.7    7.372      42.505
2015    2       25     3  47    6.1187   438.7    7.373      42.521
2015    2       25     3  52    6.1216   438.8    7.374      42.538
2015    2       25     3  58    6.1245   438.8    7.376      42.554
2015    2       25     4   3    6.1274   438.9    7.377      42.572
2015    2       25     4   8    6.1303   438.9    7.379      42.589
2015    2       25     4  13    6.1333   439.0    7.380      42.607
2015    2       25     4  19    6.1363   439.0    7.382      42.625
2015    2       25     4  24    6.1393   439.1    7.384      42.644
2015    2       25     4  29    6.1423   439.2    7.386      42.663
2015    2       25     4  34    6.1454   439.2    7.388      42.682
2015    2       25     4  40    6.1485   439.3    7.390      42.703
2015    2       25     4  45    6.1516   439.4    7.393      42.723
2015    2       25     4  50    6.1547   439.4    7.395      42.744
2015    2       25     4  55    6.1579   439.5    7.398      42.766
2015    2       25     5   1    6.1611   439.5    7.401      42.788
2015    2       25     5   6    6.1643   439.6    7.404      42.810
2015    2       25     5  11    6.1676   439.7    7.408      42.833
2015    2       25     5  16    6.1708   439.8    7.411      42.857
2015    2       25     5  22    6.1742   439.8    7.415      42.881
2015    2       25     5  27    6.1775   439.9    7.419      42.906
2015    2       25     5  32    6.1809   440.0    7.423      42.931
2015    2       25     5  37    6.1842   440.0    7.428      42.957
2015    2       25     5  43    6.1876   440.1    7.432      42.984
2015    2       25     5  48    6.1909   440.2    7.437      43.012
2015    2       25     5  53    6.1943   440.3    7.442      43.041
2015    2       25     5  58    6.1976   440.4    7.447      43.070
2015    2       25     6   4    6.2010   440.5    7.452      43.101
2015    2       25     6   9    6.2043   440.5    7.457      43.133
2015    2       25     6  14    6.2076   440.6    7.462      43.165
2015    2       25     6  19    6.2109   440.7    7.467      43.199
2015    2       25     6  25    6.2141   440.8    7.472      43.233
2015    2       25     6  30    6.2174   440.9    7.476      43.267
2015    2       25     6  35    6.2205   441.0    7.481      43.303
2015    2       25     6  40    6.2237   441.1    7.486      43.338
2015    2       25     6  46    6.2268   441.2    7.490      43.374
2015    2       25     6  51    6.2298   441.3    7.494      43.410
2015    2       25     6  56    6.2329   441.4    7.498      43.447
2015    2       25     7   1    6.2359   441.5    7.502      43.483
2015    2       25     7   7    6.2389   441.6    7.505      43.518
2015    2       25     7  12    6.2419   441.7    7.508      43.554
2015    2       25     7  17    6.2448   441.8    7.512      43.589
2015    2       25     7  22    6.2477   442.0    7.514      43.624
2015    2       25     7  28    6.2507   442.1    7.517      43.658
2015    2       25     7  33    6.2535   442.2    7.520      43.691
2015    2       25     7  38    6.2565   442.3    7.522      43.724
2015    2       25     7  43    6.2594   442.4    7.524      43.757
2015    2       25     7  49    6.2623   442.5    7.526      43.788
2015    2       25     7  54    6.2652   442.6    7.528      43.820
2015    2       25     7  59    6.2681   442.7    7.529      43.851
2015    2       25     8   4    6.2710   442.8    7.531      43.881
2015    2       25     8  10    6.2740   442.9    7.532      43.911
2015    2       25     8  15    6.2769   443.0    7.534      43.940
2015    2       25     8  20    6.2799   443.1    7.535      43.969
2015    2       25     8  25    6.2829   443.2    7.536      43.998
2015    2       25     8  30    6.2859   443.3    7.537      44.026
2015    2       25     8  36    6.2889   443.4    7.538      44.053
2015    2       25     8  41    6.2920   443.5    7.538      44.080
2015    2       25     8  46    6.2951   443.6    7.539      44.107
2015    2       25     8  51    6.2982   443.7    7.539      44.133
2015    2       25     8  57    6.3013   443.8    7.540      44.158
2015    2       25     9   2    6.3045   443.9    7.540      44.183
2015    2       25     9   7    6.3076   444.0    7.540      44.208
2015    2       25     9  12    6.3108   444.1    7.540      44.232
2015    2       25     9  18    6.3138   444.2    7.540      44.256
2015    2       25     9  23    6.3171   444.3    7.540      44.279
2015    2       25     9  28    6.3202   444.5    7.540      44.301
2015    2       25     9  33    6.3234   444.6    7.539      44.323
2015    2       25     9  39    6.3267   444.7    7.539      44.345
2015    2       25     9  44    6.3298   444.8    7.538      44.366
2015    2       25     9  49    6.3330   444.9    7.538      44.387
2015    2       25     9  54    6.3362   445.0    7.537      44.407
2015    2       25    10   0    6.3394   445.1    7.537      44.427
2015    2       25    10   5    6.3428   445.2    7.536      44.447
2015    2       25    10  10    6.3460   445.3    7.535      44.466
2015    2       25    10  15    6.3492   445.4    7.534      44.484
2015    2       25    10  21    6.3524   445.5    7.534      44.503
2015    2       25    10  26    6.3557   445.6    7.533      44.521
2015    2       25    10  31    6.3590   445.7    7.532      44.539
2015    2       25    10  36    6.3621   445.8    7.531      44.557
2015    2       25    10  42    6.3654   445.9    7.530      44.575
2015    2       25    10  47    6.3687   446.0    7.530      44.592
2015    2       25    10  52    6.3720   446.1    7.529      44.609
2015    2       25    10  57    6.3753   446.2    7.528      44.627
2015    2       25    11   3    6.3784   446.3    7.527      44.644
2015    2       25    11   8    6.3818   446.4    7.527      44.661
2015    2       25    11  13    6.3850   446.6    7.526      44.679
2015    2       25    11  18    6.3883   446.7    7.526      44.697
2015    2       25    11  24    6.3915   446.8    7.525      44.715
2015    2       25    11  29    6.3948   446.9    7.525      44.733
2015    2       25    11  34    6.3980   447.0    7.524      44.751
2015    2       25    11  39    6.4013   447.1    7.524      44.770
2015    2       25    11  45    6.4044   447.2    7.524      44.789
2015    2       25    11  50    6.4077   447.3    7.524      44.808
2015    2       25    11  55    6.4109   447.4    7.523      44.827
2015    2       25    12   0    6.4140   447.5    7.523      44.847
2015    2       25    12   6    6.4172   447.6    7.523      44.867
2015    2       25    12  11    6.4204   447.8    7.523      44.886
2015    2       25    12  16    6.4235   447.9    7.523      44.907
2015    2       25    12  21    6.4267   448.0    7.523      44.927
2015    2       25    12  27    6.4298   448.1    7.524      44.947
2015    2       25    12  32    6.4329   448.2    7.524      44.968
2015    2       25    12  37    6.4360   448.3    7.524      44.988
2015    2       25    12  42    6.4391   448.4    7.525      45.009
2015    2       25    12  48    6.4422   448.6    7.525      45.030
2015    2       25    12  53    6.4452   448.7    7.526      45.051
2015    2       25    12  58    6.4483   448.8    7.526      45.072
2015    2       25    13   3    6.4513   448.9    7.527      45.094
2015    2       25    13   9    6.4544   449.0    7.528      45.115
2015    2       25    13  14    6.4574   449.1    7.529      45.137
2015    2       25    13  19    6.4604   449.3    7.530      45.158
2015    2       25    13  24    6.4633   449.4    7.531      45.180
2015    2       25    13  30    6.4663   449.5    7.532      45.202
2015    2       25    13  35    6.4692   449.6    7.534      45.224
2015    2       25    13  40    6.4721   449.8    7.535      45.246
2015    2       25    13  45    6.4750   449.9    7.536      45.268
2015    2       25    13  51    6.4779   450.0    7.538      45.291
2015    2       25    13  56    6.4807   450.1    7.539      45.315
2015    2       25    14   1    6.4836   450.2    7.541      45.339
2015    2       25    14   6    6.4864   450.4    7.542      45.363
2015    2       25    14  11    6.4894   450.5    7.544      45.388
2015    2       25    14  17    6.4922   450.6    7.545      45.413
2015    2       25    14  22    6.4950   450.8    7.547      45.439
2015    2       25    14  27    6.4978   450.9    7.548      45.465
2015    2       25    14  32    6.5006   451.0    7.550      45.491
2015    2       25    14  38    6.5034   451.1    7.551      45.518
2015    2       25    14  43    6.5062   451.3    7.552      45.545
2015    2       25    14  48    6.5091   451.4    7.554      45.573
2015    2       25    14  53    6.5120   451.5    7.555      45.601
2015    2       25    14  59    6.5149   451.6    7.557      45.630
2015    2       25    15   4    6.5179   451.8    7.558      45.658
2015    2       25    15   9    6.5207   451.9    7.560      45.687
2015    2       25    15  14    6.5237   452.0    7.561      45.716
2015    2       25    15  20    6.5269   452.2    7.563      45.746
2015    2       25    15  25    6.5299   452.3    7.565      45.776
2015    2       25    15  30    6.5331   452.4    7.566      45.806
2015    2       25    15  35    6.5364   452.6    7.568      45.837
2015    2       25    15  41    6.5397   452.7    7.570      45.868
2015    2       25    15  46    6.5431   452.8    7.572      45.901
2015    2       25    15  51    6.5466   453.0    7.574      45.933
2015    2       25    15  56    6.5501   453.1    7.577      45.967
2015    2       25    16   2    6.5537   453.2    7.579      46.001
2015    2       25    16   7    6.5575   453.4    7.582      46.035
2015    2       25    16  12    6.5613   453.5    7.584      46.071
2015    2       25    16  17    6.5651   453.7    7.587      46.109
2015    2       25    16  23    6.5691   453.8    7.590      46.148
2015    2       25    16  28    6.5731   454.0    7.593      46.188
2015    2       25    16  33    6.5772   454.1    7.596      46.230
2015    2       25    16  38    6.5813   454.3    7.599      46.273
2015    2       25    16  44    6.5855   454.5    7.602      46.317
2015    2       25    16  49    6.5897   454.6    7.605      46.362
2015    2       25    16  54    6.5939   454.8    7.607      46.408
2015    2       25    16  59    6.5982   455.0    7.610      46.454
2015    2       25    17   5    6.6024   455.1    7.613      46.501
2015    2       25    17  10    6.6067   455.3    7.615      46.549
2015    2       25    17  15    6.6109   455.5    7.618      46.597
2015    2       25    17  20    6.6151   455.7    7.620      46.645
2015    2       25    17  26    6.6193   455.9    7.622      46.694
2015    2       25    17  31    6.6234   456.0    7.624      46.743
2015    2       25    17  36    6.6275   456.2    7.625      46.791
2015    2       25    17  41    6.6315   456.4    7.627      46.839
2015    2       25    17  47    6.6355   456.6    7.628      46.885
2015    2       25    17  52    6.6394   456.8    7.629      46.931
2015    2       25    17  57    6.6434   456.9    7.630      46.976
2015    2       25    18   2    6.6472   457.1    7.630      47.021
2015    2       25    18   8    6.6509   457.3    7.631      47.064
2015    2       25    18  13    6.6547   457.5    7.631      47.107
2015    2       25    18  18    6.6583   457.7    7.631      47.149
2015    2       25    18  23    6.6619   457.9    7.631      47.190
2015    2       25    18  29    6.6655   458.0    7.630      47.229
2015    2       25    18  34    6.6691   458.2    7.630      47.268
2015    2       25    18  39    6.6725   458.4    7.629      47.306
2015    2       25    18  44    6.6759   458.6    7.628      47.342
2015    2       25    18  50    6.6793   458.8    7.627      47.378
2015    2       25    18  55    6.6826   458.9    7.625      47.413
2015    2       25    19   0    6.6860   459.1    7.624      47.447
2015    2       25    19   5    6.6891   459.3    7.622      47.480
2015    2       25    19  11    6.6924   459.5    7.620      47.512
2015    2       25    19  16    6.6955   459.7    7.619      47.543
2015    2       25    19  21    6.6986   459.8    7.616      47.573
2015    2       25    19  26    6.7018   460.0    7.614      47.603
2015    2       25    19  32    6.7049   460.2    7.612      47.631
2015    2       25    19  37    6.7079   460.4    7.609      47.659
2015    2       25    19  42    6.7109   460.6    7.607      47.686
2015    2       25    19  47    6.7139   460.7    7.604      47.713
2015    2       25    19  52    6.7168   460.9    7.601      47.738
2015    2       25    19  58    6.7198   461.1    7.598      47.763
2015    2       25    20   3    6.7227   461.3    7.595      47.787
2015    2       25    20   8    6.7256   461.4    7.591      47.811
2015    2       25    20  13    6.7286   461.6    7.588      47.834
2015    2       25    20  19    6.7314   461.8    7.584      47.856
2015    2       25    20  24    6.7343   462.0    7.581      47.877
2015    2       25    20  29    6.7372   462.2    7.577      47.898
2015    2       25    20  34    6.7401   462.3    7.573      47.919
2015    2       25    20  40    6.7430   462.5    7.570      47.939
2015    2       25    20  45    6.7459   462.7    7.566      47.958
2015    2       25    20  50    6.7488   462.9    7.562      47.977
2015    2       25    20  55    6.7516   463.1    7.558      47.996
2015    2       25    21   1    6.7545   463.2    7.554      48.014
2015    2       25    21   6    6.7574   463.4    7.550      48.032
2015    2       25    21  11    6.7603   463.6    7.546      48.049
2015    2       25    21  16    6.7632   463.8    7.542      48.066
2015    2       25    21  22    6.7661   463.9    7.538      48.083
2015    2       25    21  27    6.7690   464.1    7.534      48.099
2015    2       25    21  32    6.7719   464.3    7.530      48.116
2015    2       25    21  37    6.7749   464.5    7.526      48.132
2015    2       25    21  43    6.7778   464.6    7.522      48.148
2015    2       25    21  48    6.7808   464.8    7.518      48.164
2015    2       25    21  53    6.7838   465.0    7.514      48.180
2015    2       25    21  58    6.7868   465.2    7.510      48.196
2015    2       25    22   4    6.7898   465.3    7.507      48.213
2015    2       25    22   9    6.7928   465.5    7.503      48.229
2015    2       25    22  14    6.7959   465.7    7.500      48.245
2015    2       25    22  19    6.7990   465.9    7.496      48.262
2015    2       25    22  25    6.8021   466.0    7.493      48.280
2015    2       25    22  30    6.8053   466.2    7.490      48.297
2015    2       25    22  35    6.8086   466.4    7.487      48.316
2015    2       25    22  40    6.8118   466.6    7.485      48.334
2015    2       25    22  46    6.8151   466.7    7.483      48.354
2015    2       25    22  51    6.8185   466.9    7.480      48.374
2015    2       25    22  56    6.8219   467.1    7.478      48.396
2015    2       25    23   1    6.8254   467.2    7.477      48.418
2015    2       25    23   7    6.8290   467.4    7.476      48.442
2015    2       25    23  12    6.8326   467.6    7.475      48.466
2015    2       25    23  17    6.8363   467.8    7.474      48.492
2015    2       25    23  22    6.8401   468.0    7.473      48.520
2015    2       25    23  28    6.8439   468.1    7.473      48.550
2015    2       25    23  33    6.8478   468.3    7.473      48.582
2015    2       25    23  38    6.8518   468.5    7.474      48.617
2015    2       25    23  43    6.8557   468.7    7.474      48.654
2015    2       25    23  49    6.8598   468.9    7.475      48.693
2015    2       25    23  54    6.8639   469.1    7.476      48.734
2015    2       25    23  59    6.8680   469.3    7.477      48.777
2015    2       26     0   4    6.8723   469.5    7.478      48.822
2015    2       26     0  10    6.8765   469.7    7.480      48.869
2015    2       26     0  15    6.8806   469.9    7.481      48.917
2015    2       26     0  20    6.8848   470.1    7.483      48.967
2015    2       26     0  25    6.8890   470.3    7.485      49.019
2015    2       26     0  31    6.8933   470.6    7.487      49.074
2015    2       26     0  36    6.8975   470.8    7.489      49.131
2015    2       26     0  41    6.9019   471.0    7.491      49.190
2015    2       26     0  46    6.9060   471.2    7.494      49.250
2015    2       26     0  52    6.9100   471.5    7.496      49.312
2015    2       26     0  57    6.9143   471.7    7.498      49.376
2015    2       26     1   2    6.9182   471.9    7.501      49.442
2015    2       26     1   7    6.9224   472.2    7.503      49.509
2015    2       26     1  13    6.9262   472.4    7.505      49.578
2015    2       26     1  18    6.9302   472.7    7.507      49.648
2015    2       26     1  23    6.9341   472.9    7.509      49.718
2015    2       26     1  28    6.9377   473.1    7.510      49.789
2015    2       26     1  34    6.9415   473.4    7.511      49.860
2015    2       26     1  39    6.9451   473.6    7.512      49.931
2015    2       26     1  44    6.9487   473.9    7.513      50.001
2015    2       26     1  49    6.9521   474.2    7.513      50.070
2015    2       26     1  54    6.9556   474.4    7.513      50.138
2015    2       26     2   0    6.9589   474.7    7.513      50.205
2015    2       26     2   5    6.9622   474.9    7.512      50.270
2015    2       26     2  10    6.9656   475.2    7.511      50.334
2015    2       26     2  15    6.9688   475.4    7.509      50.396
2015    2       26     2  21    6.9719   475.7    7.507      50.456
2015    2       26     2  26    6.9751   475.9    7.505      50.514
2015    2       26     2  31    6.9782   476.2    7.502      50.570
2015    2       26     2  36    6.9812   476.5    7.499      50.624
2015    2       26     2  42    6.9843   476.7    7.496      50.677
2015    2       26     2  47    6.9873   477.0    7.493      50.727
2015    2       26     2  52    6.9904   477.2    7.489      50.776
2015    2       26     2  57    6.9934   477.5    7.485      50.824
2015    2       26     3   3    6.9964   477.8    7.480      50.870
2015    2       26     3   8    6.9994   478.0    7.476      50.914
2015    2       26     3  13    7.0024   478.3    7.471      50.957
2015    2       26     3  18    7.0054   478.5    7.466      50.998
2015    2       26     3  24    7.0085   478.8    7.460      51.038
2015    2       26     3  29    7.0115   479.1    7.455      51.077
2015    2       26     3  34    7.0146   479.3    7.449      51.114
2015    2       26     3  39    7.0176   479.6    7.443      51.150
2015    2       26     3  45    7.0207   479.9    7.437      51.186
2015    2       26     3  50    7.0237   480.1    7.431      51.220
2015    2       26     3  55    7.0268   480.4    7.424      51.253
2015    2       26     4   0    7.0299   480.7    7.418      51.285
2015    2       26     4   6    7.0330   480.9    7.411      51.317
2015    2       26     4  11    7.0360   481.2    7.404      51.348
2015    2       26     4  16    7.0391   481.5    7.398      51.378
2015    2       26     4  21    7.0422   481.7    7.391      51.407
2015    2       26     4  27    7.0453   482.0    7.384      51.436
2015    2       26     4  32    7.0483   482.3    7.376      51.465
2015    2       26     4  37    7.0514   482.6    7.369      51.493
2015    2       26     4  42    7.0546   482.8    7.362      51.521
2015    2       26     4  48    7.0577   483.1    7.355      51.548
2015    2       26     4  53    7.0609   483.4    7.347      51.576
2015    2       26     4  58    7.0640   483.7    7.340      51.603
2015    2       26     5   3    7.0670   484.0    7.333      51.631
2015    2       26     5   9    7.0702   484.3    7.325      51.658
2015    2       26     5  14    7.0733   484.5    7.318      51.685
2015    2       26     5  19    7.0764   484.8    7.310      51.713
2015    2       26     5  24    7.0795   485.1    7.303      51.740
2015    2       26     5  30    7.0826   485.4    7.295      51.767
2015    2       26     5  35    7.0857   485.7    7.288      51.795
2015    2       26     5  40    7.0888   486.0    7.280      51.822
2015    2       26     5  45    7.0918   486.3    7.273      51.849
2015    2       26     5  51    7.0949   486.6    7.266      51.877
2015    2       26     5  56    7.0979   486.9    7.258      51.905
2015    2       26     6   1    7.1010   487.2    7.251      51.932
2015    2       26     6   6    7.1040   487.5    7.243      51.960
2015    2       26     6  12    7.1070   487.8    7.236      51.989
2015    2       26     6  17    7.1101   488.1    7.229      52.017
2015    2       26     6  22    7.1131   488.4    7.222      52.046
2015    2       26     6  27    7.1161   488.7    7.215      52.074
2015    2       26     6  33    7.1191   489.0    7.208      52.103
2015    2       26     6  38    7.1222   489.3    7.201      52.133
2015    2       26     6  43    7.1251   489.5    7.194      52.162
2015    2       26     6  48    7.1282   489.8    7.187      52.192
2015    2       26     6  54    7.1312   490.1    7.181      52.221
2015    2       26     6  59    7.1343   490.4    7.174      52.252
2015    2       26     7   4    7.1373   490.7    7.168      52.282
2015    2       26     7   9    7.1403   491.0    7.162      52.314
2015    2       26     7  15    7.1433   491.3    7.157      52.347
2015    2       26     7  20    7.1464   491.6    7.151      52.381
2015    2       26     7  25    7.1494   491.9    7.146      52.415
2015    2       26     7  30    7.1524   492.2    7.141      52.450
2015    2       26     7  35    7.1553   492.5    7.136      52.486
2015    2       26     7  41    7.1584   492.8    7.132      52.523
2015    2       26     7  46    7.1614   493.1    7.128      52.561
2015    2       26     7  51    7.1643   493.4    7.124      52.602
2015    2       26     7  56    7.1674   493.7    7.121      52.645
2015    2       26     8   2    7.1704   494.0    7.118      52.691
2015    2       26     8   7    7.1734   494.3    7.115      52.741
2015    2       26     8  12    7.1762   494.6    7.113      52.794
2015    2       26     8  17    7.1792   494.9    7.111      52.850
2015    2       26     8  23    7.1824   495.2    7.108      52.908
2015    2       26     8  28    7.1852   495.5    7.106      52.969
2015    2       26     8  33    7.1883   495.8    7.104      53.033
2015    2       26     8  38    7.1913   496.1    7.102      53.100
2015    2       26     8  44    7.1942   496.4    7.100      53.170
2015    2       26     8  49    7.1972   496.8    7.097      53.244
2015    2       26     8  54    7.2000   497.1    7.094      53.320
2015    2       26     8  59    7.2029   497.4    7.091      53.398
2015    2       26     9   5    7.2058   497.8    7.088      53.478
2015    2       26     9  10    7.2088   498.1    7.085      53.559
2015    2       26     9  15    7.2116   498.5    7.081      53.640
2015    2       26     9  20    7.2143   498.8    7.077      53.721
2015    2       26     9  26    7.2169   499.2    7.073      53.801
2015    2       26     9  31    7.2197   499.5    7.068      53.880
2015    2       26     9  36    7.2221   499.9    7.064      53.957
2015    2       26     9  41    7.2249   500.2    7.059      54.034
2015    2       26     9  47    7.2274   500.6    7.053      54.109
2015    2       26     9  52    7.2298   500.9    7.048      54.184
2015    2       26     9  57    7.2325   501.3    7.042      54.257
2015    2       26    10   2    7.2350   501.6    7.037      54.330
2015    2       26    10   8    7.2376   502.0    7.031      54.401
2015    2       26    10  13    7.2401   502.3    7.025      54.471
2015    2       26    10  18    7.2427   502.7    7.018      54.541
2015    2       26    10  23    7.2455   503.1    7.012      54.610
2015    2       26    10  29    7.2482   503.4    7.005      54.678
2015    2       26    10  34    7.2511   503.8    6.998      54.746
2015    2       26    10  39    7.2539   504.2    6.991      54.812
2015    2       26    10  44    7.2567   504.6    6.984      54.878
2015    2       26    10  50    7.2596   505.0    6.976      54.943
2015    2       26    10  55    7.2624   505.4    6.968      55.006
2015    2       26    11   0    7.2652   505.7    6.960      55.068
2015    2       26    11   5    7.2678   506.1    6.952      55.128
2015    2       26    11  11    7.2704   506.5    6.943      55.186
2015    2       26    11  16    7.2732   506.9    6.934      55.243
2015    2       26    11  21    7.2758   507.3    6.925      55.298
2015    2       26    11  26    7.2782   507.7    6.916      55.352
2015    2       26    11  32    7.2806   508.1    6.906      55.404
2015    2       26    11  37    7.2830   508.5    6.896      55.454
2015    2       26    11  42    7.2852   508.9    6.886      55.504
2015    2       26    11  47    7.2874   509.3    6.876      55.553
2015    2       26    11  53    7.2896   509.7    6.866      55.600
2015    2       26    11  58    7.2918   510.2    6.855      55.647
2015    2       26    12   3    7.2941   510.6    6.845      55.694
2015    2       26    12   8    7.2962   511.0    6.834      55.740
2015    2       26    12  14    7.2981   511.4    6.823      55.787
2015    2       26    12  19    7.3001   511.8    6.812      55.832
2015    2       26    12  24    7.3021   512.3    6.801      55.877
2015    2       26    12  29    7.3041   512.7    6.790      55.921
2015    2       26    12  35    7.3058   513.1    6.779      55.965
2015    2       26    12  40    7.3077   513.5    6.768      56.008
2015    2       26    12  45    7.3095   514.0    6.757      56.051
2015    2       26    12  50    7.3112   514.4    6.746      56.095
2015    2       26    12  56    7.3128   514.8    6.735      56.138
2015    2       26    13   1    7.3145   515.2    6.724      56.181
2015    2       26    13   6    7.3162   515.7    6.713      56.225
2015    2       26    13  11    7.3179   516.1    6.702      56.270
2015    2       26    13  16    7.3196   516.5    6.691      56.314
2015    2       26    13  22    7.3212   516.9    6.681      56.358
2015    2       26    13  27    7.3229   517.4    6.670      56.404
2015    2       26    13  32    7.3246   517.8    6.660      56.450
2015    2       26    13  37    7.3262   518.2    6.649      56.498
2015    2       26    13  43    7.3279   518.7    6.639      56.547
2015    2       26    13  48    7.3295   519.1    6.629      56.599
2015    2       26    13  53    7.3312   519.6    6.619      56.652
2015    2       26    13  58    7.3327   520.0    6.609      56.707
2015    2       26    14   4    7.3342   520.5    6.599      56.762
2015    2       26    14   9    7.3357   520.9    6.589      56.818
2015    2       26    14  14    7.3371   521.4    6.579      56.874
2015    2       26    14  19    7.3385   521.8    6.569      56.931
2015    2       26    14  25    7.3398   522.3    6.559      56.988
2015    2       26    14  30    7.3410   522.8    6.549      57.045
2015    2       26    14  35    7.3422   523.2    6.539      57.102
2015    2       26    14  40    7.3431   523.7    6.528      57.157
2015    2       26    14  46    7.3441   524.2    6.518      57.212
2015    2       26    14  51    7.3451   524.6    6.508      57.267
2015    2       26    14  56    7.3459   525.1    6.497      57.320
2015    2       26    15   1    7.3466   525.5    6.487      57.373
2015    2       26    15   7    7.3473   526.0    6.477      57.425
2015    2       26    15  12    7.3480   526.4    6.467      57.478
2015    2       26    15  17    7.3486   526.9    6.457      57.530
2015    2       26    15  22    7.3491   527.3    6.446      57.581
2015    2       26    15  28    7.3495   527.7    6.437      57.633
2015    2       26    15  33    7.3499   528.2    6.427      57.685
2015    2       26    15  38    7.3503   528.6    6.417      57.739
2015    2       26    15  43    7.3506   529.0    6.407      57.795
2015    2       26    15  49    7.3510   529.4    6.398      57.855
2015    2       26    15  54    7.3514   529.8    6.388      57.916
2015    2       26    15  59    7.3520   530.2    6.379      57.982
2015    2       26    16   4    7.3522   530.6    6.370      58.051
2015    2       26    16  10    7.3526   531.0    6.361      58.124
2015    2       26    16  15    7.3531   531.5    6.352      58.200
2015    2       26    16  20    7.3536   531.9    6.343      58.279
2015    2       26    16  25    7.3541   532.3    6.334      58.360
2015    2       26    16  31    7.3546   532.8    6.325      58.444
2015    2       26    16  36    7.3555   533.2    6.316      58.529
2015    2       26    16  41    7.3556   533.7    6.307      58.616
2015    2       26    16  46    7.3565   534.2    6.298      58.704
2015    2       26    16  52    7.3571   534.6    6.288      58.792
2015    2       26    16  57    7.3573   535.1    6.279      58.880
2015    2       26    17   2    7.3578   535.6    6.269      58.968
2015    2       26    17   7    7.3586   536.1    6.259      59.054
2015    2       26    17  13    7.3589   536.5    6.248      59.138
2015    2       26    17  18    7.3589   537.0    6.238      59.219
2015    2       26    17  23    7.3591   537.5    6.227      59.297
2015    2       26    17  28    7.3593   538.0    6.216      59.373
2015    2       26    17  34    7.3594   538.5    6.204      59.446
2015    2       26    17  39    7.3599   538.9    6.192      59.514
2015    2       26    17  44    7.3598   539.4    6.180      59.581
2015    2       26    17  49    7.3598   540.0    6.168      59.647
2015    2       26    17  55    7.3591   540.5    6.155      59.712
2015    2       26    18   0    7.3588   541.0    6.142      59.773
2015    2       26    18   5    7.3582   541.5    6.129      59.830
2015    2       26    18  10    7.3580   542.0    6.115      59.884
2015    2       26    18  16    7.3572   542.5    6.101      59.936
2015    2       26    18  21    7.3563   543.0    6.087      59.986
2015    2       26    18  26    7.3554   543.5    6.073      60.032
2015    2       26    18  31    7.3540   543.9    6.059      60.077
2015    2       26    18  37    7.3529   544.4    6.045      60.119
2015    2       26    18  42    7.3519   544.9    6.031      60.161
2015    2       26    18  47    7.3509   545.3    6.017      60.199
2015    2       26    18  52    7.3503   545.7    6.004      60.235
2015    2       26    18  58    7.3493   546.1    5.991      60.267
2015    2       26    19   3    7.3480   546.5    5.979      60.301
2015    2       26    19   8    7.3476   547.0    5.966      60.338
2015    2       26    19  13    7.3465   547.4    5.954      60.379
2015    2       26    19  18    7.3460   547.8    5.942      60.422
2015    2       26    19  24    7.3455   548.3    5.931      60.466
2015    2       26    19  29    7.3451   548.7    5.920      60.517
2015    2       26    19  34    7.3451   549.2    5.909      60.575
2015    2       26    19  39    7.3443   549.7    5.898      60.639
2015    2       26    19  45    7.3443   550.2    5.887      60.708
2015    2       26    19  50    7.3439   550.7    5.877      60.782
2015    2       26    19  55    7.3434   551.2    5.866      60.860
2015    2       26    20   0    7.3428   551.7    5.855      60.942
2015    2       26    20   6    7.3419   552.3    5.845      61.025
2015    2       26    20  11    7.3412   552.8    5.834      61.110
2015    2       26    20  16    7.3405   553.3    5.824      61.196
2015    2       26    20  21    7.3401   553.8    5.814      61.282
2015    2       26    20  27    7.3389   554.3    5.803      61.370
2015    2       26    20  32    7.3379   554.8    5.793      61.457
2015    2       26    20  37    7.3369   555.3    5.783      61.543
2015    2       26    20  42    7.3358   555.8    5.772      61.629
2015    2       26    20  48    7.3347   556.3    5.762      61.716
2015    2       26    20  53    7.3339   556.8    5.752      61.805
2015    2       26    20  58    7.3323   557.4    5.742      61.895
2015    2       26    21   3    7.3314   557.9    5.732      61.986
2015    2       26    21   9    7.3297   558.4    5.722      62.079
2015    2       26    21  14    7.3283   559.0    5.712      62.172
2015    2       26    21  19    7.3272   559.5    5.701      62.264
2015    2       26    21  24    7.3256   560.0    5.691      62.355
2015    2       26    21  30    7.3239   560.6    5.680      62.445
2015    2       26    21  35    7.3217   561.1    5.669      62.534
2015    2       26    21  40    7.3198   561.7    5.658      62.622
2015    2       26    21  45    7.3183   562.2    5.647      62.706
2015    2       26    21  51    7.3158   562.8    5.636      62.786
2015    2       26    21  56    7.3137   563.3    5.624      62.864
2015    2       26    22   1    7.3119   563.9    5.613      62.939
2015    2       26    22   6    7.3096   564.4    5.601      63.012
2015    2       26    22  12    7.3072   565.0    5.589      63.083
2015    2       26    22  17    7.3046   565.5    5.576      63.151
2015    2       26    22  22    7.3020   566.1    5.564      63.219
2015    2       26    22  27    7.2992   566.7    5.551      63.287
2015    2       26    22  33    7.2958   567.3    5.537      63.356
2015    2       26    22  38    7.2925   567.9    5.523      63.423
2015    2       26    22  43    7.2891   568.5    5.508      63.486
2015    2       26    22  48    7.2853   569.1    5.493      63.547
2015    2       26    22  54    7.2820   569.6    5.478      63.605
2015    2       26    22  59    7.2774   570.2    5.463      63.662
2015    2       26    23   4    7.2738   570.8    5.447      63.716
2015    2       26    23   9    7.2690   571.3    5.432      63.769
2015    2       26    23  15    7.2652   571.8    5.417      63.822
2015    2       26    23  20    7.2604   572.4    5.401      63.874
2015    2       26    23  25    7.2561   572.9    5.386      63.926
2015    2       26    23  30    7.2518   573.4    5.371      63.978
2015    2       26    23  36    7.2475   573.9    5.356      64.029
2015    2       26    23  41    7.2432   574.4    5.341      64.079
2015    2       26    23  46    7.2396   574.9    5.327      64.131
2015    2       26    23  51    7.2349   575.4    5.312      64.185
2015    2       26    23  57    7.2307   576.0    5.298      64.240
2015    2       27     0   2    7.2265   576.5    5.284      64.296
2015    2       27     0   7    7.2228   577.0    5.269      64.351
2015    2       27     0  12    7.2180   577.5    5.255      64.405
2015    2       27     0  18    7.2137   578.0    5.240      64.459
2015    2       27     0  23    7.2098   578.5    5.226      64.510
2015    2       27     0  28    7.2049   579.1    5.211      64.558
2015    2       27     0  33    7.2009   579.6    5.197      64.602
2015    2       27     0  39    7.1959   580.1    5.182      64.642
2015    2       27     0  44    7.1919   580.6    5.168      64.679
2015    2       27     0  49    7.1870   581.0    5.153      64.712
2015    2       27     0  54    7.1830   581.5    5.139      64.740
2015    2       27     1   0    7.1787   582.0    5.125      64.764
2015    2       27     1   5    7.1738   582.5    5.111      64.788
2015    2       27     1  10    7.1700   583.0    5.096      64.811
2015    2       27     1  15    7.1656   583.4    5.082      64.832
2015    2       27     1  20    7.1612   583.9    5.068      64.851
2015    2       27     1  26    7.1564   584.3    5.054      64.868
2015    2       27     1  31    7.1525   584.8    5.041      64.886
2015    2       27     1  36    7.1476   585.2    5.027      64.906
2015    2       27     1  41    7.1433   585.6    5.014      64.929
2015    2       27     1  47    7.1391   586.0    5.001      64.955
2015    2       27     1  52    7.1349   586.4    4.989      64.985
2015    2       27     1  57    7.1308   586.8    4.977      65.019
2015    2       27     2   2    7.1273   587.3    4.965      65.055
2015    2       27     2   8    7.1234   587.6    4.954      65.091
2015    2       27     2  13    7.1195   588.0    4.944      65.126
2015    2       27     2  18    7.1154   588.4    4.934      65.164
2015    2       27     2  23    7.1121   588.7    4.924      65.205
2015    2       27     2  29    7.1081   589.1    4.915      65.249
2015    2       27     2  34    7.1051   589.5    4.906      65.296
2015    2       27     2  39    7.1013   589.9    4.897      65.344
2015    2       27     2  44    7.0984   590.3    4.889      65.398
2015    2       27     2  50    7.0950   590.7    4.881      65.457
2015    2       27     2  55    7.0917   591.1    4.873      65.522
2015    2       27     3   0    7.0879   591.5    4.865      65.592
2015    2       27     3   5    7.0848   592.0    4.857      65.665
2015    2       27     3  11    7.0812   592.5    4.849      65.744
2015    2       27     3  16    7.0774   592.9    4.841      65.826
2015    2       27     3  21    7.0732   593.4    4.833      65.911
2015    2       27     3  26    7.0696   593.9    4.825      65.996
2015    2       27     3  32    7.0651   594.3    4.816      66.082
2015    2       27     3  37    7.0609   594.8    4.808      66.168
2015    2       27     3  42    7.0566   595.3    4.799      66.255
2015    2       27     3  47    7.0525   595.8    4.791      66.343
2015    2       27     3  53    7.0476   596.2    4.782      66.428
2015    2       27     3  58    7.0433   596.7    4.773      66.509
2015    2       27     4   3    7.0385   597.1    4.764      66.587
2015    2       27     4   8    7.0334   597.5    4.754      66.662
2015    2       27     4  14    7.0285   598.0    4.745      66.735
2015    2       27     4  19    7.0240   598.4    4.736      66.807
2015    2       27     4  24    7.0192   598.8    4.726      66.877
2015    2       27     4  29    7.0139   599.2    4.717      66.946
2015    2       27     4  35    7.0094   599.7    4.708      67.012
2015    2       27     4  40    7.0045   600.1    4.698      67.077
2015    2       27     4  45    6.9995   600.6    4.689      67.140
2015    2       27     4  50    6.9942   601.0    4.679      67.201
2015    2       27     4  56    6.9895   601.5    4.670      67.258
2015    2       27     5   1    6.9844   601.9    4.660      67.312
2015    2       27     5   6    6.9793   602.4    4.650      67.363
2015    2       27     5  11    6.9739   602.8    4.640      67.410
2015    2       27     5  17    6.9691   603.3    4.631      67.455
2015    2       27     5  22    6.9639   603.8    4.621      67.498
2015    2       27     5  27    6.9586   604.2    4.611      67.537
2015    2       27     5  32    6.9530   604.7    4.600      67.574
2015    2       27     5  38    6.9476   605.2    4.590      67.610
2015    2       27     5  43    6.9424   605.7    4.579      67.646
2015    2       27     5  48    6.9368   606.2    4.568      67.683
2015    2       27     5  53    6.9310   606.7    4.557      67.717
2015    2       27     5  59    6.9248   607.2    4.545      67.747
2015    2       27     6   4    6.9187   607.7    4.533      67.774
2015    2       27     6   9    6.9126   608.2    4.522      67.798
2015    2       27     6  14    6.9066   608.7    4.510      67.819
2015    2       27     6  20    6.9002   609.1    4.498      67.837
2015    2       27     6  25    6.8939   609.6    4.486      67.853
2015    2       27     6  30    6.8878   610.0    4.474      67.867
2015    2       27     6  35    6.8816   610.4    4.462      67.880
2015    2       27     6  41    6.8755   610.8    4.451      67.892
2015    2       27     6  46    6.8693   611.2    4.440      67.904
2015    2       27     6  51    6.8632   611.6    4.429      67.914
2015    2       27     6  56    6.8573   612.0    4.419      67.922
2015    2       27     7   2    6.8515   612.4    4.408      67.933
2015    2       27     7   7    6.8458   612.8    4.399      67.946
2015    2       27     7  12    6.8401   613.2    4.389      67.962
2015    2       27     7  17    6.8343   613.6    4.379      67.980
2015    2       27     7  22    6.8287   614.0    4.370      67.999
2015    2       27     7  28    6.8230   614.3    4.360      68.020
2015    2       27     7  33    6.8173   614.7    4.351      68.041
2015    2       27     7  38    6.8116   615.1    4.342      68.063
2015    2       27     7  43    6.8059   615.5    4.332      68.084
2015    2       27     7  49    6.8002   615.9    4.323      68.104
2015    2       27     7  54    6.7945   616.3    4.314      68.123
2015    2       27     7  59    6.7888   616.6    4.304      68.140
2015    2       27     8   4    6.7831   617.0    4.295      68.155
2015    2       27     8  10    6.7775   617.3    4.286      68.168
2015    2       27     8  15    6.7719   617.7    4.277      68.178
2015    2       27     8  20    6.7665   618.0    4.268      68.186
2015    2       27     8  25    6.7611   618.3    4.260      68.192
2015    2       27     8  31    6.7557   618.5    4.251      68.198
2015    2       27     8  36    6.7505   618.8    4.243      68.204
2015    2       27     8  41    6.7454   619.1    4.235      68.212
2015    2       27     8  46    6.7404   619.3    4.228      68.221
2015    2       27     8  52    6.7354   619.6    4.220      68.232
2015    2       27     8  57    6.7306   619.9    4.213      68.247
2015    2       27     9   2    6.7258   620.1    4.206      68.267
2015    2       27     9   7    6.7211   620.4    4.199      68.292
2015    2       27     9  13    6.7164   620.6    4.192      68.321
2015    2       27     9  18    6.7118   620.9    4.186      68.354
2015    2       27     9  23    6.7073   621.2    4.180      68.391
2015    2       27     9  28    6.7027   621.5    4.173      68.430
2015    2       27     9  34    6.6982   621.8    4.167      68.470
2015    2       27     9  39    6.6936   622.2    4.161      68.511
2015    2       27     9  44    6.6890   622.5    4.155      68.551
2015    2       27     9  49    6.6844   622.8    4.149      68.591
2015    2       27     9  55    6.6797   623.1    4.143      68.628
2015    2       27    10   0    6.6750   623.5    4.137      68.664
2015    2       27    10   5    6.6702   623.8    4.131      68.697
2015    2       27    10  10    6.6653   624.1    4.124      68.727
2015    2       27    10  16    6.6604   624.4    4.118      68.754
2015    2       27    10  21    6.6554   624.7    4.112      68.779
2015    2       27    10  26    6.6503   625.0    4.105      68.802
2015    2       27    10  31    6.6451   625.3    4.099      68.823
2015    2       27    10  37    6.6399   625.6    4.092      68.843
2015    2       27    10  42    6.6346   625.9    4.085      68.861
2015    2       27    10  47    6.6293   626.2    4.079      68.878
2015    2       27    10  52    6.6240   626.5    4.072      68.895
2015    2       27    10  58    6.6187   626.8    4.065      68.910
2015    2       27    11   3    6.6134   627.1    4.059      68.924
2015    2       27    11   8    6.6080   627.3    4.052      68.938
2015    2       27    11  13    6.6027   627.6    4.046      68.950
2015    2       27    11  19    6.5975   627.9    4.039      68.962
2015    2       27    11  24    6.5922   628.1    4.033      68.973
2015    2       27    11  29    6.5870   628.4    4.026      68.984
2015    2       27    11  34    6.5817   628.6    4.020      68.995
2015    2       27    11  40    6.5766   628.9    4.014      69.006
2015    2       27    11  45    6.5715   629.1    4.008      69.018
2015    2       27    11  50    6.5664   629.4    4.001      69.030
2015    2       27    11  55    6.5613   629.6    3.995      69.043
2015    2       27    12   1    6.5563   629.9    3.989      69.056
2015    2       27    12   6    6.5512   630.1    3.983      69.069
2015    2       27    12  11    6.5461   630.4    3.977      69.081
2015    2       27    12  16    6.5411   630.7    3.971      69.093
2015    2       27    12  22    6.5362   630.9    3.966      69.104
2015    2       27    12  27    6.5310   631.2    3.960      69.116
2015    2       27    12  32    6.5260   631.4    3.954      69.127
2015    2       27    12  37    6.5212   631.7    3.948      69.137
2015    2       27    12  43    6.5162   631.9    3.942      69.146
2015    2       27    12  48    6.5113   632.2    3.937      69.155
2015    2       27    12  53    6.5062   632.4    3.931      69.163
2015    2       27    12  58    6.5012   632.7    3.925      69.170
2015    2       27    13   3    6.4963   632.9    3.920      69.177
2015    2       27    13   9    6.4916   633.2    3.914      69.184
2015    2       27    13  14    6.4867   633.4    3.909      69.190
2015    2       27    13  19    6.4817   633.6    3.903      69.197
2015    2       27    13  24    6.4771   633.9    3.898      69.203
2015    2       27    13  30    6.4724   634.1    3.893      69.210
2015    2       27    13  35    6.4676   634.3    3.888      69.216
2015    2       27    13  40    6.4630   634.5    3.883      69.223
2015    2       27    13  45    6.4581   634.8    3.878      69.230
2015    2       27    13  51    6.4536   635.0    3.873      69.237
2015    2       27    13  56    6.4490   635.2    3.868      69.244
2015    2       27    14   1    6.4447   635.4    3.863      69.252
2015    2       27    14   6    6.4399   635.6    3.859      69.261
2015    2       27    14  12    6.4357   635.8    3.854      69.270
2015    2       27    14  17    6.4310   636.0    3.850      69.280
2015    2       27    14  22    6.4268   636.3    3.846      69.291
2015    2       27    14  27    6.4221   636.5    3.841      69.302
2015    2       27    14  33    6.4177   636.7    3.837      69.313
2015    2       27    14  38    6.4136   636.9    3.833      69.325
2015    2       27    14  43    6.4089   637.1    3.829      69.336
2015    2       27    14  48    6.4048   637.3    3.825      69.349
2015    2       27    14  54    6.4002   637.5    3.821      69.361
2015    2       27    14  59    6.3961   637.7    3.817      69.373
2015    2       27    15   4    6.3917   637.9    3.813      69.385
2015    2       27    15   9    6.3872   638.2    3.808      69.396
2015    2       27    15  15    6.3828   638.4    3.804      69.408
2015    2       27    15  20    6.3785   638.6    3.800      69.419
2015    2       27    15  25    6.3742   638.8    3.796      69.429
2015    2       27    15  30    6.3699   639.0    3.792      69.439
2015    2       27    15  36    6.3659   639.2    3.788      69.449
2015    2       27    15  41    6.3616   639.4    3.784      69.459
2015    2       27    15  46    6.3574   639.6    3.780      69.468
2015    2       27    15  51    6.3529   639.7    3.776      69.476
2015    2       27    15  57    6.3487   639.9    3.772      69.484
2015    2       27    16   2    6.3445   640.1    3.768      69.492
2015    2       27    16   7    6.3405   640.3    3.764      69.499
2015    2       27    16  12    6.3363   640.5    3.760      69.506
2015    2       27    16  18    6.3321   640.7    3.756      69.512
2015    2       27    16  23    6.3279   640.8    3.752      69.517
2015    2       27    16  28    6.3235   641.0    3.748      69.522
2015    2       27    16  33    6.3193   641.2    3.744      69.527
2015    2       27    16  39    6.3151   641.4    3.740      69.531
2015    2       27    16  44    6.3110   641.5    3.736      69.534
2015    2       27    16  49    6.3068   641.7    3.732      69.537
2015    2       27    16  54    6.3028   641.9    3.729      69.540
2015    2       27    17   0    6.2987   642.0    3.725      69.542
2015    2       27    17   5    6.2945   642.2    3.721      69.543
2015    2       27    17  10    6.2903   642.3    3.717      69.544
2015    2       27    17  15    6.2860   642.5    3.713      69.544
2015    2       27    17  21    6.2818   642.7    3.710      69.544
2015    2       27    17  26    6.2778   642.8    3.706      69.543
2015    2       27    17  31    6.2735   643.0    3.703      69.542
2015    2       27    17  36    6.2694   643.1    3.699      69.540
2015    2       27    17  42    6.2654   643.2    3.695      69.538
2015    2       27    17  47    6.2611   643.4    3.692      69.535
2015    2       27    17  52    6.2570   643.5    3.688      69.532
2015    2       27    17  57    6.2529   643.7    3.685      69.528
2015    2       27    18   3    6.2488   643.8    3.682      69.523
2015    2       27    18   8    6.2447   643.9    3.678      69.519
2015    2       27    18  13    6.2406   644.1    3.675      69.513
2015    2       27    18  18    6.2367   644.2    3.671      69.508
2015    2       27    18  24    6.2327   644.3    3.668      69.502
2015    2       27    18  29    6.2285   644.5    3.664      69.496
2015    2       27    18  34    6.2246   644.6    3.661      69.489
2015    2       27    18  39    6.2204   644.7    3.658      69.482
2015    2       27    18  45    6.2166   644.9    3.654      69.475
2015    2       27    18  50    6.2127   645.0    3.651      69.468
2015    2       27    18  55    6.2087   645.1    3.648      69.460
2015    2       27    19   0    6.2047   645.3    3.644      69.453
2015    2       27    19   5    6.2008   645.4    3.641      69.445
2015    2       27    19  11    6.1967   645.5    3.638      69.436
2015    2       27    19  16    6.1928   645.6    3.634      69.428
2015    2       27    19  21    6.1890   645.8    3.631      69.420
2015    2       27    19  26    6.1850   645.9    3.628      69.411
2015    2       27    19  32    6.1811   646.0    3.625      69.403
2015    2       27    19  37    6.1774   646.1    3.621      69.394
2015    2       27    19  42    6.1736   646.2    3.618      69.386
2015    2       27    19  47    6.1697   646.4    3.615      69.377
2015    2       27    19  53    6.1659   646.5    3.612      69.369
2015    2       27    19  58    6.1620   646.6    3.608      69.361
2015    2       27    20   3    6.1584   646.7    3.605      69.353
2015    2       27    20   8    6.1546   646.8    3.602      69.344
2015    2       27    20  14    6.1509   646.9    3.599      69.337
2015    2       27    20  19    6.1470   647.1    3.596      69.329
2015    2       27    20  24    6.1433   647.2    3.593      69.322
2015    2       27    20  29    6.1398   647.3    3.590      69.315
2015    2       27    20  35    6.1361   647.4    3.587      69.309
2015    2       27    20  40    6.1323   647.5    3.584      69.302
2015    2       27    20  45    6.1288   647.6    3.581      69.296
2015    2       27    20  50    6.1252   647.7    3.578      69.291
2015    2       27    20  56    6.1216   647.8    3.575      69.286
2015    2       27    21   1    6.1179   647.9    3.572      69.281
2015    2       27    21   6    6.1144   648.0    3.569      69.276
2015    2       27    21  11    6.1110   648.1    3.566      69.272
2015    2       27    21  17    6.1074   648.2    3.563      69.268
2015    2       27    21  22    6.1041   648.3    3.561      69.264
2015    2       27    21  27    6.1004   648.4    3.558      69.260
2015    2       27    21  32    6.0970   648.5    3.555      69.257
2015    2       27    21  38    6.0938   648.6    3.553      69.254
2015    2       27    21  43    6.0904   648.7    3.550      69.251
2015    2       27    21  48    6.0868   648.8    3.547      69.248
2015    2       27    21  53    6.0836   648.9    3.544      69.245
2015    2       27    21  59    6.0803   649.0    3.542      69.242
2015    2       27    22   4    6.0770   649.1    3.539      69.239
2015    2       27    22   9    6.0735   649.2    3.537      69.236
2015    2       27    22  14    6.0702   649.3    3.534      69.232
2015    2       27    22  20    6.0669   649.3    3.531      69.229
2015    2       27    22  25    6.0636   649.4    3.529      69.225
2015    2       27    22  30    6.0605   649.5    3.526      69.222
2015    2       27    22  35    6.0572   649.6    3.523      69.217
2015    2       27    22  41    6.0540   649.7    3.521      69.213
2015    2       27    22  46    6.0506   649.8    3.518      69.209
2015    2       27    22  51    6.0475   649.8    3.516      69.204
2015    2       27    22  56    6.0443   649.9    3.513      69.199
2015    2       27    23   2    6.0409   650.0    3.511      69.194
2015    2       27    23   7    6.0379   650.1    3.508      69.189
2015    2       27    23  12    6.0347   650.1    3.506      69.183
2015    2       27    23  17    6.0313   650.2    3.503      69.177
2015    2       27    23  23    6.0281   650.3    3.501      69.171
2015    2       27    23  28    6.0249   650.4    3.498      69.165
2015    2       27    23  33    6.0219   650.4    3.496      69.159
2015    2       27    23  38    6.0187   650.5    3.494      69.153
2015    2       27    23  44    6.0156   650.6    3.491      69.147
2015    2       27    23  49    6.0124   650.7    3.489      69.140
2015    2       27    23  54    6.0091   650.7    3.487      69.134
2015    2       27    23  59    6.0061   650.8    3.484      69.127
2015    2       28     0   5    6.0029   650.9    3.482      69.120
