year    month   day   hour  minute  B_enl V_enl   n_enl       T_enl
[year] [month] [day] [hour][minute] [nT]  [km/s]  [cm-3]      [kK]
2015    2       20     0   0    6.9180   473.5    7.073      55.629
2015    2       20     0   5    6.9223   473.6    7.073      55.685
2015    2       20     0  10    6.9270   473.8    7.074      55.744
2015    2       20     0  15    6.9314   474.0    7.075      55.804
2015    2       20     0  20    6.9361   474.1    7.076      55.865
2015    2       20     0  26    6.9408   474.3    7.077      55.929
2015    2       20     0  31    6.9455   474.5    7.079      55.994
2015    2       20     0  36    6.9505   474.7    7.081      56.062
2015    2       20     0  41    6.9553   474.8    7.083      56.132
2015    2       20     0  46    6.9602   475.0    7.086      56.205
2015    2       20     0  52    6.9650   475.2    7.088      56.281
2015    2       20     0  57    6.9699   475.4    7.091      56.359
2015    2       20     1   2    6.9746   475.6    7.094      56.439
2015    2       20     1   7    6.9794   475.8    7.097      56.522
2015    2       20     1  12    6.9841   476.0    7.100      56.605
2015    2       20     1  18    6.9887   476.2    7.104      56.690
2015    2       20     1  23    6.9933   476.4    7.107      56.776
2015    2       20     1  28    6.9978   476.6    7.110      56.861
2015    2       20     1  33    7.0021   476.8    7.113      56.948
2015    2       20     1  38    7.0064   477.0    7.116      57.035
2015    2       20     1  44    7.0106   477.2    7.119      57.121
2015    2       20     1  49    7.0148   477.4    7.122      57.207
2015    2       20     1  54    7.0186   477.6    7.124      57.292
2015    2       20     1  59    7.0226   477.8    7.127      57.376
2015    2       20     2   4    7.0264   478.0    7.129      57.459
2015    2       20     2  10    7.0301   478.2    7.131      57.540
2015    2       20     2  15    7.0338   478.4    7.133      57.620
2015    2       20     2  20    7.0373   478.6    7.135      57.699
2015    2       20     2  25    7.0408   478.8    7.136      57.777
2015    2       20     2  30    7.0442   479.0    7.138      57.853
2015    2       20     2  36    7.0476   479.2    7.139      57.928
2015    2       20     2  41    7.0509   479.4    7.141      58.002
2015    2       20     2  46    7.0541   479.6    7.142      58.074
2015    2       20     2  51    7.0573   479.7    7.143      58.146
2015    2       20     2  56    7.0603   479.9    7.143      58.216
2015    2       20     3   2    7.0634   480.1    7.144      58.286
2015    2       20     3   7    7.0665   480.3    7.145      58.354
2015    2       20     3  12    7.0695   480.5    7.145      58.422
2015    2       20     3  17    7.0725   480.7    7.146      58.488
2015    2       20     3  22    7.0755   480.9    7.146      58.553
2015    2       20     3  28    7.0784   481.1    7.146      58.618
2015    2       20     3  33    7.0813   481.2    7.146      58.682
2015    2       20     3  38    7.0842   481.4    7.147      58.745
2015    2       20     3  43    7.0871   481.6    7.147      58.808
2015    2       20     3  48    7.0899   481.8    7.147      58.870
2015    2       20     3  54    7.0930   482.0    7.147      58.933
2015    2       20     3  59    7.0958   482.2    7.147      58.995
2015    2       20     4   4    7.0989   482.3    7.148      59.059
2015    2       20     4   9    7.1019   482.5    7.148      59.123
2015    2       20     4  14    7.1051   482.7    7.149      59.186
2015    2       20     4  20    7.1083   482.9    7.150      59.250
2015    2       20     4  25    7.1116   483.1    7.152      59.318
2015    2       20     4  30    7.1151   483.3    7.153      59.388
2015    2       20     4  35    7.1187   483.5    7.155      59.462
2015    2       20     4  40    7.1224   483.7    7.157      59.539
2015    2       20     4  46    7.1262   483.9    7.159      59.617
2015    2       20     4  51    7.1300   484.1    7.161      59.699
2015    2       20     4  56    7.1338   484.4    7.162      59.782
2015    2       20     5   1    7.1377   484.6    7.164      59.866
2015    2       20     5   6    7.1415   484.9    7.165      59.951
2015    2       20     5  12    7.1453   485.2    7.167      60.035
2015    2       20     5  17    7.1492   485.4    7.167      60.119
2015    2       20     5  22    7.1527   485.7    7.168      60.202
2015    2       20     5  27    7.1562   486.0    7.168      60.285
2015    2       20     5  32    7.1597   486.3    7.167      60.367
2015    2       20     5  38    7.1629   486.6    7.166      60.445
2015    2       20     5  43    7.1661   486.8    7.165      60.522
2015    2       20     5  48    7.1691   487.1    7.163      60.595
2015    2       20     5  53    7.1719   487.4    7.161      60.666
2015    2       20     5  58    7.1747   487.7    7.158      60.734
2015    2       20     6   4    7.1773   488.0    7.155      60.801
2015    2       20     6   9    7.1799   488.2    7.151      60.865
2015    2       20     6  14    7.1824   488.5    7.148      60.928
2015    2       20     6  19    7.1848   488.8    7.143      60.989
2015    2       20     6  24    7.1871   489.1    7.139      61.049
2015    2       20     6  30    7.1895   489.4    7.135      61.107
2015    2       20     6  35    7.1918   489.6    7.130      61.165
2015    2       20     6  40    7.1941   489.9    7.125      61.221
2015    2       20     6  45    7.1963   490.2    7.120      61.277
2015    2       20     6  50    7.1985   490.5    7.115      61.332
2015    2       20     6  56    7.2007   490.8    7.110      61.387
2015    2       20     7   1    7.2029   491.1    7.105      61.441
2015    2       20     7   6    7.2051   491.3    7.100      61.495
2015    2       20     7  11    7.2073   491.6    7.095      61.549
2015    2       20     7  16    7.2096   491.9    7.090      61.603
2015    2       20     7  22    7.2117   492.2    7.085      61.657
2015    2       20     7  27    7.2140   492.5    7.080      61.711
2015    2       20     7  32    7.2163   492.8    7.075      61.766
2015    2       20     7  37    7.2186   493.1    7.070      61.821
2015    2       20     7  42    7.2208   493.3    7.065      61.877
2015    2       20     7  48    7.2232   493.6    7.061      61.934
2015    2       20     7  53    7.2255   493.9    7.056      61.992
2015    2       20     7  58    7.2278   494.2    7.052      62.052
2015    2       20     8   3    7.2301   494.5    7.047      62.113
2015    2       20     8   8    7.2323   494.8    7.043      62.176
2015    2       20     8  14    7.2343   495.1    7.039      62.240
2015    2       20     8  19    7.2365   495.4    7.035      62.305
2015    2       20     8  24    7.2387   495.7    7.031      62.370
2015    2       20     8  29    7.2406   496.0    7.027      62.437
2015    2       20     8  34    7.2426   496.3    7.024      62.504
2015    2       20     8  40    7.2447   496.6    7.020      62.571
2015    2       20     8  45    7.2465   496.9    7.016      62.640
2015    2       20     8  50    7.2485   497.2    7.013      62.710
2015    2       20     8  55    7.2503   497.5    7.009      62.779
2015    2       20     9   0    7.2521   497.8    7.006      62.847
2015    2       20     9   6    7.2539   498.1    7.003      62.917
2015    2       20     9  11    7.2556   498.5    7.000      62.989
2015    2       20     9  16    7.2573   498.8    6.997      63.063
2015    2       20     9  21    7.2589   499.1    6.994      63.138
2015    2       20     9  26    7.2606   499.4    6.992      63.214
2015    2       20     9  32    7.2621   499.7    6.989      63.291
2015    2       20     9  37    7.2636   500.1    6.986      63.368
2015    2       20     9  42    7.2650   500.4    6.983      63.445
2015    2       20     9  47    7.2662   500.7    6.980      63.522
2015    2       20     9  52    7.2675   501.1    6.976      63.598
2015    2       20     9  58    7.2687   501.4    6.972      63.673
2015    2       20    10   3    7.2697   501.7    6.968      63.747
2015    2       20    10   8    7.2706   502.1    6.964      63.820
2015    2       20    10  13    7.2714   502.4    6.959      63.891
2015    2       20    10  18    7.2720   502.8    6.954      63.959
2015    2       20    10  24    7.2726   503.1    6.948      64.023
2015    2       20    10  29    7.2729   503.4    6.942      64.085
2015    2       20    10  34    7.2733   503.8    6.936      64.144
2015    2       20    10  39    7.2736   504.1    6.929      64.200
2015    2       20    10  44    7.2736   504.5    6.922      64.253
2015    2       20    10  50    7.2738   504.8    6.915      64.303
2015    2       20    10  55    7.2736   505.1    6.908      64.351
2015    2       20    11   0    7.2735   505.5    6.900      64.397
2015    2       20    11   5    7.2736   505.8    6.892      64.440
2015    2       20    11  10    7.2735   506.1    6.885      64.481
2015    2       20    11  16    7.2733   506.4    6.877      64.520
2015    2       20    11  21    7.2729   506.7    6.869      64.559
2015    2       20    11  26    7.2728   507.0    6.862      64.596
2015    2       20    11  31    7.2726   507.3    6.854      64.631
2015    2       20    11  36    7.2724   507.6    6.847      64.664
2015    2       20    11  42    7.2725   507.8    6.840      64.697
2015    2       20    11  47    7.2721   508.1    6.833      64.731
2015    2       20    11  52    7.2724   508.4    6.827      64.767
2015    2       20    11  57    7.2723   508.7    6.821      64.804
2015    2       20    12   2    7.2719   509.0    6.814      64.843
2015    2       20    12   8    7.2718   509.3    6.808      64.883
2015    2       20    12  13    7.2717   509.6    6.802      64.926
2015    2       20    12  18    7.2715   509.9    6.795      64.969
2015    2       20    12  23    7.2712   510.2    6.789      65.013
2015    2       20    12  28    7.2708   510.6    6.782      65.058
2015    2       20    12  34    7.2708   510.9    6.775      65.102
2015    2       20    12  39    7.2702   511.2    6.768      65.145
2015    2       20    12  44    7.2695   511.5    6.761      65.188
2015    2       20    12  49    7.2683   511.9    6.754      65.230
2015    2       20    12  54    7.2674   512.2    6.746      65.271
2015    2       20    13   0    7.2664   512.5    6.738      65.309
2015    2       20    13   5    7.2658   512.9    6.730      65.345
2015    2       20    13  10    7.2641   513.2    6.721      65.380
2015    2       20    13  15    7.2633   513.5    6.713      65.414
2015    2       20    13  20    7.2615   513.8    6.704      65.448
2015    2       20    13  26    7.2602   514.1    6.695      65.481
2015    2       20    13  31    7.2589   514.5    6.687      65.514
2015    2       20    13  36    7.2580   514.8    6.678      65.549
2015    2       20    13  41    7.2563   515.1    6.669      65.587
2015    2       20    13  46    7.2550   515.5    6.661      65.628
2015    2       20    13  52    7.2537   515.9    6.652      65.671
2015    2       20    13  57    7.2527   516.2    6.643      65.715
2015    2       20    14   2    7.2509   516.6    6.634      65.760
2015    2       20    14   7    7.2495   517.0    6.625      65.807
2015    2       20    14  12    7.2485   517.4    6.616      65.853
2015    2       20    14  18    7.2469   517.8    6.607      65.899
2015    2       20    14  23    7.2448   518.2    6.597      65.944
2015    2       20    14  28    7.2436   518.6    6.588      65.988
2015    2       20    14  33    7.2413   519.0    6.578      66.032
2015    2       20    14  38    7.2399   519.4    6.568      66.073
2015    2       20    14  44    7.2378   519.8    6.557      66.112
2015    2       20    14  49    7.2352   520.1    6.547      66.149
2015    2       20    14  54    7.2334   520.5    6.536      66.184
2015    2       20    14  59    7.2310   520.9    6.525      66.216
2015    2       20    15   4    7.2285   521.3    6.514      66.246
2015    2       20    15  10    7.2255   521.6    6.502      66.274
2015    2       20    15  15    7.2232   522.0    6.491      66.299
2015    2       20    15  20    7.2199   522.3    6.479      66.322
2015    2       20    15  25    7.2175   522.7    6.468      66.344
2015    2       20    15  30    7.2146   523.0    6.456      66.364
2015    2       20    15  36    7.2111   523.4    6.445      66.384
2015    2       20    15  41    7.2081   523.7    6.434      66.402
2015    2       20    15  46    7.2055   524.1    6.422      66.419
2015    2       20    15  51    7.2024   524.4    6.411      66.436
2015    2       20    15  56    7.1987   524.8    6.400      66.452
2015    2       20    16   2    7.1962   525.1    6.389      66.469
2015    2       20    16   7    7.1931   525.4    6.379      66.487
2015    2       20    16  12    7.1895   525.8    6.369      66.505
2015    2       20    16  17    7.1865   526.1    6.359      66.523
2015    2       20    16  22    7.1835   526.4    6.350      66.543
2015    2       20    16  28    7.1804   526.8    6.340      66.567
2015    2       20    16  33    7.1780   527.1    6.332      66.594
2015    2       20    16  38    7.1743   527.5    6.323      66.622
2015    2       20    16  43    7.1712   527.8    6.314      66.653
2015    2       20    16  48    7.1685   528.2    6.305      66.686
2015    2       20    16  54    7.1653   528.5    6.297      66.721
2015    2       20    16  59    7.1619   528.9    6.288      66.755
2015    2       20    17   4    7.1579   529.3    6.279      66.791
2015    2       20    17   9    7.1544   529.7    6.270      66.825
2015    2       20    17  14    7.1507   530.0    6.261      66.859
2015    2       20    17  20    7.1475   530.4    6.251      66.894
2015    2       20    17  25    7.1435   530.8    6.241      66.927
2015    2       20    17  30    7.1388   531.2    6.231      66.959
2015    2       20    17  35    7.1346   531.6    6.220      66.987
2015    2       20    17  40    7.1308   532.0    6.209      67.013
2015    2       20    17  46    7.1258   532.4    6.197      67.035
2015    2       20    17  51    7.1212   532.8    6.185      67.055
2015    2       20    17  56    7.1165   533.2    6.173      67.072
2015    2       20    18   1    7.1117   533.6    6.160      67.086
2015    2       20    18   6    7.1069   534.0    6.147      67.098
2015    2       20    18  12    7.1025   534.4    6.134      67.107
2015    2       20    18  17    7.0976   534.8    6.121      67.114
2015    2       20    18  22    7.0919   535.2    6.107      67.119
2015    2       20    18  27    7.0867   535.6    6.094      67.122
2015    2       20    18  32    7.0815   536.0    6.080      67.123
2015    2       20    18  38    7.0762   536.3    6.065      67.121
2015    2       20    18  43    7.0707   536.7    6.051      67.119
2015    2       20    18  48    7.0651   537.1    6.036      67.112
2015    2       20    18  53    7.0594   537.5    6.021      67.102
2015    2       20    18  58    7.0535   537.9    6.006      67.090
2015    2       20    19   4    7.0480   538.3    5.990      67.075
2015    2       20    19   9    7.0411   538.6    5.974      67.055
2015    2       20    19  14    7.0352   539.0    5.957      67.029
2015    2       20    19  19    7.0285   539.4    5.940      66.999
2015    2       20    19  24    7.0210   539.7    5.923      66.965
2015    2       20    19  30    7.0140   540.1    5.905      66.927
2015    2       20    19  35    7.0076   540.4    5.888      66.885
2015    2       20    19  40    6.9999   540.8    5.870      66.840
2015    2       20    19  45    6.9927   541.1    5.853      66.791
2015    2       20    19  50    6.9856   541.4    5.836      66.740
2015    2       20    19  56    6.9785   541.7    5.819      66.688
2015    2       20    20   1    6.9722   542.0    5.803      66.636
2015    2       20    20   6    6.9652   542.2    5.787      66.582
2015    2       20    20  11    6.9579   542.5    5.772      66.528
2015    2       20    20  16    6.9513   542.7    5.757      66.478
2015    2       20    20  22    6.9449   543.0    5.743      66.431
2015    2       20    20  27    6.9392   543.2    5.730      66.388
2015    2       20    20  32    6.9332   543.4    5.717      66.348
2015    2       20    20  37    6.9267   543.7    5.705      66.313
2015    2       20    20  42    6.9209   543.9    5.694      66.285
2015    2       20    20  48    6.9159   544.2    5.683      66.262
2015    2       20    20  53    6.9104   544.4    5.672      66.245
2015    2       20    20  58    6.9050   544.7    5.662      66.233
2015    2       20    21   3    6.8991   545.0    5.652      66.224
2015    2       20    21   8    6.8943   545.3    5.642      66.220
2015    2       20    21  14    6.8889   545.6    5.632      66.217
2015    2       20    21  19    6.8835   545.9    5.623      66.217
2015    2       20    21  24    6.8776   546.2    5.613      66.217
2015    2       20    21  29    6.8722   546.5    5.603      66.217
2015    2       20    21  34    6.8667   546.8    5.594      66.216
2015    2       20    21  40    6.8612   547.1    5.584      66.216
2015    2       20    21  45    6.8560   547.4    5.574      66.214
2015    2       20    21  50    6.8498   547.7    5.563      66.209
2015    2       20    21  55    6.8439   548.0    5.553      66.202
2015    2       20    22   0    6.8384   548.3    5.542      66.193
2015    2       20    22   6    6.8324   548.6    5.531      66.182
2015    2       20    22  11    6.8262   548.9    5.520      66.169
2015    2       20    22  16    6.8199   549.2    5.509      66.155
2015    2       20    22  21    6.8131   549.5    5.498      66.138
2015    2       20    22  26    6.8066   549.8    5.486      66.119
2015    2       20    22  32    6.8000   550.1    5.474      66.098
2015    2       20    22  37    6.7932   550.3    5.462      66.075
2015    2       20    22  42    6.7864   550.6    5.450      66.049
2015    2       20    22  47    6.7795   550.9    5.438      66.021
2015    2       20    22  52    6.7725   551.2    5.426      65.990
2015    2       20    22  58    6.7654   551.4    5.414      65.958
2015    2       20    23   3    6.7583   551.7    5.401      65.924
2015    2       20    23   8    6.7515   552.0    5.389      65.888
2015    2       20    23  13    6.7438   552.2    5.377      65.850
2015    2       20    23  18    6.7366   552.5    5.365      65.812
2015    2       20    23  24    6.7293   552.7    5.353      65.774
2015    2       20    23  29    6.7221   553.0    5.341      65.735
2015    2       20    23  34    6.7152   553.2    5.329      65.695
2015    2       20    23  39    6.7075   553.5    5.317      65.655
2015    2       20    23  44    6.7002   553.7    5.306      65.614
2015    2       20    23  50    6.6929   553.9    5.294      65.572
2015    2       20    23  55    6.6855   554.1    5.283      65.531
2015    2       21     0   0    6.6786   554.4    5.271      65.489
2015    2       21     0   5    6.6708   554.6    5.260      65.446
2015    2       21     0  10    6.6635   554.8    5.249      65.404
2015    2       21     0  16    6.6565   555.0    5.237      65.360
2015    2       21     0  21    6.6492   555.3    5.226      65.316
2015    2       21     0  26    6.6418   555.5    5.215      65.271
2015    2       21     0  31    6.6340   555.7    5.204      65.225
2015    2       21     0  36    6.6266   556.0    5.193      65.178
2015    2       21     0  42    6.6192   556.2    5.183      65.131
2015    2       21     0  47    6.6117   556.4    5.172      65.084
2015    2       21     0  52    6.6043   556.6    5.161      65.035
2015    2       21     0  57    6.5968   556.9    5.150      64.986
2015    2       21     1   2    6.5894   557.1    5.139      64.936
2015    2       21     1   8    6.5819   557.3    5.129      64.886
2015    2       21     1  13    6.5745   557.5    5.118      64.835
2015    2       21     1  18    6.5671   557.7    5.107      64.784
2015    2       21     1  23    6.5596   557.9    5.097      64.733
2015    2       21     1  28    6.5522   558.1    5.086      64.682
2015    2       21     1  34    6.5448   558.3    5.076      64.631
2015    2       21     1  39    6.5377   558.5    5.065      64.580
2015    2       21     1  44    6.5301   558.7    5.055      64.529
2015    2       21     1  49    6.5229   558.9    5.044      64.478
2015    2       21     1  54    6.5153   559.2    5.033      64.427
2015    2       21     2   0    6.5082   559.4    5.023      64.376
2015    2       21     2   5    6.5007   559.6    5.012      64.324
2015    2       21     2  10    6.4935   559.8    5.002      64.272
2015    2       21     2  15    6.4861   560.0    4.991      64.218
2015    2       21     2  20    6.4787   560.2    4.980      64.164
2015    2       21     2  26    6.4712   560.4    4.968      64.110
2015    2       21     2  31    6.4636   560.6    4.957      64.051
2015    2       21     2  36    6.4558   560.8    4.945      63.987
2015    2       21     2  41    6.4481   561.0    4.933      63.919
2015    2       21     2  46    6.4404   561.2    4.921      63.848
2015    2       21     2  52    6.4326   561.4    4.909      63.773
2015    2       21     2  57    6.4248   561.5    4.898      63.694
2015    2       21     3   2    6.4171   561.7    4.886      63.614
2015    2       21     3   7    6.4094   561.8    4.874      63.532
2015    2       21     3  12    6.4017   562.0    4.862      63.449
2015    2       21     3  18    6.3941   562.1    4.851      63.366
2015    2       21     3  23    6.3865   562.2    4.840      63.283
2015    2       21     3  28    6.3791   562.4    4.829      63.199
2015    2       21     3  33    6.3718   562.4    4.819      63.115
2015    2       21     3  38    6.3646   562.5    4.808      63.034
2015    2       21     3  44    6.3576   562.6    4.799      62.956
2015    2       21     3  49    6.3506   562.7    4.789      62.880
2015    2       21     3  54    6.3439   562.8    4.781      62.808
2015    2       21     3  59    6.3373   562.9    4.772      62.738
2015    2       21     4   4    6.3306   562.9    4.764      62.671
2015    2       21     4  10    6.3241   563.0    4.756      62.606
2015    2       21     4  15    6.3178   563.1    4.748      62.544
2015    2       21     4  20    6.3115   563.1    4.740      62.484
2015    2       21     4  25    6.3053   563.2    4.733      62.426
2015    2       21     4  30    6.2990   563.3    4.725      62.369
2015    2       21     4  36    6.2929   563.3    4.718      62.314
2015    2       21     4  41    6.2867   563.4    4.711      62.261
2015    2       21     4  46    6.2807   563.5    4.704      62.208
2015    2       21     4  51    6.2746   563.6    4.697      62.156
2015    2       21     4  57    6.2685   563.6    4.690      62.105
2015    2       21     5   2    6.2623   563.7    4.683      62.053
2015    2       21     5   7    6.2561   563.8    4.676      62.002
2015    2       21     5  12    6.2500   563.9    4.669      61.951
2015    2       21     5  17    6.2438   564.0    4.663      61.898
2015    2       21     5  22    6.2376   564.1    4.656      61.845
2015    2       21     5  28    6.2314   564.2    4.649      61.791
2015    2       21     5  33    6.2251   564.2    4.642      61.736
2015    2       21     5  38    6.2188   564.3    4.634      61.681
2015    2       21     5  43    6.2124   564.4    4.627      61.626
2015    2       21     5  48    6.2060   564.5    4.620      61.571
2015    2       21     5  54    6.1996   564.6    4.613      61.516
2015    2       21     5  59    6.1932   564.7    4.606      61.460
2015    2       21     6   4    6.1866   564.7    4.598      61.403
2015    2       21     6   9    6.1800   564.8    4.591      61.345
2015    2       21     6  15    6.1734   564.9    4.584      61.286
2015    2       21     6  20    6.1669   565.0    4.576      61.227
2015    2       21     6  25    6.1600   565.1    4.569      61.167
2015    2       21     6  30    6.1535   565.1    4.562      61.107
2015    2       21     6  35    6.1468   565.2    4.555      61.046
2015    2       21     6  40    6.1400   565.3    4.548      60.985
2015    2       21     6  46    6.1334   565.3    4.541      60.924
2015    2       21     6  51    6.1268   565.4    4.534      60.863
2015    2       21     6  56    6.1202   565.4    4.527      60.802
2015    2       21     7   1    6.1137   565.5    4.520      60.741
2015    2       21     7   7    6.1073   565.5    4.514      60.680
2015    2       21     7  12    6.1007   565.6    4.508      60.620
2015    2       21     7  17    6.0942   565.6    4.502      60.560
2015    2       21     7  22    6.0880   565.6    4.495      60.501
2015    2       21     7  27    6.0815   565.7    4.490      60.443
2015    2       21     7  32    6.0754   565.7    4.484      60.385
2015    2       21     7  38    6.0689   565.7    4.478      60.328
2015    2       21     7  43    6.0629   565.8    4.473      60.270
2015    2       21     7  48    6.0565   565.8    4.468      60.212
2015    2       21     7  53    6.0504   565.8    4.463      60.155
2015    2       21     7  59    6.0443   565.9    4.458      60.098
2015    2       21     8   4    6.0384   565.9    4.453      60.042
2015    2       21     8   9    6.0321   566.0    4.448      59.985
2015    2       21     8  14    6.0263   566.0    4.443      59.927
2015    2       21     8  19    6.0204   566.0    4.438      59.870
2015    2       21     8  25    6.0142   566.1    4.434      59.812
2015    2       21     8  30    6.0083   566.1    4.429      59.754
2015    2       21     8  35    6.0027   566.1    4.425      59.696
2015    2       21     8  40    5.9966   566.2    4.420      59.638
2015    2       21     8  45    5.9912   566.2    4.415      59.580
2015    2       21     8  50    5.9852   566.2    4.411      59.521
2015    2       21     8  56    5.9798   566.2    4.406      59.462
2015    2       21     9   1    5.9739   566.2    4.402      59.403
2015    2       21     9   6    5.9686   566.2    4.397      59.343
2015    2       21     9  11    5.9627   566.2    4.392      59.283
2015    2       21     9  17    5.9576   566.2    4.388      59.223
2015    2       21     9  22    5.9518   566.2    4.383      59.163
2015    2       21     9  27    5.9468   566.2    4.379      59.103
2015    2       21     9  32    5.9414   566.2    4.374      59.043
2015    2       21     9  37    5.9359   566.2    4.370      58.984
2015    2       21     9  43    5.9309   566.2    4.365      58.924
2015    2       21     9  48    5.9254   566.2    4.361      58.864
2015    2       21     9  53    5.9206   566.2    4.356      58.804
2015    2       21     9  58    5.9155   566.1    4.352      58.744
2015    2       21    10   3    5.9101   566.1    4.348      58.684
2015    2       21    10   9    5.9055   566.1    4.344      58.624
2015    2       21    10  14    5.9004   566.0    4.340      58.566
2015    2       21    10  19    5.8952   566.0    4.336      58.508
2015    2       21    10  24    5.8902   566.0    4.332      58.450
2015    2       21    10  29    5.8857   565.9    4.328      58.393
2015    2       21    10  35    5.8808   565.9    4.324      58.337
2015    2       21    10  40    5.8756   565.9    4.321      58.280
2015    2       21    10  45    5.8711   565.8    4.317      58.225
2015    2       21    10  50    5.8660   565.8    4.313      58.170
2015    2       21    10  55    5.8615   565.8    4.309      58.115
2015    2       21    11   1    5.8564   565.7    4.305      58.061
2015    2       21    11   6    5.8520   565.7    4.302      58.006
2015    2       21    11  11    5.8472   565.7    4.298      57.952
2015    2       21    11  16    5.8424   565.6    4.294      57.897
2015    2       21    11  21    5.8377   565.6    4.290      57.843
2015    2       21    11  27    5.8326   565.6    4.286      57.788
2015    2       21    11  32    5.8278   565.6    4.282      57.733
2015    2       21    11  37    5.8231   565.5    4.278      57.679
2015    2       21    11  42    5.8186   565.5    4.274      57.624
2015    2       21    11  47    5.8138   565.5    4.269      57.569
2015    2       21    11  53    5.8087   565.4    4.265      57.513
2015    2       21    11  58    5.8039   565.4    4.261      57.457
2015    2       21    12   3    5.7994   565.4    4.257      57.400
2015    2       21    12   8    5.7946   565.4    4.252      57.342
2015    2       21    12  13    5.7895   565.3    4.248      57.284
2015    2       21    12  19    5.7849   565.3    4.244      57.227
2015    2       21    12  24    5.7798   565.3    4.239      57.168
2015    2       21    12  29    5.7752   565.2    4.235      57.110
2015    2       21    12  34    5.7703   565.2    4.230      57.052
2015    2       21    12  39    5.7654   565.2    4.226      56.993
2015    2       21    12  45    5.7603   565.1    4.222      56.934
2015    2       21    12  50    5.7556   565.1    4.217      56.876
2015    2       21    12  55    5.7505   565.0    4.213      56.817
2015    2       21    13   0    5.7458   565.0    4.209      56.758
2015    2       21    13   5    5.7407   565.0    4.204      56.699
2015    2       21    13  11    5.7358   564.9    4.200      56.641
2015    2       21    13  16    5.7310   564.9    4.196      56.582
2015    2       21    13  21    5.7263   564.8    4.191      56.523
2015    2       21    13  26    5.7212   564.8    4.187      56.465
2015    2       21    13  31    5.7166   564.8    4.183      56.407
2015    2       21    13  37    5.7115   564.7    4.179      56.349
2015    2       21    13  42    5.7069   564.7    4.175      56.291
2015    2       21    13  47    5.7019   564.6    4.171      56.233
2015    2       21    13  52    5.6973   564.6    4.167      56.176
2015    2       21    13  57    5.6924   564.5    4.163      56.119
2015    2       21    14   3    5.6878   564.5    4.159      56.063
2015    2       21    14   8    5.6829   564.4    4.156      56.007
2015    2       21    14  13    5.6785   564.3    4.152      55.952
2015    2       21    14  18    5.6736   564.3    4.149      55.897
2015    2       21    14  23    5.6692   564.2    4.145      55.843
2015    2       21    14  29    5.6644   564.2    4.142      55.789
2015    2       21    14  34    5.6599   564.1    4.139      55.736
2015    2       21    14  39    5.6554   564.0    4.136      55.684
2015    2       21    14  44    5.6510   564.0    4.133      55.632
2015    2       21    14  49    5.6464   563.9    4.130      55.582
2015    2       21    14  55    5.6420   563.8    4.127      55.532
2015    2       21    15   0    5.6378   563.8    4.125      55.482
2015    2       21    15   5    5.6334   563.7    4.122      55.434
2015    2       21    15  10    5.6291   563.6    4.120      55.386
2015    2       21    15  15    5.6249   563.6    4.118      55.339
2015    2       21    15  21    5.6205   563.5    4.116      55.293
2015    2       21    15  26    5.6165   563.4    4.114      55.247
2015    2       21    15  31    5.6121   563.3    4.112      55.203
2015    2       21    15  36    5.6082   563.3    4.110      55.159
2015    2       21    15  41    5.6041   563.2    4.108      55.116
2015    2       21    15  47    5.6001   563.1    4.107      55.073
2015    2       21    15  52    5.5961   563.0    4.105      55.031
2015    2       21    15  57    5.5921   562.9    4.103      54.989
2015    2       21    16   2    5.5884   562.9    4.102      54.947
2015    2       21    16   7    5.5844   562.8    4.100      54.906
2015    2       21    16  13    5.5807   562.7    4.099      54.865
2015    2       21    16  18    5.5768   562.6    4.097      54.824
2015    2       21    16  23    5.5731   562.5    4.096      54.783
2015    2       21    16  28    5.5696   562.5    4.095      54.742
2015    2       21    16  33    5.5659   562.4    4.093      54.702
2015    2       21    16  39    5.5624   562.3    4.092      54.662
2015    2       21    16  44    5.5587   562.2    4.091      54.621
2015    2       21    16  49    5.5552   562.1    4.090      54.581
2015    2       21    16  54    5.5517   562.0    4.088      54.540
2015    2       21    16  59    5.5484   562.0    4.087      54.500
2015    2       21    17   5    5.5450   561.9    4.086      54.460
2015    2       21    17  10    5.5415   561.8    4.085      54.419
2015    2       21    17  15    5.5380   561.7    4.084      54.379
2015    2       21    17  20    5.5345   561.6    4.083      54.339
2015    2       21    17  25    5.5312   561.6    4.082      54.299
2015    2       21    17  31    5.5277   561.5    4.081      54.259
2015    2       21    17  36    5.5243   561.4    4.080      54.219
2015    2       21    17  41    5.5207   561.3    4.079      54.180
2015    2       21    17  46    5.5174   561.2    4.078      54.140
2015    2       21    17  51    5.5137   561.2    4.077      54.101
2015    2       21    17  57    5.5102   561.1    4.076      54.062
2015    2       21    18   2    5.5066   561.0    4.075      54.023
2015    2       21    18   7    5.5032   560.9    4.075      53.984
2015    2       21    18  12    5.4995   560.9    4.074      53.946
2015    2       21    18  17    5.4960   560.8    4.073      53.907
2015    2       21    18  23    5.4922   560.7    4.072      53.867
2015    2       21    18  28    5.4887   560.6    4.071      53.828
2015    2       21    18  33    5.4849   560.6    4.070      53.788
2015    2       21    18  38    5.4814   560.5    4.069      53.748
2015    2       21    18  43    5.4777   560.4    4.068      53.707
2015    2       21    18  49    5.4740   560.3    4.067      53.666
2015    2       21    18  54    5.4702   560.2    4.066      53.624
2015    2       21    18  59    5.4665   560.2    4.065      53.582
2015    2       21    19   4    5.4628   560.1    4.064      53.539
2015    2       21    19   9    5.4589   560.0    4.062      53.496
2015    2       21    19  15    5.4553   559.9    4.061      53.452
2015    2       21    19  20    5.4516   559.8    4.059      53.408
2015    2       21    19  25    5.4478   559.7    4.058      53.363
2015    2       21    19  30    5.4441   559.6    4.056      53.318
2015    2       21    19  35    5.4403   559.6    4.055      53.272
2015    2       21    19  41    5.4364   559.5    4.053      53.226
2015    2       21    19  46    5.4328   559.4    4.051      53.180
2015    2       21    19  51    5.4291   559.3    4.050      53.133
2015    2       21    19  56    5.4254   559.2    4.048      53.085
2015    2       21    20   1    5.4215   559.1    4.046      53.038
2015    2       21    20   7    5.4180   559.0    4.044      52.990
2015    2       21    20  12    5.4143   558.9    4.042      52.942
2015    2       21    20  17    5.4104   558.8    4.040      52.893
2015    2       21    20  22    5.4067   558.7    4.038      52.844
2015    2       21    20  27    5.4033   558.6    4.036      52.795
2015    2       21    20  33    5.3994   558.5    4.034      52.746
2015    2       21    20  38    5.3958   558.4    4.032      52.697
2015    2       21    20  43    5.3922   558.3    4.030      52.647
2015    2       21    20  48    5.3888   558.2    4.028      52.598
2015    2       21    20  53    5.3853   558.1    4.025      52.548
2015    2       21    20  59    5.3817   558.0    4.023      52.498
2015    2       21    21   4    5.3783   557.9    4.021      52.448
2015    2       21    21   9    5.3748   557.8    4.019      52.398
2015    2       21    21  14    5.3711   557.7    4.017      52.348
2015    2       21    21  19    5.3679   557.6    4.014      52.298
2015    2       21    21  25    5.3645   557.4    4.012      52.248
2015    2       21    21  30    5.3612   557.3    4.010      52.198
2015    2       21    21  35    5.3579   557.2    4.008      52.148
2015    2       21    21  40    5.3544   557.1    4.005      52.098
2015    2       21    21  45    5.3511   557.0    4.003      52.048
2015    2       21    21  51    5.3481   556.9    4.001      51.999
2015    2       21    21  56    5.3447   556.7    3.999      51.949
2015    2       21    22   1    5.3418   556.6    3.996      51.900
2015    2       21    22   6    5.3385   556.5    3.994      51.850
2015    2       21    22  11    5.3356   556.4    3.992      51.801
2015    2       21    22  17    5.3323   556.3    3.990      51.751
2015    2       21    22  22    5.3293   556.1    3.987      51.702
2015    2       21    22  27    5.3264   556.0    3.985      51.653
2015    2       21    22  32    5.3234   555.9    3.983      51.604
2015    2       21    22  37    5.3208   555.8    3.981      51.555
2015    2       21    22  43    5.3179   555.6    3.979      51.507
2015    2       21    22  48    5.3151   555.5    3.977      51.458
2015    2       21    22  53    5.3121   555.4    3.975      51.410
2015    2       21    22  58    5.3095   555.3    3.973      51.361
2015    2       21    23   3    5.3067   555.1    3.971      51.313
2015    2       21    23   9    5.3038   555.0    3.969      51.265
2015    2       21    23  14    5.3013   554.9    3.967      51.218
2015    2       21    23  19    5.2986   554.7    3.965      51.170
2015    2       21    23  24    5.2958   554.6    3.964      51.123
2015    2       21    23  29    5.2934   554.5    3.962      51.076
2015    2       21    23  35    5.2906   554.3    3.960      51.029
2015    2       21    23  40    5.2882   554.2    3.959      50.983
2015    2       21    23  45    5.2855   554.1    3.957      50.937
2015    2       21    23  50    5.2831   553.9    3.956      50.891
2015    2       21    23  55    5.2806   553.8    3.954      50.845
2015    2       22     0   1    5.2781   553.7    3.953      50.800
2015    2       22     0   6    5.2755   553.6    3.952      50.756
2015    2       22     0  11    5.2732   553.4    3.950      50.711
2015    2       22     0  16    5.2706   553.3    3.949      50.667
2015    2       22     0  21    5.2683   553.2    3.948      50.624
2015    2       22     0  27    5.2659   553.0    3.947      50.581
2015    2       22     0  32    5.2635   552.9    3.946      50.538
2015    2       22     0  37    5.2610   552.8    3.945      50.496
2015    2       22     0  42    5.2586   552.7    3.944      50.454
2015    2       22     0  47    5.2561   552.5    3.944      50.413
2015    2       22     0  53    5.2537   552.4    3.943      50.372
2015    2       22     0  58    5.2512   552.3    3.943      50.331
2015    2       22     1   3    5.2487   552.2    3.942      50.291
2015    2       22     1   8    5.2461   552.0    3.942      50.251
2015    2       22     1  13    5.2436   551.9    3.941      50.212
2015    2       22     1  19    5.2410   551.8    3.941      50.173
2015    2       22     1  24    5.2385   551.7    3.941      50.135
2015    2       22     1  29    5.2358   551.6    3.941      50.097
2015    2       22     1  34    5.2332   551.4    3.941      50.060
2015    2       22     1  39    5.2305   551.3    3.941      50.022
2015    2       22     1  45    5.2278   551.2    3.941      49.984
2015    2       22     1  50    5.2251   551.1    3.941      49.947
2015    2       22     1  55    5.2223   551.0    3.941      49.909
2015    2       22     2   0    5.2196   550.8    3.941      49.871
2015    2       22     2   5    5.2169   550.7    3.941      49.833
2015    2       22     2  11    5.2141   550.6    3.941      49.795
2015    2       22     2  16    5.2113   550.5    3.941      49.756
2015    2       22     2  21    5.2085   550.3    3.941      49.717
2015    2       22     2  26    5.2057   550.2    3.941      49.678
2015    2       22     2  31    5.2029   550.1    3.941      49.639
2015    2       22     2  37    5.2001   550.0    3.941      49.599
2015    2       22     2  42    5.1973   549.8    3.941      49.559
2015    2       22     2  47    5.1945   549.7    3.941      49.519
2015    2       22     2  52    5.1917   549.5    3.942      49.479
2015    2       22     2  57    5.1889   549.4    3.942      49.439
2015    2       22     3   3    5.1861   549.3    3.942      49.399
2015    2       22     3   8    5.1833   549.1    3.942      49.359
2015    2       22     3  13    5.1805   549.0    3.943      49.319
2015    2       22     3  18    5.1778   548.9    3.943      49.280
2015    2       22     3  23    5.1751   548.7    3.944      49.240
2015    2       22     3  29    5.1724   548.6    3.944      49.201
2015    2       22     3  34    5.1696   548.4    3.945      49.163
2015    2       22     3  39    5.1670   548.3    3.945      49.124
2015    2       22     3  44    5.1643   548.1    3.946      49.086
2015    2       22     3  49    5.1617   548.0    3.947      49.048
2015    2       22     3  55    5.1591   547.8    3.948      49.011
2015    2       22     4   0    5.1566   547.7    3.949      48.974
2015    2       22     4   5    5.1540   547.5    3.950      48.938
2015    2       22     4  10    5.1515   547.4    3.951      48.902
2015    2       22     4  15    5.1490   547.2    3.952      48.867
2015    2       22     4  21    5.1465   547.1    3.953      48.833
2015    2       22     4  26    5.1441   546.9    3.954      48.799
2015    2       22     4  31    5.1418   546.8    3.955      48.766
2015    2       22     4  36    5.1394   546.6    3.956      48.733
2015    2       22     4  41    5.1371   546.5    3.957      48.700
2015    2       22     4  47    5.1348   546.3    3.959      48.667
2015    2       22     4  52    5.1325   546.2    3.959      48.635
2015    2       22     4  57    5.1302   546.0    3.960      48.603
2015    2       22     5   2    5.1281   545.9    3.961      48.570
2015    2       22     5   7    5.1258   545.7    3.962      48.538
2015    2       22     5  13    5.1237   545.6    3.963      48.506
2015    2       22     5  18    5.1216   545.4    3.963      48.474
2015    2       22     5  23    5.1194   545.3    3.964      48.441
2015    2       22     5  28    5.1174   545.1    3.964      48.408
2015    2       22     5  33    5.1152   545.0    3.965      48.375
2015    2       22     5  39    5.1133   544.8    3.965      48.341
2015    2       22     5  44    5.1112   544.7    3.965      48.307
2015    2       22     5  49    5.1091   544.5    3.965      48.272
2015    2       22     5  54    5.1072   544.4    3.965      48.237
2015    2       22     5  59    5.1052   544.2    3.965      48.201
2015    2       22     6   5    5.1032   544.1    3.965      48.165
2015    2       22     6  10    5.1013   543.9    3.964      48.129
2015    2       22     6  15    5.0994   543.8    3.964      48.092
2015    2       22     6  20    5.0974   543.7    3.964      48.054
2015    2       22     6  25    5.0953   543.5    3.963      48.016
2015    2       22     6  31    5.0935   543.4    3.963      47.977
2015    2       22     6  36    5.0915   543.2    3.962      47.938
2015    2       22     6  41    5.0895   543.1    3.961      47.898
2015    2       22     6  46    5.0876   542.9    3.960      47.858
2015    2       22     6  51    5.0857   542.8    3.960      47.818
2015    2       22     6  57    5.0838   542.6    3.959      47.777
2015    2       22     7   2    5.0819   542.5    3.958      47.735
2015    2       22     7   7    5.0800   542.3    3.957      47.694
2015    2       22     7  12    5.0781   542.2    3.956      47.651
2015    2       22     7  17    5.0762   542.0    3.955      47.608
2015    2       22     7  23    5.0743   541.9    3.953      47.565
2015    2       22     7  28    5.0723   541.7    3.952      47.522
2015    2       22     7  33    5.0705   541.6    3.951      47.477
2015    2       22     7  38    5.0685   541.4    3.950      47.433
2015    2       22     7  43    5.0667   541.3    3.948      47.388
2015    2       22     7  49    5.0646   541.1    3.947      47.343
2015    2       22     7  54    5.0628   541.0    3.946      47.298
2015    2       22     7  59    5.0608   540.8    3.944      47.252
2015    2       22     8   4    5.0590   540.7    3.943      47.206
2015    2       22     8   9    5.0570   540.5    3.941      47.159
2015    2       22     8  15    5.0551   540.4    3.940      47.112
2015    2       22     8  20    5.0531   540.2    3.938      47.066
2015    2       22     8  25    5.0514   540.1    3.937      47.018
2015    2       22     8  30    5.0494   539.9    3.935      46.971
2015    2       22     8  35    5.0475   539.7    3.934      46.923
2015    2       22     8  41    5.0455   539.6    3.932      46.876
2015    2       22     8  46    5.0435   539.4    3.931      46.828
2015    2       22     8  51    5.0416   539.3    3.929      46.779
2015    2       22     8  56    5.0397   539.1    3.928      46.731
2015    2       22     9   1    5.0379   539.0    3.927      46.683
2015    2       22     9   7    5.0360   538.8    3.925      46.634
2015    2       22     9  12    5.0339   538.7    3.924      46.586
2015    2       22     9  17    5.0321   538.5    3.922      46.537
2015    2       22     9  22    5.0302   538.3    3.921      46.488
2015    2       22     9  27    5.0281   538.2    3.920      46.439
2015    2       22     9  33    5.0263   538.0    3.918      46.391
2015    2       22     9  38    5.0243   537.9    3.917      46.342
2015    2       22     9  43    5.0225   537.7    3.916      46.293
2015    2       22     9  48    5.0205   537.5    3.915      46.245
2015    2       22     9  53    5.0187   537.4    3.914      46.196
2015    2       22     9  59    5.0166   537.2    3.913      46.148
2015    2       22    10   4    5.0147   537.0    3.912      46.099
2015    2       22    10   9    5.0128   536.9    3.911      46.051
2015    2       22    10  14    5.0109   536.7    3.910      46.004
2015    2       22    10  19    5.0091   536.5    3.909      45.956
2015    2       22    10  25    5.0072   536.4    3.909      45.909
2015    2       22    10  30    5.0053   536.2    3.908      45.862
2015    2       22    10  35    5.0035   536.0    3.908      45.816
2015    2       22    10  40    5.0015   535.8    3.907      45.770
2015    2       22    10  45    4.9997   535.7    3.907      45.725
2015    2       22    10  51    4.9980   535.5    3.907      45.680
2015    2       22    10  56    4.9962   535.3    3.907      45.637
2015    2       22    11   1    4.9944   535.1    3.907      45.593
2015    2       22    11   6    4.9926   535.0    3.907      45.551
2015    2       22    11  11    4.9909   534.8    3.908      45.510
2015    2       22    11  17    4.9891   534.6    3.909      45.469
2015    2       22    11  22    4.9874   534.4    3.909      45.429
2015    2       22    11  27    4.9857   534.3    3.910      45.390
2015    2       22    11  32    4.9841   534.1    3.911      45.353
2015    2       22    11  37    4.9825   533.9    3.913      45.316
2015    2       22    11  43    4.9809   533.7    3.914      45.281
2015    2       22    11  48    4.9793   533.5    3.916      45.247
2015    2       22    11  53    4.9777   533.4    3.917      45.214
2015    2       22    11  58    4.9762   533.2    3.919      45.182
2015    2       22    12   3    4.9747   533.0    3.921      45.151
2015    2       22    12   9    4.9732   532.8    3.922      45.121
2015    2       22    12  14    4.9718   532.6    3.924      45.092
2015    2       22    12  19    4.9703   532.5    3.926      45.063
2015    2       22    12  24    4.9689   532.3    3.928      45.035
2015    2       22    12  29    4.9676   532.1    3.931      45.007
2015    2       22    12  35    4.9661   531.9    3.933      44.980
2015    2       22    12  40    4.9648   531.8    3.935      44.954
2015    2       22    12  45    4.9634   531.6    3.937      44.928
2015    2       22    12  50    4.9621   531.4    3.939      44.901
2015    2       22    12  55    4.9608   531.2    3.941      44.875
2015    2       22    13   1    4.9595   531.0    3.944      44.849
2015    2       22    13   6    4.9582   530.9    3.946      44.823
2015    2       22    13  11    4.9569   530.7    3.948      44.797
2015    2       22    13  16    4.9555   530.5    3.950      44.770
2015    2       22    13  21    4.9542   530.3    3.952      44.744
2015    2       22    13  27    4.9529   530.2    3.954      44.717
2015    2       22    13  32    4.9516   530.0    3.956      44.690
2015    2       22    13  37    4.9502   529.8    3.958      44.663
2015    2       22    13  42    4.9489   529.6    3.960      44.635
2015    2       22    13  47    4.9475   529.5    3.962      44.607
2015    2       22    13  53    4.9461   529.3    3.964      44.579
2015    2       22    13  58    4.9448   529.1    3.966      44.550
2015    2       22    14   3    4.9434   528.9    3.968      44.521
2015    2       22    14   8    4.9420   528.7    3.970      44.491
2015    2       22    14  13    4.9406   528.6    3.971      44.461
2015    2       22    14  19    4.9391   528.4    3.973      44.431
2015    2       22    14  24    4.9377   528.2    3.974      44.400
2015    2       22    14  29    4.9363   528.0    3.976      44.368
2015    2       22    14  34    4.9348   527.8    3.977      44.336
2015    2       22    14  39    4.9334   527.6    3.978      44.304
2015    2       22    14  45    4.9320   527.5    3.980      44.271
2015    2       22    14  50    4.9305   527.3    3.981      44.238
2015    2       22    14  55    4.9291   527.1    3.982      44.204
2015    2       22    15   0    4.9277   526.9    3.983      44.170
2015    2       22    15   5    4.9263   526.7    3.984      44.136
2015    2       22    15  11    4.9249   526.5    3.985      44.102
2015    2       22    15  16    4.9235   526.3    3.986      44.067
2015    2       22    15  21    4.9222   526.1    3.987      44.032
2015    2       22    15  26    4.9208   525.9    3.988      43.997
2015    2       22    15  31    4.9195   525.8    3.989      43.961
2015    2       22    15  37    4.9182   525.6    3.989      43.926
2015    2       22    15  42    4.9168   525.4    3.990      43.890
2015    2       22    15  47    4.9156   525.2    3.991      43.854
2015    2       22    15  52    4.9143   525.0    3.992      43.818
2015    2       22    15  57    4.9131   524.8    3.992      43.782
2015    2       22    16   3    4.9118   524.6    3.993      43.745
2015    2       22    16   8    4.9106   524.4    3.994      43.709
2015    2       22    16  13    4.9094   524.2    3.994      43.673
2015    2       22    16  18    4.9083   524.0    3.995      43.636
2015    2       22    16  23    4.9071   523.8    3.996      43.600
2015    2       22    16  29    4.9060   523.6    3.996      43.564
2015    2       22    16  34    4.9048   523.4    3.997      43.527
2015    2       22    16  39    4.9038   523.3    3.997      43.491
2015    2       22    16  44    4.9026   523.1    3.998      43.454
2015    2       22    16  49    4.9016   522.9    3.999      43.418
2015    2       22    16  55    4.9005   522.7    3.999      43.382
2015    2       22    17   0    4.8995   522.5    4.000      43.346
2015    2       22    17   5    4.8984   522.3    4.000      43.309
2015    2       22    17  10    4.8975   522.1    4.001      43.273
2015    2       22    17  15    4.8965   521.9    4.001      43.237
2015    2       22    17  21    4.8955   521.7    4.002      43.200
2015    2       22    17  26    4.8945   521.5    4.002      43.164
2015    2       22    17  31    4.8936   521.3    4.003      43.127
2015    2       22    17  36    4.8926   521.1    4.003      43.091
2015    2       22    17  41    4.8916   520.9    4.003      43.054
2015    2       22    17  47    4.8907   520.7    4.004      43.017
2015    2       22    17  52    4.8897   520.5    4.004      42.979
2015    2       22    17  57    4.8888   520.3    4.005      42.942
2015    2       22    18   2    4.8879   520.1    4.005      42.904
2015    2       22    18   7    4.8869   519.9    4.005      42.866
2015    2       22    18  13    4.8860   519.7    4.006      42.828
2015    2       22    18  18    4.8852   519.5    4.006      42.790
2015    2       22    18  23    4.8843   519.3    4.006      42.751
2015    2       22    18  28    4.8834   519.1    4.007      42.712
2015    2       22    18  33    4.8825   518.9    4.007      42.674
2015    2       22    18  39    4.8817   518.6    4.008      42.635
2015    2       22    18  44    4.8808   518.4    4.008      42.596
2015    2       22    18  49    4.8800   518.2    4.009      42.557
2015    2       22    18  54    4.8792   518.0    4.009      42.518
2015    2       22    18  59    4.8783   517.8    4.010      42.479
2015    2       22    19   5    4.8776   517.6    4.011      42.441
2015    2       22    19  10    4.8769   517.4    4.011      42.402
2015    2       22    19  15    4.8760   517.2    4.012      42.364
2015    2       22    19  20    4.8754   517.0    4.013      42.325
2015    2       22    19  25    4.8745   516.8    4.014      42.288
2015    2       22    19  31    4.8738   516.5    4.015      42.250
2015    2       22    19  36    4.8732   516.3    4.016      42.213
2015    2       22    19  41    4.8724   516.1    4.017      42.176
2015    2       22    19  46    4.8719   515.9    4.018      42.139
2015    2       22    19  51    4.8712   515.7    4.020      42.103
2015    2       22    19  57    4.8705   515.5    4.021      42.066
2015    2       22    20   2    4.8700   515.3    4.023      42.031
2015    2       22    20   7    4.8693   515.1    4.025      41.996
2015    2       22    20  12    4.8688   514.8    4.026      41.961
2015    2       22    20  17    4.8682   514.6    4.028      41.926
2015    2       22    20  23    4.8676   514.4    4.030      41.892
2015    2       22    20  28    4.8671   514.2    4.032      41.858
2015    2       22    20  33    4.8665   514.0    4.034      41.824
2015    2       22    20  38    4.8660   513.8    4.037      41.791
2015    2       22    20  43    4.8654   513.6    4.039      41.758
2015    2       22    20  49    4.8650   513.3    4.041      41.725
2015    2       22    20  54    4.8645   513.1    4.044      41.693
2015    2       22    20  59    4.8639   512.9    4.047      41.660
2015    2       22    21   4    4.8634   512.7    4.049      41.628
2015    2       22    21   9    4.8629   512.5    4.052      41.596
2015    2       22    21  15    4.8624   512.3    4.055      41.565
2015    2       22    21  20    4.8619   512.0    4.057      41.533
2015    2       22    21  25    4.8614   511.8    4.060      41.502
2015    2       22    21  30    4.8610   511.6    4.063      41.471
2015    2       22    21  35    4.8604   511.4    4.066      41.440
2015    2       22    21  41    4.8600   511.1    4.069      41.409
2015    2       22    21  46    4.8595   510.9    4.072      41.378
2015    2       22    21  51    4.8590   510.7    4.075      41.348
2015    2       22    21  56    4.8587   510.5    4.079      41.317
2015    2       22    22   1    4.8583   510.2    4.082      41.287
2015    2       22    22   7    4.8579   510.0    4.085      41.257
2015    2       22    22  12    4.8575   509.8    4.088      41.228
2015    2       22    22  17    4.8572   509.5    4.092      41.198
2015    2       22    22  22    4.8569   509.3    4.095      41.169
2015    2       22    22  27    4.8566   509.1    4.099      41.140
2015    2       22    22  33    4.8563   508.8    4.102      41.112
2015    2       22    22  38    4.8561   508.6    4.106      41.084
2015    2       22    22  43    4.8559   508.3    4.109      41.056
2015    2       22    22  48    4.8558   508.1    4.113      41.028
2015    2       22    22  53    4.8557   507.9    4.117      41.001
2015    2       22    22  59    4.8556   507.6    4.121      40.974
2015    2       22    23   4    4.8556   507.4    4.124      40.947
2015    2       22    23   9    4.8556   507.2    4.128      40.921
2015    2       22    23  14    4.8556   506.9    4.132      40.895
2015    2       22    23  19    4.8557   506.7    4.136      40.869
2015    2       22    23  25    4.8558   506.4    4.141      40.844
2015    2       22    23  30    4.8560   506.2    4.145      40.819
2015    2       22    23  35    4.8562   506.0    4.149      40.794
2015    2       22    23  40    4.8565   505.7    4.153      40.770
2015    2       22    23  45    4.8568   505.5    4.158      40.746
2015    2       22    23  51    4.8571   505.3    4.162      40.722
2015    2       22    23  56    4.8575   505.0    4.166      40.698
2015    2       23     0   1    4.8580   504.8    4.171      40.675
2015    2       23     0   6    4.8584   504.5    4.175      40.652
2015    2       23     0  11    4.8589   504.3    4.180      40.630
2015    2       23     0  17    4.8594   504.1    4.185      40.608
2015    2       23     0  22    4.8600   503.8    4.189      40.586
2015    2       23     0  27    4.8607   503.6    4.194      40.564
2015    2       23     0  32    4.8613   503.4    4.199      40.543
2015    2       23     0  37    4.8620   503.1    4.203      40.522
2015    2       23     0  43    4.8627   502.9    4.208      40.502
2015    2       23     0  48    4.8635   502.7    4.213      40.481
2015    2       23     0  53    4.8644   502.4    4.218      40.461
2015    2       23     0  58    4.8652   502.2    4.223      40.441
2015    2       23     1   3    4.8661   502.0    4.227      40.422
2015    2       23     1   9    4.8669   501.7    4.232      40.402
2015    2       23     1  14    4.8680   501.5    4.237      40.383
2015    2       23     1  19    4.8688   501.3    4.242      40.363
2015    2       23     1  24    4.8700   501.0    4.247      40.344
2015    2       23     1  29    4.8710   500.8    4.252      40.325
2015    2       23     1  35    4.8721   500.6    4.257      40.306
2015    2       23     1  40    4.8733   500.3    4.262      40.287
2015    2       23     1  45    4.8744   500.1    4.267      40.267
2015    2       23     1  50    4.8756   499.9    4.272      40.248
2015    2       23     1  55    4.8768   499.6    4.277      40.230
2015    2       23     2   1    4.8781   499.4    4.283      40.211
2015    2       23     2   6    4.8794   499.2    4.288      40.192
2015    2       23     2  11    4.8807   498.9    4.293      40.173
2015    2       23     2  16    4.8821   498.7    4.298      40.154
2015    2       23     2  21    4.8834   498.5    4.304      40.135
2015    2       23     2  27    4.8848   498.2    4.309      40.116
2015    2       23     2  32    4.8863   498.0    4.315      40.097
2015    2       23     2  37    4.8877   497.8    4.320      40.078
2015    2       23     2  42    4.8889   497.6    4.325      40.060
2015    2       23     2  47    4.8906   497.3    4.331      40.041
2015    2       23     2  53    4.8919   497.1    4.336      40.023
2015    2       23     2  58    4.8936   496.9    4.342      40.005
2015    2       23     3   3    4.8952   496.7    4.347      39.986
2015    2       23     3   8    4.8967   496.4    4.353      39.968
2015    2       23     3  13    4.8983   496.2    4.358      39.951
2015    2       23     3  19    4.8998   496.0    4.364      39.934
2015    2       23     3  24    4.9014   495.8    4.369      39.917
2015    2       23     3  29    4.9030   495.6    4.375      39.900
2015    2       23     3  34    4.9047   495.3    4.380      39.883
2015    2       23     3  39    4.9063   495.1    4.385      39.867
2015    2       23     3  45    4.9080   494.9    4.391      39.851
2015    2       23     3  50    4.9097   494.7    4.396      39.834
2015    2       23     3  55    4.9114   494.5    4.401      39.819
2015    2       23     4   0    4.9131   494.2    4.407      39.803
2015    2       23     4   5    4.9149   494.0    4.412      39.787
2015    2       23     4  11    4.9167   493.8    4.417      39.772
2015    2       23     4  16    4.9185   493.6    4.423      39.756
2015    2       23     4  21    4.9203   493.4    4.428      39.741
2015    2       23     4  26    4.9222   493.2    4.433      39.725
2015    2       23     4  31    4.9241   492.9    4.439      39.710
2015    2       23     4  37    4.9260   492.7    4.444      39.695
2015    2       23     4  42    4.9280   492.5    4.449      39.680
2015    2       23     4  47    4.9296   492.3    4.455      39.665
2015    2       23     4  52    4.9319   492.1    4.460      39.650
2015    2       23     4  57    4.9340   491.9    4.466      39.635
2015    2       23     5   3    4.9360   491.7    4.471      39.620
2015    2       23     5   8    4.9379   491.5    4.477      39.605
2015    2       23     5  13    4.9400   491.3    4.482      39.591
2015    2       23     5  18    4.9425   491.1    4.488      39.576
2015    2       23     5  23    4.9443   490.9    4.493      39.562
2015    2       23     5  29    4.9469   490.6    4.499      39.548
2015    2       23     5  34    4.9489   490.4    4.505      39.534
2015    2       23     5  39    4.9515   490.2    4.510      39.520
2015    2       23     5  44    4.9538   490.0    4.516      39.507
2015    2       23     5  49    4.9562   489.8    4.522      39.494
2015    2       23     5  55    4.9586   489.6    4.528      39.481
2015    2       23     6   0    4.9611   489.4    4.534      39.468
2015    2       23     6   5    4.9636   489.2    4.540      39.455
2015    2       23     6  10    4.9658   489.0    4.546      39.443
2015    2       23     6  15    4.9687   488.8    4.552      39.430
2015    2       23     6  21    4.9710   488.6    4.559      39.419
2015    2       23     6  26    4.9740   488.4    4.565      39.407
2015    2       23     6  31    4.9767   488.2    4.571      39.395
2015    2       23     6  36    4.9795   488.0    4.578      39.384
2015    2       23     6  41    4.9823   487.8    4.585      39.373
2015    2       23     6  47    4.9852   487.6    4.591      39.363
2015    2       23     6  52    4.9881   487.5    4.598      39.353
2015    2       23     6  57    4.9910   487.3    4.605      39.343
2015    2       23     7   2    4.9937   487.1    4.612      39.333
2015    2       23     7   7    4.9967   486.9    4.619      39.324
2015    2       23     7  13    5.0002   486.7    4.626      39.315
2015    2       23     7  18    5.0033   486.5    4.633      39.307
2015    2       23     7  23    5.0065   486.3    4.641      39.299
2015    2       23     7  28    5.0098   486.1    4.648      39.291
2015    2       23     7  33    5.0131   485.9    4.655      39.284
2015    2       23     7  39    5.0165   485.7    4.663      39.278
2015    2       23     7  44    5.0199   485.6    4.671      39.271
2015    2       23     7  49    5.0233   485.4    4.679      39.266
2015    2       23     7  54    5.0269   485.2    4.687      39.261
2015    2       23     7  59    5.0304   485.0    4.695      39.256
2015    2       23     8   5    5.0341   484.8    4.703      39.252
2015    2       23     8  10    5.0377   484.7    4.711      39.248
2015    2       23     8  15    5.0415   484.5    4.719      39.245
2015    2       23     8  20    5.0452   484.3    4.728      39.243
2015    2       23     8  25    5.0491   484.1    4.736      39.241
2015    2       23     8  31    5.0529   484.0    4.745      39.240
2015    2       23     8  36    5.0569   483.8    4.754      39.240
2015    2       23     8  41    5.0608   483.6    4.762      39.240
2015    2       23     8  46    5.0648   483.5    4.771      39.242
2015    2       23     8  51    5.0689   483.3    4.780      39.244
2015    2       23     8  57    5.0729   483.2    4.789      39.247
2015    2       23     9   2    5.0770   483.0    4.798      39.250
2015    2       23     9   7    5.0812   482.8    4.807      39.254
2015    2       23     9  12    5.0854   482.7    4.816      39.259
2015    2       23     9  18    5.0896   482.5    4.825      39.264
2015    2       23     9  23    5.0938   482.4    4.835      39.269
2015    2       23     9  28    5.0980   482.2    4.844      39.275
2015    2       23     9  33    5.1023   482.1    4.853      39.282
2015    2       23     9  38    5.1066   481.9    4.862      39.288
2015    2       23     9  44    5.1109   481.8    4.871      39.295
2015    2       23     9  49    5.1152   481.6    4.881      39.302
2015    2       23     9  54    5.1195   481.5    4.890      39.310
2015    2       23     9  59    5.1235   481.4    4.899      39.317
2015    2       23    10   4    5.1282   481.2    4.908      39.325
2015    2       23    10  10    5.1326   481.1    4.917      39.334
2015    2       23    10  15    5.1366   480.9    4.927      39.342
2015    2       23    10  20    5.1413   480.8    4.936      39.351
2015    2       23    10  25    5.1457   480.7    4.945      39.360
2015    2       23    10  30    5.1501   480.5    4.954      39.370
2015    2       23    10  36    5.1545   480.4    4.963      39.379
2015    2       23    10  41    5.1590   480.3    4.972      39.389
2015    2       23    10  46    5.1634   480.1    4.981      39.399
2015    2       23    10  51    5.1676   480.0    4.990      39.409
2015    2       23    10  56    5.1724   479.9    4.999      39.420
2015    2       23    11   2    5.1767   479.7    5.007      39.431
2015    2       23    11   7    5.1812   479.6    5.016      39.441
2015    2       23    11  12    5.1861   479.5    5.025      39.453
2015    2       23    11  17    5.1907   479.4    5.034      39.465
2015    2       23    11  22    5.1954   479.2    5.042      39.477
2015    2       23    11  28    5.2001   479.1    5.051      39.490
2015    2       23    11  33    5.2045   479.0    5.059      39.503
2015    2       23    11  38    5.2092   478.9    5.068      39.516
2015    2       23    11  43    5.2143   478.8    5.076      39.529
2015    2       23    11  48    5.2191   478.6    5.084      39.542
2015    2       23    11  54    5.2239   478.5    5.092      39.555
2015    2       23    11  59    5.2287   478.4    5.101      39.568
2015    2       23    12   4    5.2333   478.3    5.109      39.582
2015    2       23    12   9    5.2385   478.2    5.116      39.595
2015    2       23    12  14    5.2433   478.1    5.124      39.608
2015    2       23    12  20    5.2479   478.0    5.132      39.620
2015    2       23    12  25    5.2531   477.9    5.140      39.633
2015    2       23    12  30    5.2580   477.8    5.147      39.646
2015    2       23    12  35    5.2629   477.7    5.154      39.658
2015    2       23    12  40    5.2678   477.6    5.162      39.669
2015    2       23    12  46    5.2725   477.5    5.169      39.681
2015    2       23    12  51    5.2774   477.4    5.176      39.692
2015    2       23    12  56    5.2826   477.3    5.183      39.703
2015    2       23    13   1    5.2876   477.2    5.190      39.713
2015    2       23    13   6    5.2925   477.1    5.198      39.724
2015    2       23    13  12    5.2972   477.0    5.204      39.734
2015    2       23    13  17    5.3025   476.9    5.211      39.745
2015    2       23    13  22    5.3074   476.8    5.218      39.755
2015    2       23    13  27    5.3124   476.7    5.225      39.765
2015    2       23    13  32    5.3175   476.6    5.232      39.775
2015    2       23    13  38    5.3225   476.5    5.239      39.785
2015    2       23    13  43    5.3275   476.4    5.246      39.795
2015    2       23    13  48    5.3326   476.3    5.253      39.806
2015    2       23    13  53    5.3374   476.3    5.260      39.816
2015    2       23    13  58    5.3428   476.2    5.267      39.827
2015    2       23    14   4    5.3479   476.1    5.274      39.838
2015    2       23    14   9    5.3531   476.0    5.281      39.849
2015    2       23    14  14    5.3583   475.9    5.288      39.860
2015    2       23    14  19    5.3635   475.9    5.295      39.872
2015    2       23    14  24    5.3687   475.8    5.302      39.884
2015    2       23    14  30    5.3740   475.7    5.310      39.897
2015    2       23    14  35    5.3793   475.6    5.317      39.910
2015    2       23    14  40    5.3846   475.6    5.325      39.923
2015    2       23    14  45    5.3898   475.5    5.332      39.937
2015    2       23    14  50    5.3954   475.4    5.340      39.952
2015    2       23    14  56    5.4009   475.3    5.348      39.967
2015    2       23    15   1    5.4062   475.3    5.356      39.983
2015    2       23    15   6    5.4117   475.2    5.364      39.999
2015    2       23    15  11    5.4174   475.2    5.372      40.016
2015    2       23    15  16    5.4230   475.1    5.381      40.034
2015    2       23    15  22    5.4287   475.0    5.389      40.053
2015    2       23    15  27    5.4342   475.0    5.398      40.073
2015    2       23    15  32    5.4401   474.9    5.407      40.094
2015    2       23    15  37    5.4458   474.9    5.416      40.116
2015    2       23    15  42    5.4516   474.9    5.424      40.139
2015    2       23    15  48    5.4573   474.8    5.433      40.163
2015    2       23    15  53    5.4630   474.8    5.442      40.188
2015    2       23    15  58    5.4688   474.7    5.451      40.213
2015    2       23    16   3    5.4747   474.7    5.460      40.239
2015    2       23    16   8    5.4804   474.7    5.469      40.266
2015    2       23    16  14    5.4863   474.7    5.478      40.293
2015    2       23    16  19    5.4921   474.6    5.487      40.321
2015    2       23    16  24    5.4979   474.6    5.496      40.349
2015    2       23    16  29    5.5037   474.6    5.505      40.377
2015    2       23    16  34    5.5093   474.6    5.513      40.406
2015    2       23    16  40    5.5152   474.5    5.522      40.434
2015    2       23    16  45    5.5208   474.5    5.530      40.462
2015    2       23    16  50    5.5267   474.5    5.539      40.490
2015    2       23    16  55    5.5323   474.5    5.547      40.518
2015    2       23    17   0    5.5380   474.5    5.556      40.546
2015    2       23    17   6    5.5439   474.4    5.564      40.574
2015    2       23    17  11    5.5495   474.4    5.573      40.601
2015    2       23    17  16    5.5554   474.4    5.581      40.629
2015    2       23    17  21    5.5610   474.4    5.589      40.657
2015    2       23    17  26    5.5670   474.3    5.598      40.684
2015    2       23    17  32    5.5728   474.3    5.606      40.712
2015    2       23    17  37    5.5786   474.3    5.615      40.739
2015    2       23    17  42    5.5843   474.3    5.624      40.768
2015    2       23    17  47    5.5904   474.2    5.633      40.796
2015    2       23    17  52    5.5963   474.2    5.642      40.825
2015    2       23    17  58    5.6023   474.2    5.651      40.853
2015    2       23    18   3    5.6083   474.1    5.661      40.883
2015    2       23    18   8    5.6144   474.1    5.670      40.913
2015    2       23    18  13    5.6206   474.1    5.680      40.946
2015    2       23    18  18    5.6269   474.1    5.690      40.979
2015    2       23    18  24    5.6331   474.1    5.700      41.014
2015    2       23    18  29    5.6395   474.0    5.710      41.050
2015    2       23    18  34    5.6459   474.0    5.720      41.088
2015    2       23    18  39    5.6523   474.0    5.730      41.126
2015    2       23    18  44    5.6589   474.0    5.740      41.165
2015    2       23    18  50    5.6654   474.0    5.750      41.204
2015    2       23    18  55    5.6718   474.0    5.760      41.244
2015    2       23    19   0    5.6783   474.0    5.769      41.283
2015    2       23    19   5    5.6848   474.0    5.778      41.322
2015    2       23    19  10    5.6912   474.1    5.787      41.361
2015    2       23    19  16    5.6976   474.1    5.796      41.401
2015    2       23    19  21    5.7038   474.1    5.804      41.439
2015    2       23    19  26    5.7102   474.1    5.812      41.477
2015    2       23    19  31    5.7165   474.2    5.820      41.513
2015    2       23    19  36    5.7227   474.2    5.827      41.548
2015    2       23    19  42    5.7289   474.2    5.834      41.582
2015    2       23    19  47    5.7350   474.2    5.841      41.615
2015    2       23    19  52    5.7411   474.3    5.847      41.647
2015    2       23    19  57    5.7472   474.3    5.853      41.677
2015    2       23    20   2    5.7532   474.3    5.859      41.706
2015    2       23    20   8    5.7592   474.4    5.864      41.735
2015    2       23    20  13    5.7651   474.4    5.870      41.763
2015    2       23    20  18    5.7710   474.4    5.875      41.789
2015    2       23    20  23    5.7768   474.4    5.880      41.815
2015    2       23    20  28    5.7828   474.5    5.885      41.841
2015    2       23    20  34    5.7887   474.5    5.889      41.865
2015    2       23    20  39    5.7945   474.5    5.894      41.889
2015    2       23    20  44    5.8003   474.6    5.898      41.913
2015    2       23    20  49    5.8061   474.6    5.902      41.936
2015    2       23    20  54    5.8120   474.6    5.906      41.959
2015    2       23    21   0    5.8178   474.6    5.910      41.981
2015    2       23    21   5    5.8235   474.7    5.914      42.004
2015    2       23    21  10    5.8293   474.7    5.918      42.026
2015    2       23    21  15    5.8351   474.7    5.922      42.047
2015    2       23    21  20    5.8409   474.7    5.926      42.069
2015    2       23    21  26    5.8467   474.7    5.929      42.091
2015    2       23    21  31    5.8525   474.8    5.933      42.113
2015    2       23    21  36    5.8583   474.8    5.937      42.135
2015    2       23    21  41    5.8641   474.8    5.941      42.157
2015    2       23    21  46    5.8700   474.8    5.945      42.179
2015    2       23    21  52    5.8758   474.8    5.949      42.201
2015    2       23    21  57    5.8816   474.9    5.953      42.224
2015    2       23    22   2    5.8875   474.9    5.957      42.247
2015    2       23    22   7    5.8933   474.9    5.961      42.270
2015    2       23    22  12    5.8992   474.9    5.965      42.294
2015    2       23    22  18    5.9051   475.0    5.969      42.319
2015    2       23    22  23    5.9111   475.0    5.974      42.344
2015    2       23    22  28    5.9170   475.0    5.978      42.369
2015    2       23    22  33    5.9230   475.0    5.983      42.396
2015    2       23    22  38    5.9290   475.1    5.988      42.424
2015    2       23    22  44    5.9350   475.1    5.993      42.452
2015    2       23    22  49    5.9412   475.1    5.998      42.482
2015    2       23    22  54    5.9472   475.2    6.003      42.513
2015    2       23    22  59    5.9534   475.2    6.009      42.544
2015    2       23    23   4    5.9595   475.3    6.014      42.577
2015    2       23    23  10    5.9655   475.3    6.020      42.611
2015    2       23    23  15    5.9717   475.4    6.026      42.645
2015    2       23    23  20    5.9777   475.4    6.031      42.681
2015    2       23    23  25    5.9839   475.5    6.037      42.717
2015    2       23    23  30    5.9900   475.5    6.043      42.755
2015    2       23    23  36    5.9961   475.6    6.049      42.794
2015    2       23    23  41    6.0022   475.7    6.055      42.834
2015    2       23    23  46    6.0084   475.7    6.061      42.874
2015    2       23    23  51    6.0145   475.8    6.067      42.915
2015    2       23    23  56    6.0207   475.9    6.074      42.956
2015    2       24     0   2    6.0268   476.0    6.080      42.998
2015    2       24     0   7    6.0329   476.0    6.086      43.041
2015    2       24     0  12    6.0388   476.1    6.092      43.084
2015    2       24     0  17    6.0449   476.2    6.098      43.128
2015    2       24     0  22    6.0510   476.2    6.105      43.173
2015    2       24     0  28    6.0571   476.3    6.111      43.218
2015    2       24     0  33    6.0633   476.4    6.117      43.263
2015    2       24     0  38    6.0693   476.5    6.124      43.309
2015    2       24     0  43    6.0754   476.5    6.131      43.355
2015    2       24     0  48    6.0815   476.6    6.138      43.402
2015    2       24     0  54    6.0877   476.7    6.145      43.450
2015    2       24     0  59    6.0938   476.7    6.152      43.499
2015    2       24     1   4    6.1000   476.8    6.159      43.548
2015    2       24     1   9    6.1064   476.9    6.167      43.598
2015    2       24     1  14    6.1124   477.0    6.175      43.648
2015    2       24     1  20    6.1187   477.0    6.183      43.701
2015    2       24     1  25    6.1250   477.1    6.191      43.755
2015    2       24     1  30    6.1313   477.2    6.200      43.810
2015    2       24     1  35    6.1376   477.3    6.209      43.867
2015    2       24     1  40    6.1439   477.4    6.217      43.925
2015    2       24     1  46    6.1502   477.5    6.226      43.983
2015    2       24     1  51    6.1565   477.6    6.235      44.043
2015    2       24     1  56    6.1630   477.7    6.244      44.104
2015    2       24     2   1    6.1691   477.8    6.253      44.165
2015    2       24     2   6    6.1753   477.9    6.262      44.226
2015    2       24     2  12    6.1816   478.0    6.271      44.287
2015    2       24     2  17    6.1879   478.1    6.280      44.348
2015    2       24     2  22    6.1939   478.2    6.288      44.410
2015    2       24     2  27    6.2000   478.4    6.297      44.471
2015    2       24     2  32    6.2061   478.5    6.305      44.533
2015    2       24     2  38    6.2121   478.6    6.313      44.593
2015    2       24     2  43    6.2180   478.7    6.320      44.653
2015    2       24     2  48    6.2239   478.9    6.328      44.712
2015    2       24     2  53    6.2298   479.0    6.335      44.770
2015    2       24     2  58    6.2356   479.1    6.342      44.827
2015    2       24     3   4    6.2415   479.3    6.349      44.884
2015    2       24     3   9    6.2473   479.4    6.356      44.941
2015    2       24     3  14    6.2530   479.6    6.363      44.997
2015    2       24     3  19    6.2587   479.7    6.369      45.054
2015    2       24     3  24    6.2644   479.8    6.376      45.111
2015    2       24     3  30    6.2702   480.0    6.382      45.168
2015    2       24     3  35    6.2758   480.1    6.388      45.226
2015    2       24     3  40    6.2816   480.3    6.393      45.283
2015    2       24     3  45    6.2873   480.4    6.399      45.340
2015    2       24     3  50    6.2930   480.6    6.404      45.397
2015    2       24     3  56    6.2988   480.7    6.409      45.453
2015    2       24     4   1    6.3045   480.8    6.413      45.510
2015    2       24     4   6    6.3103   481.0    6.418      45.566
2015    2       24     4  11    6.3161   481.1    6.422      45.622
2015    2       24     4  16    6.3219   481.3    6.426      45.678
2015    2       24     4  22    6.3277   481.4    6.430      45.733
2015    2       24     4  27    6.3335   481.6    6.433      45.788
2015    2       24     4  32    6.3394   481.7    6.436      45.842
2015    2       24     4  37    6.3452   481.9    6.439      45.895
2015    2       24     4  42    6.3511   482.0    6.442      45.947
2015    2       24     4  48    6.3569   482.2    6.445      45.999
2015    2       24     4  53    6.3628   482.3    6.447      46.050
2015    2       24     4  58    6.3685   482.5    6.449      46.100
2015    2       24     5   3    6.3744   482.6    6.451      46.150
2015    2       24     5   8    6.3802   482.8    6.452      46.199
2015    2       24     5  14    6.3860   482.9    6.454      46.247
2015    2       24     5  19    6.3917   483.1    6.455      46.294
2015    2       24     5  24    6.3975   483.2    6.456      46.340
2015    2       24     5  29    6.4032   483.4    6.456      46.386
2015    2       24     5  34    6.4089   483.5    6.457      46.431
2015    2       24     5  40    6.4147   483.7    6.457      46.475
2015    2       24     5  45    6.4203   483.9    6.457      46.519
2015    2       24     5  50    6.4259   484.0    6.457      46.561
2015    2       24     5  55    6.4315   484.2    6.457      46.603
2015    2       24     6   0    6.4371   484.3    6.457      46.644
2015    2       24     6   6    6.4425   484.5    6.457      46.685
2015    2       24     6  11    6.4481   484.6    6.456      46.724
2015    2       24     6  16    6.4536   484.8    6.456      46.764
2015    2       24     6  21    6.4590   484.9    6.456      46.802
2015    2       24     6  26    6.4643   485.1    6.455      46.841
2015    2       24     6  32    6.4697   485.2    6.454      46.879
2015    2       24     6  37    6.4750   485.4    6.454      46.917
2015    2       24     6  42    6.4803   485.6    6.453      46.955
2015    2       24     6  47    6.4855   485.7    6.452      46.992
2015    2       24     6  52    6.4907   485.9    6.451      47.030
2015    2       24     6  58    6.4958   486.0    6.450      47.067
2015    2       24     7   3    6.5010   486.2    6.450      47.104
2015    2       24     7   8    6.5060   486.3    6.449      47.141
2015    2       24     7  13    6.5111   486.5    6.448      47.178
2015    2       24     7  18    6.5161   486.7    6.447      47.215
2015    2       24     7  24    6.5211   486.8    6.445      47.252
2015    2       24     7  29    6.5260   487.0    6.444      47.288
2015    2       24     7  34    6.5310   487.1    6.443      47.325
2015    2       24     7  39    6.5359   487.3    6.442      47.362
2015    2       24     7  44    6.5407   487.5    6.441      47.399
2015    2       24     7  50    6.5457   487.6    6.440      47.436
2015    2       24     7  55    6.5504   487.8    6.439      47.474
2015    2       24     8   0    6.5552   487.9    6.438      47.511
2015    2       24     8   5    6.5600   488.1    6.437      47.549
2015    2       24     8  10    6.5647   488.2    6.436      47.588
2015    2       24     8  16    6.5695   488.4    6.436      47.627
2015    2       24     8  21    6.5742   488.6    6.435      47.667
2015    2       24     8  26    6.5790   488.7    6.435      47.707
2015    2       24     8  31    6.5837   488.9    6.434      47.748
2015    2       24     8  36    6.5884   489.0    6.434      47.791
2015    2       24     8  42    6.5931   489.2    6.434      47.833
2015    2       24     8  47    6.5980   489.3    6.434      47.877
2015    2       24     8  52    6.6025   489.5    6.434      47.922
2015    2       24     8  57    6.6075   489.7    6.435      47.967
2015    2       24     9   2    6.6120   489.8    6.435      48.014
2015    2       24     9   8    6.6170   490.0    6.436      48.061
2015    2       24     9  13    6.6215   490.2    6.437      48.109
2015    2       24     9  18    6.6265   490.4    6.438      48.159
2015    2       24     9  23    6.6311   490.5    6.439      48.210
2015    2       24     9  28    6.6359   490.7    6.441      48.261
2015    2       24     9  34    6.6408   490.9    6.442      48.314
2015    2       24     9  39    6.6456   491.1    6.444      48.367
2015    2       24     9  44    6.6505   491.2    6.446      48.420
2015    2       24     9  49    6.6554   491.4    6.448      48.475
2015    2       24     9  54    6.6603   491.6    6.450      48.529
2015    2       24    10   0    6.6652   491.8    6.452      48.584
2015    2       24    10   5    6.6701   492.0    6.454      48.639
2015    2       24    10  10    6.6753   492.2    6.457      48.695
2015    2       24    10  15    6.6802   492.4    6.460      48.751
2015    2       24    10  20    6.6848   492.6    6.463      48.808
2015    2       24    10  26    6.6900   492.8    6.466      48.867
2015    2       24    10  31    6.6947   493.0    6.469      48.926
2015    2       24    10  36    6.6996   493.2    6.472      48.986
2015    2       24    10  41    6.7046   493.3    6.475      49.047
2015    2       24    10  46    6.7099   493.5    6.479      49.108
2015    2       24    10  52    6.7147   493.7    6.482      49.172
2015    2       24    10  57    6.7197   493.9    6.486      49.236
2015    2       24    11   2    6.7249   494.1    6.490      49.301
2015    2       24    11   7    6.7303   494.3    6.495      49.368
2015    2       24    11  12    6.7352   494.5    6.499      49.437
2015    2       24    11  18    6.7405   494.7    6.504      49.507
2015    2       24    11  23    6.7459   495.0    6.509      49.579
2015    2       24    11  28    6.7513   495.2    6.514      49.653
2015    2       24    11  33    6.7571   495.4    6.520      49.728
2015    2       24    11  38    6.7624   495.6    6.526      49.805
2015    2       24    11  44    6.7683   495.8    6.532      49.885
2015    2       24    11  49    6.7738   496.0    6.539      49.968
2015    2       24    11  54    6.7797   496.2    6.546      50.054
2015    2       24    11  59    6.7857   496.5    6.553      50.142
2015    2       24    12   4    6.7917   496.7    6.561      50.233
2015    2       24    12  10    6.7978   496.9    6.569      50.329
2015    2       24    12  15    6.8041   497.2    6.577      50.430
2015    2       24    12  20    6.8101   497.4    6.586      50.535
2015    2       24    12  25    6.8164   497.7    6.594      50.644
2015    2       24    12  30    6.8224   498.0    6.602      50.755
2015    2       24    12  36    6.8284   498.3    6.611      50.870
2015    2       24    12  41    6.8345   498.6    6.619      50.987
2015    2       24    12  46    6.8405   498.9    6.626      51.106
2015    2       24    12  51    6.8464   499.2    6.634      51.226
2015    2       24    12  56    6.8521   499.5    6.640      51.346
2015    2       24    13   2    6.8578   499.8    6.647      51.465
2015    2       24    13   7    6.8634   500.2    6.652      51.582
2015    2       24    13  12    6.8688   500.5    6.658      51.699
2015    2       24    13  17    6.8740   500.8    6.662      51.816
2015    2       24    13  22    6.8791   501.2    6.666      51.931
2015    2       24    13  28    6.8841   501.5    6.669      52.043
2015    2       24    13  33    6.8889   501.9    6.671      52.152
2015    2       24    13  38    6.8935   502.2    6.672      52.257
2015    2       24    13  43    6.8980   502.5    6.673      52.359
2015    2       24    13  48    6.9025   502.9    6.674      52.458
2015    2       24    13  54    6.9067   503.2    6.673      52.554
2015    2       24    13  59    6.9108   503.6    6.672      52.647
2015    2       24    14   4    6.9148   503.9    6.670      52.736
2015    2       24    14   9    6.9186   504.3    6.668      52.822
2015    2       24    14  14    6.9224   504.6    6.665      52.905
2015    2       24    14  20    6.9260   505.0    6.662      52.985
2015    2       24    14  25    6.9295   505.3    6.658      53.062
2015    2       24    14  30    6.9329   505.6    6.653      53.136
2015    2       24    14  35    6.9363   506.0    6.648      53.207
2015    2       24    14  40    6.9395   506.3    6.643      53.276
2015    2       24    14  46    6.9427   506.6    6.637      53.342
2015    2       24    14  51    6.9458   507.0    6.631      53.405
2015    2       24    14  56    6.9488   507.3    6.624      53.465
2015    2       24    15   1    6.9517   507.6    6.617      53.524
2015    2       24    15   6    6.9545   508.0    6.610      53.580
2015    2       24    15  12    6.9573   508.3    6.602      53.633
2015    2       24    15  17    6.9601   508.6    6.594      53.685
2015    2       24    15  22    6.9627   509.0    6.585      53.736
2015    2       24    15  27    6.9654   509.3    6.577      53.784
2015    2       24    15  32    6.9680   509.6    6.568      53.830
2015    2       24    15  38    6.9706   509.9    6.559      53.875
2015    2       24    15  43    6.9731   510.2    6.550      53.918
2015    2       24    15  48    6.9757   510.6    6.540      53.960
2015    2       24    15  53    6.9783   510.9    6.531      54.001
2015    2       24    15  58    6.9809   511.2    6.522      54.041
2015    2       24    16   4    6.9835   511.5    6.513      54.082
2015    2       24    16   9    6.9862   511.8    6.504      54.122
2015    2       24    16  14    6.9889   512.1    6.495      54.163
2015    2       24    16  19    6.9917   512.4    6.486      54.205
2015    2       24    16  24    6.9946   512.7    6.478      54.248
2015    2       24    16  30    6.9977   513.0    6.470      54.293
2015    2       24    16  35    7.0007   513.3    6.462      54.340
2015    2       24    16  40    7.0040   513.7    6.454      54.391
2015    2       24    16  45    7.0073   514.0    6.447      54.444
2015    2       24    16  50    7.0107   514.4    6.440      54.499
2015    2       24    16  56    7.0141   514.7    6.434      54.556
2015    2       24    17   1    7.0177   515.1    6.427      54.615
2015    2       24    17   6    7.0214   515.4    6.421      54.676
2015    2       24    17  11    7.0251   515.8    6.415      54.737
2015    2       24    17  16    7.0290   516.1    6.410      54.799
2015    2       24    17  22    7.0328   516.5    6.405      54.863
2015    2       24    17  27    7.0366   516.9    6.400      54.930
2015    2       24    17  32    7.0405   517.3    6.395      54.999
2015    2       24    17  37    7.0443   517.6    6.391      55.070
2015    2       24    17  42    7.0481   518.0    6.386      55.143
2015    2       24    17  48    7.0518   518.4    6.382      55.218
2015    2       24    17  53    7.0554   518.8    6.378      55.295
2015    2       24    17  58    7.0588   519.2    6.373      55.373
2015    2       24    18   3    7.0622   519.6    6.369      55.450
2015    2       24    18   8    7.0653   520.0    6.364      55.528
2015    2       24    18  14    7.0683   520.4    6.360      55.606
2015    2       24    18  19    7.0712   520.8    6.355      55.685
2015    2       24    18  24    7.0738   521.2    6.350      55.763
2015    2       24    18  29    7.0764   521.6    6.346      55.841
2015    2       24    18  34    7.0788   522.0    6.341      55.917
2015    2       24    18  40    7.0811   522.4    6.336      55.993
2015    2       24    18  45    7.0833   522.7    6.331      56.068
2015    2       24    18  50    7.0854   523.1    6.327      56.143
2015    2       24    18  55    7.0875   523.4    6.322      56.218
2015    2       24    19   0    7.0895   523.8    6.318      56.294
2015    2       24    19   6    7.0915   524.1    6.314      56.370
2015    2       24    19  11    7.0935   524.5    6.310      56.447
2015    2       24    19  16    7.0954   524.8    6.307      56.524
2015    2       24    19  21    7.0974   525.2    6.304      56.603
2015    2       24    19  26    7.0994   525.5    6.301      56.684
2015    2       24    19  32    7.1014   525.9    6.298      56.765
2015    2       24    19  37    7.1034   526.2    6.296      56.846
2015    2       24    19  42    7.1054   526.5    6.295      56.928
2015    2       24    19  47    7.1073   526.8    6.293      57.013
2015    2       24    19  52    7.1092   527.2    6.292      57.100
2015    2       24    19  58    7.1110   527.5    6.292      57.190
2015    2       24    20   3    7.1127   527.9    6.291      57.282
2015    2       24    20   8    7.1148   528.2    6.290      57.376
2015    2       24    20  13    7.1157   528.6    6.290      57.471
2015    2       24    20  18    7.1170   529.0    6.289      57.567
2015    2       24    20  24    7.1188   529.3    6.288      57.663
2015    2       24    20  29    7.1192   529.7    6.287      57.760
2015    2       24    20  34    7.1201   530.1    6.285      57.856
2015    2       24    20  39    7.1207   530.5    6.284      57.951
2015    2       24    20  44    7.1212   530.9    6.281      58.045
2015    2       24    20  50    7.1221   531.3    6.278      58.139
2015    2       24    20  55    7.1222   531.7    6.275      58.233
2015    2       24    21   0    7.1221   532.1    6.271      58.324
2015    2       24    21   5    7.1218   532.5    6.266      58.413
2015    2       24    21  10    7.1208   532.9    6.261      58.498
2015    2       24    21  16    7.1203   533.4    6.255      58.582
2015    2       24    21  21    7.1196   533.8    6.249      58.662
2015    2       24    21  26    7.1189   534.2    6.242      58.741
2015    2       24    21  31    7.1180   534.6    6.235      58.817
2015    2       24    21  36    7.1171   535.0    6.227      58.891
2015    2       24    21  42    7.1161   535.4    6.219      58.963
2015    2       24    21  47    7.1151   535.8    6.211      59.032
2015    2       24    21  52    7.1140   536.2    6.202      59.101
2015    2       24    21  57    7.1129   536.6    6.193      59.167
2015    2       24    22   2    7.1118   537.0    6.184      59.233
2015    2       24    22   8    7.1113   537.4    6.175      59.297
2015    2       24    22  13    7.1095   537.9    6.165      59.360
2015    2       24    22  18    7.1084   538.3    6.156      59.423
2015    2       24    22  23    7.1072   538.7    6.146      59.485
2015    2       24    22  28    7.1061   539.1    6.136      59.547
2015    2       24    22  34    7.1049   539.5    6.126      59.609
2015    2       24    22  39    7.1038   539.9    6.116      59.671
2015    2       24    22  44    7.1026   540.3    6.106      59.733
2015    2       24    22  49    7.1015   540.8    6.096      59.795
2015    2       24    22  54    7.1010   541.2    6.086      59.857
2015    2       24    23   0    7.0993   541.6    6.076      59.920
2015    2       24    23   5    7.0982   542.0    6.065      59.982
2015    2       24    23  10    7.0972   542.5    6.055      60.045
2015    2       24    23  15    7.0969   542.9    6.045      60.109
2015    2       24    23  21    7.0952   543.3    6.034      60.172
2015    2       24    23  26    7.0942   543.8    6.024      60.235
2015    2       24    23  31    7.0933   544.2    6.013      60.299
2015    2       24    23  36    7.0923   544.7    6.003      60.362
2015    2       24    23  41    7.0914   545.1    5.992      60.427
2015    2       24    23  46    7.0904   545.6    5.981      60.492
2015    2       24    23  52    7.0894   546.0    5.971      60.558
2015    2       24    23  57    7.0883   546.5    5.960      60.624
2015    2       25     0   2    7.0879   547.0    5.949      60.691
2015    2       25     0   7    7.0860   547.5    5.938      60.757
2015    2       25     0  13    7.0854   548.0    5.926      60.822
2015    2       25     0  18    7.0834   548.5    5.915      60.885
2015    2       25     0  23    7.0825   549.0    5.903      60.947
2015    2       25     0  28    7.0802   549.5    5.891      61.007
2015    2       25     0  33    7.0785   550.0    5.879      61.066
2015    2       25     0  39    7.0772   550.5    5.867      61.122
2015    2       25     0  44    7.0746   551.0    5.854      61.176
2015    2       25     0  49    7.0725   551.4    5.841      61.228
2015    2       25     0  54    7.0708   551.9    5.828      61.278
2015    2       25     0  59    7.0684   552.4    5.815      61.325
2015    2       25     1   5    7.0653   552.9    5.802      61.372
2015    2       25     1  10    7.0627   553.4    5.789      61.416
2015    2       25     1  15    7.0600   553.8    5.775      61.460
2015    2       25     1  20    7.0576   554.3    5.761      61.502
2015    2       25     1  25    7.0541   554.8    5.747      61.544
2015    2       25     1  31    7.0515   555.3    5.733      61.586
2015    2       25     1  36    7.0477   555.8    5.719      61.627
2015    2       25     1  41    7.0449   556.2    5.704      61.669
2015    2       25     1  46    7.0414   556.7    5.689      61.709
2015    2       25     1  51    7.0377   557.2    5.674      61.749
2015    2       25     1  57    7.0339   557.7    5.659      61.788
2015    2       25     2   2    7.0300   558.2    5.643      61.826
2015    2       25     2   7    7.0259   558.7    5.627      61.865
2015    2       25     2  12    7.0209   559.2    5.610      61.902
2015    2       25     2  17    7.0170   559.7    5.593      61.935
2015    2       25     2  23    7.0122   560.1    5.575      61.964
2015    2       25     2  28    7.0073   560.6    5.557      61.989
2015    2       25     2  33    7.0015   561.1    5.539      62.011
2015    2       25     2  38    6.9962   561.5    5.521      62.030
2015    2       25     2  43    6.9913   562.0    5.503      62.046
2015    2       25     2  49    6.9851   562.4    5.484      62.059
2015    2       25     2  54    6.9793   562.9    5.466      62.070
2015    2       25     2  59    6.9741   563.3    5.448      62.079
2015    2       25     3   4    6.9682   563.7    5.429      62.087
2015    2       25     3   9    6.9616   564.2    5.411      62.093
2015    2       25     3  15    6.9555   564.6    5.393      62.098
2015    2       25     3  20    6.9495   565.0    5.376      62.101
2015    2       25     3  25    6.9434   565.4    5.358      62.102
2015    2       25     3  30    6.9373   565.8    5.341      62.105
2015    2       25     3  35    6.9319   566.1    5.324      62.108
2015    2       25     3  41    6.9252   566.5    5.308      62.112
2015    2       25     3  46    6.9198   566.9    5.291      62.116
2015    2       25     3  51    6.9130   567.3    5.275      62.120
2015    2       25     3  56    6.9069   567.7    5.259      62.123
2015    2       25     4   1    6.9008   568.1    5.243      62.127
2015    2       25     4   7    6.8947   568.5    5.228      62.130
2015    2       25     4  12    6.8886   568.8    5.212      62.132
2015    2       25     4  17    6.8830   569.2    5.197      62.135
2015    2       25     4  22    6.8762   569.6    5.181      62.136
2015    2       25     4  27    6.8699   570.0    5.166      62.137
2015    2       25     4  33    6.8644   570.3    5.151      62.138
2015    2       25     4  38    6.8581   570.7    5.136      62.137
2015    2       25     4  43    6.8512   571.1    5.121      62.136
2015    2       25     4  48    6.8456   571.4    5.106      62.134
2015    2       25     4  53    6.8387   571.8    5.092      62.131
2015    2       25     4  59    6.8324   572.1    5.077      62.127
2015    2       25     5   4    6.8262   572.5    5.063      62.123
2015    2       25     5   9    6.8199   572.8    5.048      62.117
2015    2       25     5  14    6.8136   573.2    5.034      62.111
2015    2       25     5  19    6.8074   573.5    5.020      62.103
2015    2       25     5  25    6.8018   573.8    5.006      62.095
2015    2       25     5  30    6.7949   574.2    4.992      62.087
2015    2       25     5  35    6.7893   574.5    4.978      62.077
2015    2       25     5  40    6.7824   574.8    4.964      62.067
2015    2       25     5  45    6.7762   575.2    4.950      62.056
2015    2       25     5  51    6.7700   575.5    4.937      62.044
2015    2       25     5  56    6.7637   575.8    4.923      62.031
2015    2       25     6   1    6.7581   576.2    4.910      62.017
2015    2       25     6   6    6.7512   576.5    4.896      62.002
2015    2       25     6  11    6.7448   576.8    4.883      61.984
2015    2       25     6  17    6.7385   577.1    4.870      61.965
2015    2       25     6  22    6.7320   577.4    4.856      61.944
2015    2       25     6  27    6.7256   577.7    4.843      61.922
2015    2       25     6  32    6.7192   578.0    4.830      61.898
2015    2       25     6  37    6.7127   578.3    4.817      61.872
2015    2       25     6  43    6.7062   578.6    4.804      61.846
2015    2       25     6  48    6.6997   578.9    4.791      61.819
2015    2       25     6  53    6.6938   579.2    4.778      61.792
2015    2       25     6  58    6.6867   579.5    4.766      61.765
2015    2       25     7   3    6.6801   579.7    4.753      61.737
2015    2       25     7   9    6.6736   580.0    4.741      61.709
2015    2       25     7  14    6.6670   580.3    4.730      61.682
2015    2       25     7  19    6.6604   580.5    4.718      61.657
2015    2       25     7  24    6.6537   580.8    4.707      61.633
2015    2       25     7  29    6.6471   581.1    4.695      61.611
2015    2       25     7  35    6.6404   581.3    4.684      61.589
2015    2       25     7  40    6.6337   581.6    4.673      61.568
2015    2       25     7  45    6.6269   581.9    4.662      61.548
2015    2       25     7  50    6.6201   582.2    4.652      61.529
2015    2       25     7  55    6.6133   582.5    4.641      61.511
2015    2       25     8   1    6.6064   582.8    4.630      61.493
2015    2       25     8   6    6.5994   583.1    4.619      61.475
2015    2       25     8  11    6.5930   583.4    4.608      61.458
2015    2       25     8  16    6.5852   583.7    4.597      61.440
2015    2       25     8  21    6.5781   584.0    4.586      61.422
2015    2       25     8  27    6.5714   584.3    4.575      61.405
2015    2       25     8  32    6.5635   584.6    4.564      61.386
2015    2       25     8  37    6.5561   584.9    4.552      61.367
2015    2       25     8  42    6.5487   585.2    4.541      61.346
2015    2       25     8  47    6.5411   585.5    4.529      61.323
2015    2       25     8  53    6.5334   585.8    4.517      61.298
2015    2       25     8  58    6.5256   586.2    4.504      61.272
2015    2       25     9   3    6.5182   586.5    4.492      61.243
2015    2       25     9   8    6.5096   586.8    4.479      61.211
2015    2       25     9  13    6.5014   587.0    4.466      61.173
2015    2       25     9  19    6.4931   587.3    4.453      61.132
2015    2       25     9  24    6.4847   587.6    4.440      61.087
2015    2       25     9  29    6.4762   587.8    4.427      61.039
2015    2       25     9  34    6.4676   588.1    4.415      60.989
2015    2       25     9  39    6.4589   588.3    4.402      60.937
2015    2       25     9  45    6.4506   588.5    4.390      60.884
2015    2       25     9  50    6.4415   588.7    4.377      60.830
2015    2       25     9  55    6.4328   589.0    4.365      60.776
2015    2       25    10   0    6.4240   589.2    4.353      60.722
2015    2       25    10   5    6.4153   589.4    4.341      60.668
2015    2       25    10  11    6.4066   589.6    4.330      60.612
2015    2       25    10  16    6.3981   589.8    4.318      60.556
2015    2       25    10  21    6.3895   590.0    4.307      60.500
2015    2       25    10  26    6.3808   590.2    4.296      60.445
2015    2       25    10  31    6.3724   590.4    4.285      60.390
2015    2       25    10  37    6.3638   590.5    4.274      60.336
2015    2       25    10  42    6.3555   590.7    4.263      60.282
2015    2       25    10  47    6.3471   590.9    4.252      60.229
2015    2       25    10  52    6.3389   591.1    4.242      60.174
2015    2       25    10  57    6.3307   591.3    4.231      60.118
2015    2       25    11   3    6.3226   591.4    4.220      60.062
2015    2       25    11   8    6.3146   591.6    4.210      60.004
2015    2       25    11  13    6.3066   591.7    4.200      59.946
2015    2       25    11  18    6.2987   591.9    4.189      59.888
2015    2       25    11  23    6.2908   592.0    4.179      59.829
2015    2       25    11  29    6.2830   592.1    4.169      59.770
2015    2       25    11  34    6.2752   592.3    4.159      59.710
2015    2       25    11  39    6.2676   592.4    4.149      59.650
2015    2       25    11  44    6.2599   592.5    4.140      59.589
2015    2       25    11  49    6.2523   592.6    4.130      59.527
2015    2       25    11  55    6.2448   592.8    4.121      59.465
2015    2       25    12   0    6.2373   592.9    4.111      59.402
2015    2       25    12   5    6.2299   593.0    4.102      59.339
2015    2       25    12  10    6.2224   593.1    4.093      59.275
2015    2       25    12  15    6.2151   593.2    4.084      59.211
2015    2       25    12  21    6.2079   593.3    4.075      59.147
2015    2       25    12  26    6.2007   593.4    4.066      59.082
2015    2       25    12  31    6.1933   593.5    4.057      59.018
2015    2       25    12  36    6.1864   593.5    4.049      58.952
2015    2       25    12  41    6.1793   593.6    4.040      58.887
2015    2       25    12  47    6.1723   593.7    4.032      58.822
2015    2       25    12  52    6.1652   593.8    4.024      58.756
2015    2       25    12  57    6.1585   593.8    4.016      58.691
2015    2       25    13   2    6.1516   593.9    4.008      58.625
2015    2       25    13   7    6.1449   593.9    4.000      58.560
2015    2       25    13  13    6.1382   594.0    3.992      58.495
2015    2       25    13  18    6.1313   594.0    3.985      58.430
2015    2       25    13  23    6.1250   594.0    3.977      58.365
2015    2       25    13  28    6.1185   594.1    3.970      58.301
2015    2       25    13  33    6.1121   594.1    3.963      58.237
2015    2       25    13  39    6.1057   594.1    3.956      58.173
2015    2       25    13  44    6.0994   594.1    3.949      58.111
2015    2       25    13  49    6.0932   594.1    3.942      58.048
2015    2       25    13  54    6.0870   594.1    3.936      57.986
2015    2       25    13  59    6.0809   594.1    3.930      57.924
2015    2       25    14   5    6.0746   594.1    3.923      57.863
2015    2       25    14  10    6.0686   594.1    3.917      57.802
2015    2       25    14  15    6.0629   594.1    3.911      57.743
2015    2       25    14  20    6.0570   594.1    3.905      57.683
2015    2       25    14  25    6.0511   594.1    3.900      57.625
2015    2       25    14  31    6.0452   594.1    3.894      57.567
2015    2       25    14  36    6.0394   594.0    3.889      57.511
2015    2       25    14  41    6.0336   594.0    3.884      57.455
2015    2       25    14  46    6.0276   594.0    3.879      57.400
2015    2       25    14  51    6.0222   594.0    3.874      57.346
2015    2       25    14  57    6.0165   594.0    3.870      57.292
2015    2       25    15   2    6.0109   594.0    3.865      57.239
2015    2       25    15   7    6.0049   594.0    3.860      57.186
2015    2       25    15  12    5.9993   594.0    3.856      57.134
2015    2       25    15  17    5.9937   594.0    3.852      57.082
2015    2       25    15  23    5.9882   594.0    3.847      57.030
2015    2       25    15  28    5.9830   594.0    3.843      56.978
2015    2       25    15  33    5.9775   594.0    3.839      56.926
2015    2       25    15  38    5.9720   594.0    3.835      56.875
2015    2       25    15  43    5.9666   594.0    3.831      56.824
2015    2       25    15  49    5.9608   593.9    3.827      56.773
2015    2       25    15  54    5.9558   593.9    3.823      56.722
2015    2       25    15  59    5.9504   593.9    3.819      56.670
2015    2       25    16   4    5.9450   593.9    3.816      56.619
2015    2       25    16   9    5.9393   593.9    3.812      56.569
2015    2       25    16  15    5.9344   593.8    3.809      56.518
2015    2       25    16  20    5.9291   593.8    3.805      56.468
2015    2       25    16  25    5.9234   593.8    3.802      56.420
2015    2       25    16  30    5.9186   593.7    3.799      56.372
2015    2       25    16  35    5.9131   593.7    3.796      56.326
2015    2       25    16  41    5.9083   593.6    3.793      56.280
2015    2       25    16  46    5.9029   593.6    3.791      56.236
2015    2       25    16  51    5.8982   593.5    3.788      56.195
2015    2       25    16  56    5.8932   593.4    3.786      56.157
2015    2       25    17   1    5.8883   593.4    3.784      56.121
2015    2       25    17   7    5.8829   593.4    3.782      56.087
2015    2       25    17  12    5.8784   593.3    3.781      56.054
2015    2       25    17  17    5.8735   593.3    3.779      56.023
2015    2       25    17  22    5.8683   593.2    3.777      55.994
2015    2       25    17  27    5.8639   593.2    3.776      55.965
2015    2       25    17  33    5.8590   593.2    3.774      55.936
2015    2       25    17  38    5.8543   593.1    3.772      55.908
2015    2       25    17  43    5.8495   593.1    3.771      55.880
2015    2       25    17  48    5.8448   593.1    3.769      55.851
2015    2       25    17  53    5.8400   593.1    3.767      55.822
2015    2       25    17  59    5.8353   593.1    3.765      55.793
2015    2       25    18   4    5.8302   593.0    3.763      55.764
2015    2       25    18   9    5.8259   593.0    3.761      55.732
2015    2       25    18  14    5.8212   593.0    3.758      55.699
2015    2       25    18  19    5.8161   593.0    3.756      55.664
2015    2       25    18  25    5.8114   593.0    3.753      55.628
2015    2       25    18  30    5.8068   593.0    3.751      55.591
2015    2       25    18  35    5.8021   592.9    3.748      55.553
2015    2       25    18  40    5.7979   592.9    3.746      55.514
2015    2       25    18  45    5.7933   592.9    3.743      55.475
2015    2       25    18  51    5.7888   592.8    3.740      55.434
2015    2       25    18  56    5.7842   592.8    3.738      55.394
2015    2       25    19   1    5.7797   592.8    3.735      55.352
2015    2       25    19   6    5.7749   592.7    3.732      55.310
2015    2       25    19  11    5.7708   592.7    3.730      55.268
2015    2       25    19  17    5.7664   592.7    3.727      55.226
2015    2       25    19  22    5.7617   592.6    3.724      55.183
2015    2       25    19  27    5.7574   592.6    3.722      55.141
2015    2       25    19  32    5.7531   592.6    3.719      55.098
2015    2       25    19  37    5.7489   592.5    3.717      55.055
2015    2       25    19  43    5.7451   592.5    3.714      55.013
2015    2       25    19  48    5.7409   592.4    3.712      54.970
2015    2       25    19  53    5.7368   592.4    3.709      54.928
2015    2       25    19  58    5.7328   592.3    3.707      54.885
2015    2       25    20   3    5.7284   592.3    3.705      54.842
2015    2       25    20   9    5.7244   592.2    3.703      54.800
2015    2       25    20  14    5.7208   592.2    3.700      54.758
2015    2       25    20  19    5.7169   592.1    3.698      54.716
2015    2       25    20  24    5.7131   592.1    3.696      54.674
2015    2       25    20  29    5.7093   592.0    3.694      54.632
2015    2       25    20  35    5.7051   592.0    3.692      54.590
2015    2       25    20  40    5.7017   591.9    3.689      54.548
2015    2       25    20  45    5.6980   591.9    3.687      54.507
2015    2       25    20  50    5.6940   591.8    3.685      54.464
2015    2       25    20  55    5.6907   591.7    3.683      54.422
2015    2       25    21   1    5.6867   591.7    3.680      54.380
2015    2       25    21   6    5.6834   591.6    3.678      54.337
2015    2       25    21  11    5.6799   591.6    3.676      54.294
2015    2       25    21  16    5.6763   591.5    3.674      54.250
2015    2       25    21  21    5.6727   591.4    3.671      54.206
2015    2       25    21  27    5.6689   591.3    3.669      54.162
2015    2       25    21  32    5.6654   591.3    3.666      54.118
2015    2       25    21  37    5.6623   591.2    3.664      54.073
2015    2       25    21  42    5.6584   591.1    3.662      54.028
2015    2       25    21  47    5.6554   591.0    3.659      53.983
2015    2       25    21  53    5.6516   591.0    3.657      53.937
2015    2       25    21  58    5.6486   590.9    3.655      53.891
2015    2       25    22   3    5.6452   590.8    3.652      53.845
2015    2       25    22   8    5.6418   590.7    3.650      53.799
2015    2       25    22  13    5.6385   590.6    3.648      53.753
2015    2       25    22  19    5.6349   590.5    3.646      53.708
2015    2       25    22  24    5.6317   590.4    3.643      53.662
2015    2       25    22  29    5.6288   590.3    3.641      53.617
2015    2       25    22  34    5.6253   590.3    3.639      53.572
2015    2       25    22  39    5.6224   590.2    3.637      53.527
2015    2       25    22  45    5.6190   590.1    3.635      53.483
2015    2       25    22  50    5.6162   590.0    3.634      53.440
2015    2       25    22  55    5.6132   589.9    3.632      53.398
2015    2       25    23   0    5.6099   589.8    3.630      53.356
2015    2       25    23   5    5.6071   589.7    3.629      53.315
2015    2       25    23  11    5.6039   589.6    3.627      53.275
2015    2       25    23  16    5.6010   589.5    3.626      53.235
2015    2       25    23  21    5.5983   589.4    3.624      53.195
2015    2       25    23  26    5.5951   589.3    3.623      53.157
2015    2       25    23  31    5.5925   589.2    3.621      53.118
2015    2       25    23  37    5.5896   589.1    3.620      53.080
2015    2       25    23  42    5.5867   589.0    3.619      53.042
2015    2       25    23  47    5.5836   588.9    3.617      53.004
2015    2       25    23  52    5.5807   588.8    3.616      52.966
2015    2       25    23  57    5.5781   588.7    3.614      52.928
2015    2       26     0   3    5.5752   588.6    3.613      52.890
2015    2       26     0   8    5.5720   588.5    3.612      52.852
2015    2       26     0  13    5.5694   588.5    3.610      52.814
2015    2       26     0  18    5.5665   588.4    3.609      52.776
2015    2       26     0  23    5.5636   588.3    3.607      52.737
2015    2       26     0  29    5.5607   588.2    3.606      52.698
2015    2       26     0  34    5.5579   588.1    3.605      52.659
2015    2       26     0  39    5.5550   588.0    3.603      52.619
2015    2       26     0  44    5.5521   587.9    3.602      52.580
2015    2       26     0  49    5.5492   587.8    3.600      52.540
2015    2       26     0  55    5.5463   587.7    3.599      52.500
2015    2       26     1   0    5.5435   587.6    3.597      52.459
2015    2       26     1   5    5.5406   587.5    3.596      52.419
2015    2       26     1  10    5.5377   587.4    3.594      52.378
2015    2       26     1  15    5.5347   587.3    3.593      52.337
2015    2       26     1  21    5.5321   587.2    3.591      52.295
2015    2       26     1  26    5.5290   587.1    3.590      52.254
2015    2       26     1  31    5.5264   587.0    3.588      52.213
2015    2       26     1  36    5.5236   586.9    3.587      52.172
2015    2       26     1  41    5.5209   586.8    3.586      52.131
2015    2       26     1  47    5.5181   586.7    3.584      52.090
2015    2       26     1  52    5.5152   586.6    3.583      52.049
2015    2       26     1  57    5.5126   586.5    3.582      52.008
2015    2       26     2   2    5.5099   586.4    3.581      51.968
2015    2       26     2   7    5.5071   586.3    3.580      51.928
2015    2       26     2  13    5.5044   586.2    3.578      51.888
2015    2       26     2  18    5.5020   586.1    3.577      51.849
2015    2       26     2  23    5.4994   586.0    3.577      51.810
2015    2       26     2  28    5.4968   585.9    3.576      51.772
2015    2       26     2  33    5.4942   585.8    3.575      51.734
2015    2       26     2  39    5.4917   585.7    3.574      51.697
2015    2       26     2  44    5.4892   585.6    3.574      51.660
2015    2       26     2  49    5.4867   585.5    3.573      51.624
2015    2       26     2  54    5.4843   585.4    3.573      51.589
2015    2       26     2  59    5.4819   585.3    3.572      51.554
2015    2       26     3   5    5.4795   585.2    3.572      51.519
2015    2       26     3  10    5.4771   585.1    3.572      51.485
2015    2       26     3  15    5.4747   585.0    3.571      51.451
2015    2       26     3  20    5.4723   584.9    3.571      51.419
2015    2       26     3  25    5.4700   584.9    3.571      51.386
2015    2       26     3  31    5.4677   584.8    3.571      51.354
2015    2       26     3  36    5.4653   584.7    3.571      51.322
2015    2       26     3  41    5.4630   584.6    3.571      51.290
2015    2       26     3  46    5.4607   584.5    3.571      51.258
2015    2       26     3  51    5.4584   584.4    3.571      51.226
2015    2       26     3  57    5.4561   584.2    3.571      51.194
2015    2       26     4   2    5.4538   584.1    3.570      51.161
2015    2       26     4   7    5.4514   584.0    3.570      51.129
2015    2       26     4  12    5.4491   583.9    3.570      51.096
2015    2       26     4  17    5.4468   583.8    3.570      51.062
2015    2       26     4  23    5.4444   583.7    3.569      51.029
2015    2       26     4  28    5.4422   583.6    3.569      50.995
2015    2       26     4  33    5.4400   583.5    3.569      50.960
2015    2       26     4  38    5.4377   583.4    3.568      50.925
2015    2       26     4  43    5.4355   583.2    3.568      50.890
2015    2       26     4  49    5.4331   583.1    3.568      50.855
2015    2       26     4  54    5.4310   583.0    3.567      50.820
2015    2       26     4  59    5.4288   582.9    3.567      50.784
2015    2       26     5   4    5.4266   582.8    3.567      50.749
2015    2       26     5   9    5.4244   582.6    3.567      50.714
2015    2       26     5  15    5.4222   582.5    3.566      50.679
2015    2       26     5  20    5.4200   582.4    3.566      50.644
2015    2       26     5  25    5.4181   582.3    3.566      50.609
2015    2       26     5  30    5.4160   582.1    3.566      50.574
2015    2       26     5  35    5.4140   582.0    3.566      50.540
2015    2       26     5  41    5.4120   581.9    3.566      50.506
2015    2       26     5  46    5.4100   581.8    3.566      50.472
2015    2       26     5  51    5.4079   581.6    3.566      50.439
2015    2       26     5  56    5.4060   581.5    3.566      50.406
2015    2       26     6   1    5.4040   581.4    3.566      50.373
2015    2       26     6   7    5.4021   581.2    3.566      50.341
2015    2       26     6  12    5.4002   581.1    3.566      50.309
2015    2       26     6  17    5.3985   581.0    3.566      50.278
2015    2       26     6  22    5.3967   580.9    3.567      50.248
2015    2       26     6  27    5.3947   580.7    3.567      50.218
2015    2       26     6  33    5.3929   580.6    3.567      50.188
2015    2       26     6  38    5.3912   580.5    3.567      50.159
2015    2       26     6  43    5.3893   580.3    3.567      50.130
2015    2       26     6  48    5.3877   580.2    3.567      50.101
2015    2       26     6  53    5.3859   580.1    3.567      50.071
2015    2       26     6  59    5.3840   580.0    3.567      50.042
2015    2       26     7   4    5.3823   579.8    3.567      50.012
2015    2       26     7   9    5.3806   579.7    3.567      49.983
2015    2       26     7  14    5.3790   579.6    3.567      49.952
2015    2       26     7  19    5.3772   579.4    3.567      49.921
2015    2       26     7  25    5.3754   579.3    3.566      49.890
2015    2       26     7  30    5.3738   579.2    3.566      49.857
2015    2       26     7  35    5.3721   579.0    3.566      49.825
2015    2       26     7  40    5.3704   578.9    3.565      49.791
2015    2       26     7  45    5.3687   578.8    3.564      49.757
2015    2       26     7  51    5.3670   578.7    3.564      49.722
2015    2       26     7  56    5.3653   578.5    3.563      49.687
2015    2       26     8   1    5.3637   578.4    3.562      49.651
2015    2       26     8   6    5.3618   578.3    3.562      49.615
2015    2       26     8  11    5.3603   578.1    3.561      49.578
2015    2       26     8  17    5.3587   578.0    3.560      49.541
2015    2       26     8  22    5.3570   577.9    3.559      49.503
2015    2       26     8  27    5.3554   577.7    3.558      49.465
2015    2       26     8  32    5.3538   577.6    3.557      49.427
2015    2       26     8  37    5.3522   577.5    3.556      49.388
2015    2       26     8  43    5.3506   577.3    3.556      49.349
2015    2       26     8  48    5.3490   577.2    3.555      49.310
2015    2       26     8  53    5.3474   577.1    3.554      49.270
2015    2       26     8  58    5.3458   576.9    3.553      49.231
2015    2       26     9   3    5.3442   576.8    3.552      49.191
2015    2       26     9   9    5.3427   576.6    3.551      49.152
2015    2       26     9  14    5.3412   576.5    3.550      49.112
2015    2       26     9  19    5.3395   576.4    3.549      49.073
2015    2       26     9  24    5.3381   576.2    3.548      49.034
2015    2       26     9  29    5.3367   576.1    3.547      48.995
2015    2       26     9  35    5.3350   576.0    3.546      48.956
2015    2       26     9  40    5.3337   575.8    3.545      48.918
2015    2       26     9  45    5.3323   575.7    3.545      48.880
2015    2       26     9  50    5.3309   575.5    3.544      48.842
2015    2       26     9  55    5.3295   575.4    3.543      48.804
2015    2       26    10   1    5.3281   575.3    3.543      48.767
2015    2       26    10   6    5.3267   575.1    3.542      48.730
2015    2       26    10  11    5.3252   575.0    3.541      48.693
2015    2       26    10  16    5.3240   574.9    3.541      48.656
2015    2       26    10  21    5.3226   574.7    3.540      48.620
2015    2       26    10  27    5.3213   574.6    3.540      48.584
2015    2       26    10  32    5.3198   574.5    3.540      48.549
2015    2       26    10  37    5.3186   574.3    3.539      48.514
2015    2       26    10  42    5.3173   574.2    3.539      48.479
2015    2       26    10  47    5.3160   574.1    3.539      48.444
2015    2       26    10  53    5.3146   573.9    3.538      48.409
2015    2       26    10  58    5.3133   573.8    3.538      48.375
2015    2       26    11   3    5.3119   573.7    3.538      48.340
2015    2       26    11   8    5.3105   573.5    3.537      48.305
2015    2       26    11  13    5.3092   573.4    3.537      48.270
2015    2       26    11  19    5.3079   573.3    3.537      48.236
2015    2       26    11  24    5.3065   573.1    3.537      48.201
2015    2       26    11  29    5.3052   573.0    3.536      48.166
2015    2       26    11  34    5.3038   572.8    3.536      48.130
2015    2       26    11  39    5.3025   572.7    3.536      48.095
2015    2       26    11  45    5.3011   572.5    3.535      48.060
2015    2       26    11  50    5.2998   572.4    3.535      48.024
2015    2       26    11  55    5.2984   572.3    3.535      47.989
2015    2       26    12   0    5.2971   572.1    3.534      47.953
2015    2       26    12   5    5.2958   572.0    3.534      47.917
2015    2       26    12  11    5.2943   571.8    3.534      47.882
2015    2       26    12  16    5.2931   571.7    3.534      47.847
2015    2       26    12  21    5.2918   571.5    3.534      47.813
2015    2       26    12  26    5.2906   571.4    3.534      47.778
2015    2       26    12  31    5.2893   571.2    3.534      47.744
2015    2       26    12  37    5.2880   571.0    3.534      47.710
2015    2       26    12  42    5.2868   570.9    3.534      47.677
2015    2       26    12  47    5.2856   570.7    3.534      47.644
2015    2       26    12  52    5.2844   570.6    3.534      47.612
2015    2       26    12  57    5.2832   570.4    3.535      47.580
2015    2       26    13   3    5.2820   570.3    3.535      47.549
2015    2       26    13   8    5.2809   570.1    3.536      47.519
2015    2       26    13  13    5.2797   569.9    3.536      47.489
2015    2       26    13  18    5.2786   569.8    3.537      47.459
2015    2       26    13  23    5.2776   569.6    3.538      47.430
2015    2       26    13  29    5.2765   569.5    3.538      47.403
2015    2       26    13  34    5.2754   569.3    3.539      47.376
2015    2       26    13  39    5.2744   569.2    3.540      47.350
2015    2       26    13  44    5.2734   569.0    3.541      47.325
2015    2       26    13  49    5.2724   568.8    3.542      47.300
2015    2       26    13  55    5.2714   568.7    3.543      47.276
2015    2       26    14   0    5.2704   568.5    3.544      47.253
2015    2       26    14   5    5.2694   568.4    3.546      47.230
2015    2       26    14  10    5.2685   568.2    3.547      47.207
2015    2       26    14  15    5.2675   568.1    3.548      47.184
2015    2       26    14  21    5.2666   567.9    3.549      47.161
2015    2       26    14  26    5.2656   567.7    3.550      47.139
2015    2       26    14  31    5.2647   567.6    3.551      47.117
2015    2       26    14  36    5.2638   567.4    3.552      47.094
2015    2       26    14  41    5.2629   567.3    3.553      47.071
2015    2       26    14  47    5.2619   567.1    3.554      47.048
2015    2       26    14  52    5.2610   567.0    3.555      47.024
2015    2       26    14  57    5.2600   566.8    3.556      47.001
2015    2       26    15   2    5.2592   566.6    3.557      46.976
2015    2       26    15   7    5.2582   566.5    3.558      46.952
2015    2       26    15  13    5.2572   566.3    3.559      46.927
2015    2       26    15  18    5.2564   566.2    3.560      46.903
2015    2       26    15  23    5.2553   566.0    3.560      46.877
2015    2       26    15  28    5.2544   565.9    3.561      46.852
2015    2       26    15  33    5.2535   565.7    3.562      46.826
2015    2       26    15  39    5.2525   565.5    3.562      46.800
2015    2       26    15  44    5.2516   565.4    3.563      46.773
2015    2       26    15  49    5.2505   565.2    3.563      46.746
2015    2       26    15  54    5.2496   565.0    3.564      46.719
2015    2       26    15  59    5.2486   564.9    3.564      46.691
2015    2       26    16   5    5.2477   564.7    3.565      46.663
2015    2       26    16  10    5.2466   564.5    3.565      46.635
2015    2       26    16  15    5.2457   564.4    3.565      46.607
2015    2       26    16  20    5.2447   564.2    3.566      46.578
2015    2       26    16  25    5.2438   564.0    3.566      46.549
2015    2       26    16  31    5.2428   563.9    3.566      46.520
2015    2       26    16  36    5.2419   563.7    3.566      46.491
2015    2       26    16  41    5.2409   563.5    3.566      46.461
2015    2       26    16  46    5.2400   563.4    3.566      46.432
2015    2       26    16  51    5.2391   563.2    3.567      46.402
2015    2       26    16  57    5.2381   563.0    3.567      46.372
2015    2       26    17   2    5.2372   562.8    3.567      46.342
2015    2       26    17   7    5.2363   562.7    3.567      46.312
2015    2       26    17  12    5.2354   562.5    3.567      46.282
2015    2       26    17  17    5.2346   562.3    3.567      46.251
2015    2       26    17  23    5.2338   562.1    3.567      46.221
2015    2       26    17  28    5.2329   562.0    3.567      46.191
2015    2       26    17  33    5.2321   561.8    3.567      46.161
2015    2       26    17  38    5.2313   561.6    3.567      46.131
2015    2       26    17  43    5.2305   561.4    3.567      46.100
2015    2       26    17  49    5.2297   561.3    3.567      46.071
2015    2       26    17  54    5.2289   561.1    3.567      46.041
2015    2       26    17  59    5.2282   560.9    3.567      46.011
2015    2       26    18   4    5.2275   560.7    3.567      45.981
2015    2       26    18   9    5.2268   560.6    3.567      45.952
2015    2       26    18  15    5.2260   560.4    3.567      45.922
2015    2       26    18  20    5.2252   560.2    3.568      45.893
2015    2       26    18  25    5.2245   560.0    3.568      45.864
2015    2       26    18  30    5.2238   559.9    3.568      45.835
2015    2       26    18  35    5.2231   559.7    3.568      45.806
2015    2       26    18  41    5.2225   559.5    3.568      45.778
2015    2       26    18  46    5.2217   559.3    3.568      45.750
2015    2       26    18  51    5.2211   559.1    3.569      45.721
2015    2       26    18  56    5.2204   559.0    3.569      45.693
2015    2       26    19   1    5.2197   558.8    3.569      45.666
2015    2       26    19   7    5.2190   558.6    3.569      45.638
2015    2       26    19  12    5.2183   558.4    3.570      45.610
2015    2       26    19  17    5.2177   558.3    3.570      45.582
2015    2       26    19  22    5.2170   558.1    3.570      45.554
2015    2       26    19  27    5.2163   557.9    3.570      45.526
2015    2       26    19  33    5.2157   557.7    3.571      45.499
2015    2       26    19  38    5.2150   557.5    3.571      45.471
2015    2       26    19  43    5.2144   557.3    3.571      45.443
2015    2       26    19  48    5.2137   557.2    3.572      45.415
2015    2       26    19  53    5.2131   557.0    3.572      45.387
2015    2       26    19  59    5.2125   556.8    3.573      45.359
2015    2       26    20   4    5.2119   556.6    3.573      45.331
2015    2       26    20   9    5.2113   556.4    3.573      45.303
2015    2       26    20  14    5.2107   556.2    3.574      45.275
2015    2       26    20  19    5.2101   556.0    3.574      45.246
2015    2       26    20  25    5.2096   555.9    3.575      45.218
2015    2       26    20  30    5.2090   555.7    3.575      45.190
2015    2       26    20  35    5.2085   555.5    3.576      45.162
2015    2       26    20  40    5.2080   555.3    3.576      45.134
2015    2       26    20  45    5.2075   555.1    3.577      45.106
2015    2       26    20  51    5.2070   554.9    3.578      45.078
2015    2       26    20  56    5.2065   554.7    3.578      45.050
2015    2       26    21   1    5.2060   554.5    3.579      45.022
2015    2       26    21   6    5.2055   554.3    3.580      44.995
2015    2       26    21  11    5.2050   554.1    3.581      44.968
2015    2       26    21  17    5.2046   554.0    3.582      44.940
2015    2       26    21  22    5.2041   553.8    3.583      44.913
2015    2       26    21  27    5.2036   553.6    3.583      44.886
2015    2       26    21  32    5.2032   553.4    3.584      44.859
2015    2       26    21  37    5.2027   553.2    3.585      44.833
2015    2       26    21  43    5.2023   553.0    3.586      44.806
2015    2       26    21  48    5.2019   552.8    3.588      44.780
2015    2       26    21  53    5.2015   552.6    3.589      44.753
2015    2       26    21  58    5.2010   552.4    3.590      44.727
2015    2       26    22   3    5.2006   552.2    3.591      44.701
2015    2       26    22   9    5.2002   552.0    3.592      44.675
2015    2       26    22  14    5.1998   551.8    3.594      44.649
2015    2       26    22  19    5.1994   551.6    3.595      44.623
2015    2       26    22  24    5.1990   551.4    3.596      44.597
2015    2       26    22  29    5.1986   551.2    3.597      44.572
2015    2       26    22  35    5.1982   551.0    3.599      44.546
2015    2       26    22  40    5.1978   550.8    3.600      44.520
2015    2       26    22  45    5.1974   550.6    3.601      44.494
2015    2       26    22  50    5.1970   550.4    3.603      44.469
2015    2       26    22  55    5.1966   550.2    3.604      44.443
2015    2       26    23   1    5.1962   550.0    3.606      44.417
2015    2       26    23   6    5.1958   549.8    3.607      44.392
2015    2       26    23  11    5.1954   549.6    3.608      44.366
2015    2       26    23  16    5.1950   549.3    3.610      44.341
2015    2       26    23  21    5.1946   549.1    3.611      44.315
2015    2       26    23  27    5.1943   548.9    3.613      44.290
2015    2       26    23  32    5.1939   548.7    3.614      44.265
2015    2       26    23  37    5.1936   548.5    3.616      44.239
2015    2       26    23  42    5.1933   548.3    3.617      44.215
2015    2       26    23  47    5.1930   548.1    3.619      44.190
2015    2       26    23  53    5.1927   547.8    3.620      44.165
2015    2       26    23  58    5.1924   547.6    3.622      44.141
2015    2       27     0   3    5.1921   547.4    3.623      44.116
2015    2       27     0   8    5.1919   547.2    3.625      44.092
2015    2       27     0  13    5.1917   547.0    3.626      44.069
2015    2       27     0  19    5.1916   546.8    3.628      44.045
2015    2       27     0  24    5.1914   546.5    3.630      44.022
2015    2       27     0  29    5.1913   546.3    3.632      43.999
2015    2       27     0  34    5.1911   546.1    3.633      43.976
2015    2       27     0  39    5.1911   545.9    3.635      43.954
2015    2       27     0  45    5.1910   545.7    3.637      43.932
2015    2       27     0  50    5.1910   545.4    3.639      43.910
2015    2       27     0  55    5.1909   545.2    3.641      43.889
2015    2       27     1   0    5.1910   545.0    3.643      43.868
2015    2       27     1   5    5.1910   544.8    3.645      43.847
2015    2       27     1  11    5.1911   544.6    3.647      43.827
2015    2       27     1  16    5.1912   544.3    3.649      43.807
2015    2       27     1  21    5.1912   544.1    3.651      43.787
2015    2       27     1  26    5.1914   543.9    3.654      43.767
2015    2       27     1  32    5.1915   543.7    3.656      43.748
2015    2       27     1  37    5.1917   543.4    3.658      43.730
2015    2       27     1  42    5.1919   543.2    3.661      43.711
2015    2       27     1  47    5.1921   543.0    3.663      43.693
2015    2       27     1  52    5.1922   542.8    3.666      43.675
2015    2       27     1  57    5.1925   542.6    3.668      43.658
2015    2       27     2   3    5.1927   542.3    3.671      43.640
2015    2       27     2   8    5.1930   542.1    3.673      43.623
2015    2       27     2  13    5.1933   541.9    3.676      43.607
2015    2       27     2  18    5.1936   541.7    3.679      43.590
2015    2       27     2  23    5.1939   541.4    3.681      43.574
2015    2       27     2  29    5.1942   541.2    3.684      43.559
2015    2       27     2  34    5.1946   541.0    3.687      43.543
2015    2       27     2  39    5.1949   540.8    3.690      43.528
2015    2       27     2  44    5.1952   540.6    3.692      43.513
2015    2       27     2  50    5.1957   540.3    3.695      43.498
2015    2       27     2  55    5.1960   540.1    3.698      43.483
2015    2       27     3   0    5.1965   539.9    3.701      43.468
2015    2       27     3   5    5.1970   539.7    3.704      43.453
2015    2       27     3  10    5.1974   539.4    3.707      43.438
2015    2       27     3  16    5.1979   539.2    3.710      43.424
2015    2       27     3  21    5.1983   539.0    3.713      43.409
2015    2       27     3  26    5.1989   538.8    3.716      43.394
2015    2       27     3  31    5.1994   538.6    3.719      43.380
2015    2       27     3  36    5.1999   538.3    3.722      43.365
2015    2       27     3  42    5.2006   538.1    3.725      43.350
2015    2       27     3  47    5.2011   537.9    3.728      43.335
2015    2       27     3  52    5.2017   537.7    3.731      43.319
2015    2       27     3  57    5.2023   537.5    3.734      43.304
2015    2       27     4   2    5.2029   537.2    3.736      43.288
2015    2       27     4   8    5.2035   537.0    3.739      43.273
2015    2       27     4  13    5.2041   536.8    3.742      43.257
2015    2       27     4  18    5.2047   536.6    3.745      43.240
2015    2       27     4  23    5.2054   536.3    3.748      43.224
2015    2       27     4  28    5.2060   536.1    3.751      43.207
2015    2       27     4  34    5.2066   535.9    3.753      43.190
2015    2       27     4  39    5.2073   535.7    3.756      43.172
2015    2       27     4  44    5.2079   535.4    3.759      43.155
2015    2       27     4  49    5.2085   535.2    3.761      43.137
2015    2       27     4  54    5.2093   535.0    3.764      43.119
2015    2       27     5   0    5.2100   534.8    3.767      43.100
2015    2       27     5   5    5.2107   534.5    3.769      43.081
2015    2       27     5  10    5.2113   534.3    3.772      43.062
2015    2       27     5  15    5.2121   534.1    3.774      43.042
2015    2       27     5  20    5.2127   533.8    3.777      43.022
2015    2       27     5  26    5.2136   533.6    3.779      43.002
2015    2       27     5  31    5.2143   533.4    3.782      42.981
2015    2       27     5  36    5.2151   533.2    3.784      42.960
2015    2       27     5  41    5.2159   532.9    3.787      42.939
2015    2       27     5  46    5.2167   532.7    3.789      42.918
2015    2       27     5  52    5.2176   532.5    3.792      42.897
2015    2       27     5  57    5.2184   532.2    3.794      42.875
2015    2       27     6   2    5.2192   532.0    3.797      42.853
2015    2       27     6   7    5.2200   531.8    3.799      42.831
2015    2       27     6  12    5.2210   531.5    3.802      42.809
2015    2       27     6  18    5.2219   531.3    3.804      42.787
2015    2       27     6  23    5.2228   531.1    3.807      42.765
2015    2       27     6  28    5.2237   530.9    3.809      42.743
2015    2       27     6  33    5.2247   530.6    3.812      42.721
2015    2       27     6  38    5.2256   530.4    3.814      42.699
2015    2       27     6  44    5.2267   530.2    3.817      42.677
2015    2       27     6  49    5.2276   529.9    3.819      42.655
2015    2       27     6  54    5.2287   529.7    3.822      42.634
2015    2       27     6  59    5.2296   529.5    3.825      42.612
2015    2       27     7   4    5.2306   529.2    3.827      42.591
2015    2       27     7  10    5.2319   529.0    3.830      42.570
2015    2       27     7  15    5.2329   528.8    3.833      42.549
2015    2       27     7  20    5.2341   528.6    3.836      42.529
2015    2       27     7  25    5.2353   528.3    3.839      42.508
2015    2       27     7  30    5.2364   528.1    3.842      42.488
2015    2       27     7  36    5.2376   527.9    3.845      42.469
2015    2       27     7  41    5.2388   527.6    3.848      42.449
2015    2       27     7  46    5.2401   527.4    3.851      42.430
2015    2       27     7  51    5.2413   527.2    3.854      42.411
2015    2       27     7  56    5.2426   527.0    3.857      42.393
2015    2       27     8   2    5.2439   526.7    3.861      42.374
2015    2       27     8   7    5.2452   526.5    3.864      42.356
2015    2       27     8  12    5.2465   526.3    3.868      42.339
2015    2       27     8  17    5.2479   526.0    3.871      42.322
2015    2       27     8  22    5.2492   525.8    3.875      42.305
2015    2       27     8  28    5.2506   525.6    3.878      42.288
2015    2       27     8  33    5.2520   525.4    3.882      42.272
2015    2       27     8  38    5.2535   525.1    3.886      42.256
2015    2       27     8  43    5.2549   524.9    3.890      42.241
2015    2       27     8  48    5.2563   524.7    3.894      42.226
2015    2       27     8  54    5.2579   524.5    3.898      42.211
2015    2       27     8  59    5.2593   524.2    3.902      42.197
2015    2       27     9   4    5.2608   524.0    3.906      42.183
2015    2       27     9   9    5.2623   523.8    3.911      42.170
2015    2       27     9  14    5.2641   523.6    3.915      42.157
2015    2       27     9  20    5.2656   523.3    3.919      42.144
2015    2       27     9  25    5.2673   523.1    3.924      42.132
2015    2       27     9  30    5.2688   522.9    3.929      42.121
2015    2       27     9  35    5.2706   522.7    3.933      42.110
2015    2       27     9  40    5.2723   522.4    3.938      42.099
2015    2       27     9  46    5.2740   522.2    3.943      42.090
2015    2       27     9  51    5.2757   522.0    3.948      42.080
2015    2       27     9  56    5.2774   521.8    3.953      42.072
2015    2       27    10   1    5.2793   521.5    3.958      42.063
2015    2       27    10   6    5.2811   521.3    3.963      42.056
2015    2       27    10  12    5.2830   521.1    3.969      42.048
2015    2       27    10  17    5.2848   520.9    3.974      42.042
2015    2       27    10  22    5.2867   520.6    3.979      42.036
2015    2       27    10  27    5.2887   520.4    3.985      42.030
2015    2       27    10  32    5.2905   520.2    3.990      42.025
2015    2       27    10  38    5.2926   520.0    3.996      42.020
2015    2       27    10  43    5.2944   519.8    4.001      42.015
2015    2       27    10  48    5.2965   519.6    4.007      42.010
2015    2       27    10  53    5.2984   519.4    4.013      42.006
2015    2       27    10  58    5.3006   519.1    4.018      42.002
2015    2       27    11   4    5.3026   518.9    4.024      41.999
2015    2       27    11   9    5.3047   518.7    4.029      41.995
2015    2       27    11  14    5.3066   518.5    4.035      41.992
2015    2       27    11  19    5.3089   518.3    4.040      41.989
2015    2       27    11  24    5.3110   518.1    4.046      41.986
2015    2       27    11  30    5.3131   517.9    4.051      41.982
2015    2       27    11  35    5.3151   517.7    4.057      41.979
2015    2       27    11  40    5.3174   517.4    4.062      41.975
2015    2       27    11  45    5.3195   517.2    4.067      41.972
2015    2       27    11  50    5.3217   517.0    4.072      41.968
2015    2       27    11  56    5.3237   516.8    4.078      41.964
2015    2       27    12   1    5.3259   516.6    4.083      41.960
2015    2       27    12   6    5.3283   516.4    4.088      41.956
2015    2       27    12  11    5.3305   516.2    4.093      41.951
2015    2       27    12  16    5.3328   516.0    4.098      41.947
2015    2       27    12  22    5.3350   515.8    4.103      41.941
2015    2       27    12  27    5.3373   515.6    4.108      41.936
2015    2       27    12  32    5.3396   515.4    4.113      41.930
2015    2       27    12  37    5.3418   515.2    4.118      41.924
2015    2       27    12  42    5.3443   515.0    4.123      41.918
2015    2       27    12  48    5.3467   514.7    4.128      41.911
2015    2       27    12  53    5.3490   514.5    4.133      41.904
2015    2       27    12  58    5.3514   514.3    4.138      41.897
2015    2       27    13   3    5.3538   514.1    4.142      41.889
2015    2       27    13   8    5.3562   514.0    4.147      41.881
2015    2       27    13  14    5.3587   513.8    4.152      41.873
2015    2       27    13  19    5.3611   513.6    4.157      41.865
2015    2       27    13  24    5.3636   513.4    4.161      41.856
2015    2       27    13  29    5.3659   513.2    4.166      41.848
2015    2       27    13  34    5.3685   513.0    4.171      41.839
2015    2       27    13  40    5.3711   512.8    4.175      41.830
2015    2       27    13  45    5.3736   512.6    4.180      41.820
2015    2       27    13  50    5.3759   512.4    4.185      41.811
2015    2       27    13  55    5.3786   512.2    4.189      41.801
2015    2       27    14   0    5.3812   512.0    4.194      41.791
2015    2       27    14   6    5.3837   511.8    4.198      41.781
2015    2       27    14  11    5.3863   511.6    4.203      41.771
2015    2       27    14  16    5.3887   511.5    4.208      41.761
2015    2       27    14  21    5.3914   511.3    4.212      41.751
2015    2       27    14  26    5.3940   511.1    4.217      41.741
2015    2       27    14  32    5.3966   510.9    4.221      41.730
2015    2       27    14  37    5.3992   510.7    4.226      41.720
2015    2       27    14  42    5.4019   510.5    4.231      41.710
2015    2       27    14  47    5.4045   510.3    4.235      41.700
2015    2       27    14  52    5.4071   510.2    4.240      41.690
2015    2       27    14  58    5.4097   510.0    4.245      41.680
2015    2       27    15   3    5.4124   509.8    4.249      41.670
2015    2       27    15   8    5.4150   509.6    4.254      41.660
2015    2       27    15  13    5.4175   509.4    4.259      41.651
2015    2       27    15  18    5.4204   509.2    4.264      41.641
2015    2       27    15  24    5.4230   509.0    4.269      41.632
2015    2       27    15  29    5.4257   508.9    4.274      41.623
2015    2       27    15  34    5.4284   508.7    4.279      41.614
2015    2       27    15  39    5.4311   508.5    4.284      41.606
2015    2       27    15  44    5.4338   508.3    4.289      41.598
2015    2       27    15  50    5.4366   508.1    4.294      41.591
2015    2       27    15  55    5.4393   508.0    4.299      41.584
2015    2       27    16   0    5.4420   507.8    4.304      41.577
2015    2       27    16   5    5.4448   507.6    4.310      41.571
2015    2       27    16  10    5.4476   507.4    4.315      41.566
2015    2       27    16  16    5.4504   507.2    4.321      41.560
2015    2       27    16  21    5.4532   507.0    4.327      41.556
2015    2       27    16  26    5.4560   506.9    4.332      41.552
2015    2       27    16  31    5.4588   506.7    4.338      41.549
2015    2       27    16  36    5.4616   506.5    4.344      41.547
2015    2       27    16  42    5.4645   506.3    4.350      41.546
2015    2       27    16  47    5.4674   506.2    4.356      41.546
2015    2       27    16  52    5.4703   506.0    4.362      41.546
2015    2       27    16  57    5.4732   505.8    4.368      41.547
2015    2       27    17   2    5.4761   505.7    4.374      41.549
2015    2       27    17   8    5.4790   505.5    4.380      41.551
2015    2       27    17  13    5.4820   505.3    4.386      41.554
2015    2       27    17  18    5.4850   505.2    4.392      41.557
2015    2       27    17  23    5.4880   505.0    4.398      41.561
2015    2       27    17  28    5.4910   504.8    4.404      41.565
2015    2       27    17  34    5.4939   504.7    4.410      41.570
2015    2       27    17  39    5.4969   504.5    4.416      41.575
2015    2       27    17  44    5.5000   504.3    4.423      41.580
2015    2       27    17  49    5.5031   504.2    4.429      41.586
2015    2       27    17  54    5.5060   504.0    4.435      41.591
2015    2       27    18   0    5.5091   503.9    4.441      41.596
2015    2       27    18   5    5.5123   503.7    4.447      41.602
2015    2       27    18  10    5.5154   503.6    4.453      41.607
2015    2       27    18  15    5.5185   503.4    4.459      41.613
2015    2       27    18  20    5.5216   503.3    4.465      41.618
2015    2       27    18  26    5.5246   503.1    4.471      41.624
2015    2       27    18  31    5.5278   503.0    4.477      41.630
2015    2       27    18  36    5.5310   502.8    4.483      41.635
2015    2       27    18  41    5.5342   502.7    4.489      41.641
2015    2       27    18  46    5.5372   502.5    4.495      41.647
2015    2       27    18  52    5.5405   502.4    4.501      41.652
2015    2       27    18  57    5.5436   502.2    4.507      41.657
2015    2       27    19   2    5.5469   502.1    4.513      41.663
2015    2       27    19   7    5.5501   501.9    4.519      41.668
2015    2       27    19  12    5.5533   501.8    4.525      41.673
2015    2       27    19  18    5.5565   501.7    4.531      41.678
2015    2       27    19  23    5.5598   501.5    4.536      41.683
2015    2       27    19  28    5.5630   501.4    4.542      41.688
2015    2       27    19  33    5.5663   501.2    4.548      41.693
2015    2       27    19  38    5.5696   501.1    4.554      41.698
2015    2       27    19  44    5.5728   501.0    4.559      41.703
2015    2       27    19  49    5.5762   500.8    4.565      41.707
2015    2       27    19  54    5.5795   500.7    4.571      41.712
2015    2       27    19  59    5.5828   500.6    4.576      41.716
2015    2       27    20   4    5.5862   500.4    4.582      41.720
2015    2       27    20  10    5.5895   500.3    4.588      41.724
2015    2       27    20  15    5.5929   500.2    4.594      41.729
2015    2       27    20  20    5.5963   500.0    4.599      41.733
2015    2       27    20  25    5.5995   499.9    4.605      41.737
2015    2       27    20  30    5.6029   499.8    4.611      41.741
2015    2       27    20  36    5.6064   499.7    4.616      41.745
2015    2       27    20  41    5.6098   499.6    4.622      41.749
2015    2       27    20  46    5.6131   499.4    4.628      41.753
2015    2       27    20  51    5.6165   499.3    4.633      41.757
2015    2       27    20  56    5.6199   499.2    4.639      41.761
2015    2       27    21   2    5.6232   499.1    4.645      41.765
2015    2       27    21   7    5.6266   499.0    4.650      41.769
2015    2       27    21  12    5.6300   498.9    4.656      41.773
2015    2       27    21  17    5.6333   498.7    4.662      41.777
2015    2       27    21  22    5.6367   498.6    4.667      41.781
2015    2       27    21  28    5.6400   498.5    4.673      41.785
2015    2       27    21  33    5.6433   498.4    4.679      41.789
2015    2       27    21  38    5.6467   498.3    4.684      41.794
2015    2       27    21  43    5.6500   498.2    4.690      41.798
2015    2       27    21  48    5.6533   498.1    4.696      41.802
2015    2       27    21  54    5.6567   498.0    4.701      41.807
2015    2       27    21  59    5.6600   497.9    4.707      41.811
2015    2       27    22   4    5.6633   497.8    4.713      41.816
2015    2       27    22   9    5.6666   497.6    4.718      41.821
2015    2       27    22  14    5.6699   497.5    4.724      41.826
2015    2       27    22  20    5.6732   497.4    4.730      41.831
2015    2       27    22  25    5.6765   497.3    4.736      41.836
2015    2       27    22  30    5.6799   497.2    4.741      41.842
2015    2       27    22  35    5.6832   497.1    4.747      41.847
2015    2       27    22  40    5.6865   497.0    4.753      41.853
2015    2       27    22  46    5.6898   496.9    4.759      41.860
2015    2       27    22  51    5.6931   496.8    4.765      41.867
2015    2       27    22  56    5.6964   496.7    4.771      41.874
2015    2       27    23   1    5.6998   496.6    4.777      41.881
2015    2       27    23   6    5.7031   496.5    4.783      41.889
2015    2       27    23  12    5.7064   496.4    4.789      41.898
2015    2       27    23  17    5.7098   496.3    4.795      41.907
2015    2       27    23  22    5.7131   496.2    4.801      41.916
2015    2       27    23  27    5.7165   496.1    4.807      41.926
2015    2       27    23  32    5.7199   496.0    4.813      41.937
2015    2       27    23  38    5.7232   495.9    4.820      41.948
2015    2       27    23  43    5.7266   495.8    4.826      41.960
2015    2       27    23  48    5.7300   495.7    4.832      41.973
2015    2       27    23  53    5.7334   495.6    4.838      41.986
2015    2       27    23  58    5.7368   495.5    4.844      42.000
2015    2       28     0   4    5.7402   495.4    4.850      42.015
2015    2       28     0   9    5.7435   495.3    4.856      42.030
2015    2       28     0  14    5.7470   495.2    4.862      42.045
2015    2       28     0  19    5.7504   495.1    4.868      42.061
2015    2       28     0  24    5.7538   495.1    4.874      42.077
2015    2       28     0  30    5.7572   495.0    4.880      42.093
2015    2       28     0  35    5.7607   494.9    4.886      42.109
2015    2       28     0  40    5.7641   494.8    4.891      42.126
2015    2       28     0  45    5.7675   494.7    4.897      42.142
2015    2       28     0  50    5.7710   494.6    4.902      42.158
2015    2       28     0  56    5.7744   494.5    4.908      42.174
2015    2       28     1   1    5.7779   494.5    4.913      42.190
2015    2       28     1   6    5.7813   494.4    4.918      42.206
2015    2       28     1  11    5.7847   494.3    4.924      42.221
2015    2       28     1  16    5.7882   494.2    4.929      42.235
2015    2       28     1  22    5.7917   494.1    4.934      42.250
2015    2       28     1  27    5.7952   494.1    4.939      42.264
2015    2       28     1  32    5.7987   494.0    4.944      42.278
2015    2       28     1  37    5.8022   493.9    4.949      42.291
2015    2       28     1  42    5.8057   493.8    4.954      42.305
2015    2       28     1  48    5.8092   493.7    4.960      42.318
2015    2       28     1  53    5.8127   493.7    4.964      42.331
2015    2       28     1  58    5.8162   493.6    4.969      42.344
2015    2       28     2   3    5.8197   493.5    4.974      42.356
2015    2       28     2   8    5.8233   493.4    4.979      42.369
2015    2       28     2  14    5.8268   493.4    4.984      42.382
2015    2       28     2  19    5.8304   493.3    4.989      42.394
2015    2       28     2  24    5.8339   493.2    4.994      42.407
2015    2       28     2  29    5.8375   493.2    4.999      42.419
2015    2       28     2  34    5.8410   493.1    5.004      42.432
2015    2       28     2  40    5.8446   493.0    5.008      42.445
2015    2       28     2  45    5.8481   493.0    5.013      42.458
2015    2       28     2  50    5.8517   492.9    5.018      42.471
2015    2       28     2  55    5.8552   492.8    5.023      42.484
2015    2       28     3   0    5.8588   492.8    5.027      42.497
2015    2       28     3   6    5.8624   492.7    5.032      42.510
2015    2       28     3  11    5.8659   492.7    5.037      42.524
2015    2       28     3  16    5.8694   492.6    5.041      42.538
2015    2       28     3  21    5.8730   492.5    5.046      42.552
2015    2       28     3  26    5.8765   492.5    5.050      42.566
2015    2       28     3  32    5.8800   492.4    5.055      42.580
2015    2       28     3  37    5.8835   492.4    5.059      42.594
2015    2       28     3  42    5.8870   492.3    5.064      42.609
2015    2       28     3  47    5.8905   492.3    5.068      42.623
2015    2       28     3  52    5.8940   492.2    5.073      42.638
2015    2       28     3  58    5.8975   492.2    5.077      42.653
2015    2       28     4   3    5.9009   492.1    5.082      42.668
2015    2       28     4   8    5.9044   492.1    5.086      42.683
2015    2       28     4  13    5.9078   492.0    5.091      42.698
2015    2       28     4  18    5.9113   492.0    5.095      42.713
2015    2       28     4  24    5.9147   491.9    5.099      42.728
2015    2       28     4  29    5.9181   491.9    5.104      42.743
2015    2       28     4  34    5.9215   491.8    5.108      42.759
2015    2       28     4  39    5.9248   491.8    5.112      42.774
2015    2       28     4  44    5.9282   491.7    5.117      42.789
2015    2       28     4  50    5.9316   491.7    5.121      42.805
2015    2       28     4  55    5.9349   491.7    5.125      42.820
2015    2       28     5   0    5.9382   491.6    5.129      42.835
2015    2       28     5   5    5.9415   491.6    5.134      42.851
2015    2       28     5  10    5.9448   491.5    5.138      42.866
2015    2       28     5  16    5.9482   491.5    5.142      42.882
2015    2       28     5  21    5.9514   491.4    5.146      42.897
2015    2       28     5  26    5.9547   491.4    5.150      42.913
2015    2       28     5  31    5.9580   491.3    5.154      42.928
2015    2       28     5  36    5.9612   491.3    5.159      42.944
2015    2       28     5  42    5.9645   491.3    5.163      42.959
2015    2       28     5  47    5.9678   491.2    5.167      42.975
2015    2       28     5  52    5.9711   491.2    5.171      42.991
2015    2       28     5  57    5.9743   491.1    5.175      43.007
2015    2       28     6   2    5.9776   491.1    5.179      43.024
2015    2       28     6   8    5.9809   491.1    5.183      43.040
2015    2       28     6  13    5.9842   491.0    5.188      43.057
2015    2       28     6  18    5.9874   491.0    5.192      43.074
2015    2       28     6  23    5.9908   490.9    5.196      43.091
2015    2       28     6  28    5.9940   490.9    5.200      43.108
2015    2       28     6  34    5.9973   490.9    5.205      43.126
2015    2       28     6  39    6.0006   490.8    5.209      43.144
2015    2       28     6  44    6.0039   490.8    5.213      43.163
2015    2       28     6  49    6.0072   490.7    5.217      43.181
2015    2       28     6  54    6.0106   490.7    5.221      43.201
2015    2       28     7   0    6.0139   490.7    5.226      43.221
2015    2       28     7   5    6.0172   490.6    5.230      43.241
2015    2       28     7  10    6.0204   490.6    5.234      43.261
2015    2       28     7  15    6.0237   490.6    5.238      43.282
2015    2       28     7  20    6.0270   490.6    5.242      43.303
2015    2       28     7  26    6.0303   490.5    5.246      43.323
2015    2       28     7  31    6.0336   490.5    5.250      43.344
2015    2       28     7  36    6.0369   490.5    5.255      43.366
2015    2       28     7  41    6.0401   490.4    5.259      43.387
2015    2       28     7  46    6.0435   490.4    5.262      43.408
2015    2       28     7  52    6.0467   490.4    5.266      43.429
2015    2       28     7  57    6.0500   490.3    5.270      43.450
2015    2       28     8   2    6.0533   490.3    5.274      43.471
2015    2       28     8   7    6.0566   490.3    5.278      43.491
2015    2       28     8  12    6.0598   490.2    5.282      43.512
2015    2       28     8  18    6.0631   490.2    5.286      43.532
2015    2       28     8  23    6.0665   490.2    5.290      43.552
2015    2       28     8  28    6.0697   490.2    5.294      43.572
2015    2       28     8  33    6.0730   490.1    5.298      43.593
2015    2       28     8  38    6.0764   490.1    5.302      43.613
2015    2       28     8  44    6.0797   490.1    5.306      43.633
2015    2       28     8  49    6.0831   490.0    5.310      43.652
2015    2       28     8  54    6.0864   490.0    5.314      43.672
2015    2       28     8  59    6.0898   490.0    5.318      43.693
2015    2       28     9   4    6.0932   490.0    5.322      43.713
2015    2       28     9  10    6.0966   489.9    5.327      43.734
2015    2       28     9  15    6.1000   489.9    5.331      43.756
2015    2       28     9  20    6.1034   489.9    5.335      43.777
2015    2       28     9  25    6.1068   489.9    5.339      43.799
2015    2       28     9  30    6.1102   489.9    5.343      43.822
2015    2       28     9  36    6.1136   489.8    5.347      43.844
2015    2       28     9  41    6.1170   489.8    5.351      43.867
2015    2       28     9  46    6.1204   489.8    5.355      43.890
2015    2       28     9  51    6.1238   489.8    5.359      43.913
2015    2       28     9  56    6.1272   489.8    5.363      43.937
2015    2       28    10   2    6.1306   489.8    5.366      43.960
2015    2       28    10   7    6.1340   489.8    5.370      43.984
2015    2       28    10  12    6.1373   489.8    5.373      44.007
2015    2       28    10  17    6.1407   489.7    5.377      44.031
2015    2       28    10  22    6.1441   489.7    5.380      44.054
2015    2       28    10  28    6.1474   489.7    5.383      44.078
2015    2       28    10  33    6.1508   489.7    5.387      44.101
2015    2       28    10  38    6.1541   489.7    5.390      44.124
2015    2       28    10  43    6.1575   489.7    5.393      44.147
2015    2       28    10  48    6.1608   489.7    5.396      44.169
2015    2       28    10  54    6.1642   489.7    5.399      44.192
2015    2       28    10  59    6.1676   489.7    5.401      44.215
2015    2       28    11   4    6.1709   489.7    5.404      44.237
2015    2       28    11   9    6.1742   489.7    5.407      44.259
2015    2       28    11  14    6.1776   489.7    5.410      44.282
2015    2       28    11  20    6.1810   489.7    5.412      44.304
2015    2       28    11  25    6.1843   489.7    5.415      44.326
2015    2       28    11  30    6.1877   489.7    5.417      44.348
2015    2       28    11  35    6.1910   489.7    5.420      44.370
2015    2       28    11  40    6.1944   489.7    5.422      44.392
2015    2       28    11  46    6.1978   489.7    5.425      44.414
2015    2       28    11  51    6.2012   489.7    5.427      44.436
2015    2       28    11  56    6.2046   489.7    5.430      44.459
2015    2       28    12   1    6.2080   489.7    5.432      44.481
2015    2       28    12   6    6.2114   489.7    5.434      44.503
2015    2       28    12  12    6.2147   489.8    5.437      44.525
2015    2       28    12  17    6.2181   489.8    5.439      44.547
2015    2       28    12  22    6.2216   489.8    5.441      44.570
2015    2       28    12  27    6.2250   489.8    5.444      44.592
2015    2       28    12  32    6.2284   489.8    5.446      44.615
2015    2       28    12  38    6.2318   489.8    5.448      44.637
2015    2       28    12  43    6.2352   489.8    5.451      44.660
2015    2       28    12  48    6.2386   489.8    5.453      44.683
2015    2       28    12  53    6.2420   489.8    5.455      44.706
2015    2       28    12  58    6.2454   489.8    5.458      44.730
2015    2       28    13   4    6.2488   489.8    5.460      44.753
2015    2       28    13   9    6.2522   489.8    5.462      44.777
2015    2       28    13  14    6.2556   489.8    5.465      44.801
2015    2       28    13  19    6.2590   489.9    5.467      44.826
2015    2       28    13  24    6.2623   489.9    5.469      44.850
2015    2       28    13  30    6.2657   489.9    5.472      44.875
2015    2       28    13  35    6.2691   489.9    5.474      44.900
2015    2       28    13  40    6.2724   489.9    5.476      44.926
2015    2       28    13  45    6.2757   489.9    5.479      44.951
2015    2       28    13  50    6.2791   489.9    5.481      44.976
2015    2       28    13  56    6.2824   490.0    5.483      45.002
2015    2       28    14   1    6.2856   490.0    5.486      45.028
2015    2       28    14   6    6.2889   490.0    5.488      45.054
2015    2       28    14  11    6.2922   490.0    5.490      45.080
2015    2       28    14  16    6.2954   490.0    5.493      45.106
2015    2       28    14  22    6.2986   490.1    5.495      45.132
2015    2       28    14  27    6.3018   490.1    5.497      45.157
2015    2       28    14  32    6.3050   490.1    5.499      45.183
2015    2       28    14  37    6.3081   490.1    5.501      45.209
2015    2       28    14  42    6.3113   490.1    5.504      45.235
2015    2       28    14  48    6.3144   490.1    5.506      45.261
2015    2       28    14  53    6.3175   490.2    5.508      45.287
2015    2       28    14  58    6.3206   490.2    5.510      45.313
2015    2       28    15   3    6.3238   490.2    5.512      45.340
2015    2       28    15   8    6.3268   490.2    5.514      45.366
2015    2       28    15  14    6.3299   490.2    5.517      45.392
2015    2       28    15  19    6.3330   490.2    5.519      45.418
2015    2       28    15  24    6.3361   490.3    5.521      45.445
2015    2       28    15  29    6.3392   490.3    5.523      45.471
2015    2       28    15  34    6.3423   490.3    5.526      45.498
2015    2       28    15  40    6.3453   490.3    5.528      45.526
2015    2       28    15  45    6.3484   490.3    5.530      45.553
2015    2       28    15  50    6.3515   490.3    5.533      45.581
2015    2       28    15  55    6.3545   490.4    5.535      45.608
2015    2       28    16   0    6.3576   490.4    5.538      45.637
2015    2       28    16   6    6.3607   490.4    5.541      45.666
2015    2       28    16  11    6.3638   490.4    5.543      45.695
2015    2       28    16  16    6.3669   490.4    5.546      45.725
2015    2       28    16  21    6.3700   490.5    5.549      45.756
2015    2       28    16  26    6.3732   490.5    5.551      45.788
2015    2       28    16  32    6.3763   490.5    5.554      45.820
2015    2       28    16  37    6.3795   490.5    5.557      45.853
2015    2       28    16  42    6.3826   490.6    5.559      45.886
2015    2       28    16  47    6.3858   490.6    5.562      45.920
2015    2       28    16  52    6.3890   490.6    5.565      45.954
2015    2       28    16  58    6.3921   490.6    5.567      45.989
2015    2       28    17   3    6.3954   490.7    5.570      46.024
2015    2       28    17   8    6.3985   490.7    5.572      46.059
2015    2       28    17  13    6.4017   490.8    5.575      46.095
2015    2       28    17  18    6.4049   490.8    5.577      46.130
2015    2       28    17  24    6.4082   490.8    5.579      46.166
2015    2       28    17  29    6.4114   490.9    5.582      46.202
2015    2       28    17  34    6.4147   490.9    5.584      46.238
2015    2       28    17  39    6.4179   490.9    5.586      46.273
2015    2       28    17  44    6.4212   491.0    5.588      46.309
2015    2       28    17  50    6.4245   491.0    5.591      46.344
2015    2       28    17  55    6.4278   491.1    5.593      46.380
2015    2       28    18   0    6.4312   491.1    5.595      46.415
2015    2       28    18   5    6.4345   491.2    5.597      46.450
2015    2       28    18  10    6.4379   491.2    5.599      46.484
2015    2       28    18  16    6.4414   491.3    5.601      46.519
2015    2       28    18  21    6.4448   491.3    5.603      46.554
2015    2       28    18  26    6.4483   491.4    5.605      46.589
2015    2       28    18  31    6.4518   491.4    5.607      46.624
2015    2       28    18  36    6.4554   491.5    5.610      46.658
2015    2       28    18  42    6.4590   491.5    5.612      46.693
2015    2       28    18  47    6.4626   491.6    5.614      46.728
2015    2       28    18  52    6.4663   491.6    5.617      46.764
2015    2       28    18  57    6.4700   491.7    5.619      46.800
2015    2       28    19   2    6.4738   491.7    5.622      46.836
2015    2       28    19   8    6.4776   491.8    5.625      46.873
2015    2       28    19  13    6.4815   491.8    5.628      46.910
2015    2       28    19  18    6.4854   491.9    5.631      46.948
2015    2       28    19  23    6.4892   492.0    5.634      46.988
2015    2       28    19  28    6.4931   492.0    5.637      47.029
2015    2       28    19  34    6.4970   492.1    5.641      47.071
2015    2       28    19  39    6.5009   492.2    5.644      47.114
2015    2       28    19  44    6.5048   492.2    5.647      47.159
2015    2       28    19  49    6.5086   492.3    5.650      47.203
2015    2       28    19  54    6.5124   492.4    5.653      47.249
2015    2       28    20   0    6.5162   492.5    5.656      47.294
2015    2       28    20   5    6.5199   492.6    5.659      47.339
2015    2       28    20  10    6.5236   492.7    5.661      47.384
2015    2       28    20  15    6.5272   492.7    5.664      47.430
2015    2       28    20  20    6.5308   492.8    5.666      47.475
2015    2       28    20  26    6.5342   492.9    5.668      47.520
2015    2       28    20  31    6.5377   493.0    5.670      47.565
2015    2       28    20  36    6.5411   493.1    5.672      47.609
2015    2       28    20  41    6.5444   493.2    5.673      47.651
2015    2       28    20  46    6.5476   493.3    5.675      47.694
2015    2       28    20  52    6.5508   493.4    5.676      47.735
2015    2       28    20  57    6.5540   493.4    5.677      47.776
2015    2       28    21   2    6.5571   493.5    5.678      47.816
2015    2       28    21   7    6.5601   493.6    5.679      47.855
2015    2       28    21  12    6.5632   493.7    5.679      47.894
2015    2       28    21  18    6.5661   493.8    5.680      47.931
2015    2       28    21  23    6.5690   493.9    5.680      47.968
2015    2       28    21  28    6.5719   494.0    5.680      48.005
2015    2       28    21  33    6.5747   494.0    5.680      48.041
2015    2       28    21  38    6.5775   494.1    5.681      48.076
2015    2       28    21  44    6.5804   494.2    5.681      48.111
2015    2       28    21  49    6.5831   494.3    5.681      48.145
2015    2       28    21  54    6.5858   494.4    5.680      48.179
2015    2       28    21  59    6.5885   494.4    5.680      48.213
2015    2       28    22   4    6.5912   494.5    5.680      48.247
2015    2       28    22  10    6.5938   494.6    5.680      48.280
2015    2       28    22  15    6.5964   494.7    5.680      48.314
2015    2       28    22  20    6.5990   494.8    5.679      48.347
2015    2       28    22  25    6.6016   494.9    5.679      48.380
2015    2       28    22  30    6.6041   494.9    5.679      48.414
2015    2       28    22  36    6.6067   495.0    5.678      48.447
2015    2       28    22  41    6.6093   495.1    5.678      48.481
2015    2       28    22  46    6.6118   495.2    5.678      48.514
2015    2       28    22  51    6.6144   495.3    5.678      48.548
2015    2       28    22  56    6.6168   495.3    5.677      48.582
2015    2       28    23   2    6.6193   495.4    5.677      48.616
2015    2       28    23   7    6.6218   495.5    5.677      48.651
2015    2       28    23  12    6.6244   495.6    5.677      48.686
2015    2       28    23  17    6.6269   495.7    5.676      48.721
2015    2       28    23  22    6.6294   495.8    5.676      48.757
2015    2       28    23  28    6.6319   495.8    5.676      48.793
2015    2       28    23  33    6.6344   495.9    5.676      48.829
2015    2       28    23  38    6.6369   496.0    5.676      48.866
2015    2       28    23  43    6.6395   496.1    5.676      48.904
2015    2       28    23  48    6.6420   496.2    5.676      48.942
2015    2       28    23  54    6.6445   496.3    5.676      48.980
2015    2       28    23  59    6.6471   496.4    5.676      49.019
2015    3        1     0   4    6.6498   496.5    5.676      49.059
2015    3        1     0   9    6.6522   496.6    5.676      49.099
2015    3        1     0  14    6.6550   496.6    5.676      49.139
2015    3        1     0  20    6.6575   496.7    5.676      49.180
2015    3        1     0  25    6.6601   496.8    5.676      49.222
2015    3        1     0  30    6.6628   496.9    5.677      49.264
2015    3        1     0  35    6.6655   497.0    5.677      49.307
2015    3        1     0  40    6.6683   497.1    5.677      49.350
2015    3        1     0  46    6.6710   497.2    5.678      49.393
2015    3        1     0  51    6.6738   497.3    5.678      49.438
2015    3        1     0  56    6.6768   497.4    5.679      49.482
2015    3        1     1   1    6.6797   497.5    5.679      49.528
2015    3        1     1   7    6.6825   497.6    5.680      49.573
2015    3        1     1  12    6.6855   497.7    5.681      49.620
2015    3        1     1  17    6.6885   497.8    5.682      49.667
2015    3        1     1  22    6.6916   497.9    5.683      49.715
2015    3        1     1  27    6.6947   498.0    5.684      49.763
2015    3        1     1  32    6.6980   498.1    5.686      49.813
2015    3        1     1  38    6.7011   498.2    5.687      49.863
2015    3        1     1  43    6.7044   498.3    5.689      49.915
2015    3        1     1  48    6.7079   498.4    5.692      49.968
2015    3        1     1  53    6.7114   498.5    5.694      50.022
2015    3        1     1  59    6.7149   498.6    5.697      50.078
2015    3        1     2   4    6.7185   498.7    5.700      50.136
2015    3        1     2   9    6.7221   498.9    5.704      50.195
2015    3        1     2  14    6.7259   499.0    5.707      50.257
2015    3        1     2  19    6.7298   499.1    5.712      50.321
2015    3        1     2  24    6.7336   499.2    5.716      50.387
2015    3        1     2  30    6.7376   499.3    5.721      50.454
2015    3        1     2  35    6.7416   499.5    5.727      50.525
2015    3        1     2  40    6.7455   499.6    5.732      50.599
2015    3        1     2  45    6.7496   499.7    5.738      50.677
2015    3        1     2  51    6.7535   499.9    5.744      50.758
2015    3        1     2  56    6.7575   500.0    5.750      50.841
2015    3        1     3   1    6.7613   500.2    5.756      50.927
2015    3        1     3   6    6.7651   500.3    5.762      51.014
2015    3        1     3  11    6.7689   500.5    5.767      51.102
2015    3        1     3  17    6.7725   500.6    5.772      51.190
2015    3        1     3  22    6.7761   500.8    5.777      51.278
2015    3        1     3  27    6.7795   501.0    5.782      51.365
2015    3        1     3  32    6.7829   501.2    5.786      51.451
2015    3        1     3  37    6.7861   501.3    5.790      51.537
2015    3        1     3  43    6.7893   501.5    5.793      51.621
2015    3        1     3  48    6.7922   501.7    5.796      51.703
2015    3        1     3  53    6.7951   501.9    5.799      51.783
2015    3        1     3  58    6.7979   502.1    5.801      51.859
2015    3        1     4   3    6.8006   502.2    5.802      51.933
2015    3        1     4   9    6.8032   502.4    5.803      52.004
2015    3        1     4  14    6.8057   502.6    5.804      52.073
2015    3        1     4  19    6.8082   502.8    5.804      52.139
2015    3        1     4  24    6.8105   502.9    5.804      52.203
2015    3        1     4  29    6.8128   503.1    5.803      52.265
2015    3        1     4  35    6.8151   503.3    5.803      52.324
2015    3        1     4  40    6.8172   503.5    5.802      52.382
2015    3        1     4  45    6.8193   503.6    5.800      52.437
2015    3        1     4  50    6.8214   503.8    5.799      52.491
2015    3        1     4  55    6.8235   504.0    5.797      52.543
2015    3        1     5   1    6.8255   504.1    5.795      52.593
2015    3        1     5   6    6.8274   504.3    5.793      52.642
2015    3        1     5  11    6.8294   504.5    5.791      52.690
2015    3        1     5  16    6.8312   504.7    5.789      52.736
2015    3        1     5  21    6.8331   504.8    5.786      52.781
2015    3        1     5  27    6.8350   505.0    5.783      52.825
2015    3        1     5  32    6.8368   505.2    5.781      52.868
2015    3        1     5  37    6.8386   505.3    5.778      52.910
2015    3        1     5  42    6.8403   505.5    5.775      52.951
2015    3        1     5  47    6.8421   505.7    5.772      52.992
2015    3        1     5  53    6.8438   505.8    5.768      53.032
2015    3        1     5  58    6.8455   506.0    5.765      53.071
2015    3        1     6   3    6.8472   506.2    5.762      53.110
2015    3        1     6   8    6.8489   506.3    5.759      53.148
2015    3        1     6  13    6.8506   506.5    5.755      53.187
2015    3        1     6  19    6.8522   506.6    5.752      53.225
2015    3        1     6  24    6.8539   506.8    5.749      53.263
2015    3        1     6  29    6.8555   507.0    5.745      53.300
2015    3        1     6  34    6.8571   507.1    5.742      53.338
2015    3        1     6  39    6.8587   507.3    5.739      53.376
2015    3        1     6  45    6.8604   507.5    5.736      53.413
2015    3        1     6  50    6.8620   507.6    5.732      53.451
2015    3        1     6  55    6.8636   507.8    5.729      53.489
2015    3        1     7   0    6.8652   507.9    5.726      53.527
2015    3        1     7   5    6.8668   508.1    5.723      53.566
2015    3        1     7  11    6.8684   508.3    5.720      53.605
2015    3        1     7  16    6.8700   508.4    5.717      53.645
2015    3        1     7  21    6.8717   508.6    5.714      53.684
2015    3        1     7  26    6.8733   508.7    5.711      53.725
2015    3        1     7  31    6.8750   508.9    5.709      53.767
2015    3        1     7  37    6.8767   509.1    5.706      53.809
2015    3        1     7  42    6.8784   509.2    5.704      53.852
2015    3        1     7  47    6.8802   509.4    5.701      53.896
2015    3        1     7  52    6.8820   509.6    5.699      53.941
2015    3        1     7  57    6.8838   509.7    5.697      53.987
2015    3        1     8   3    6.8857   509.9    5.695      54.034
2015    3        1     8   8    6.8876   510.1    5.693      54.082
2015    3        1     8  13    6.8896   510.2    5.691      54.131
2015    3        1     8  18    6.8917   510.4    5.690      54.181
2015    3        1     8  23    6.8938   510.6    5.688      54.232
2015    3        1     8  29    6.8960   510.8    5.687      54.284
2015    3        1     8  34    6.8982   510.9    5.687      54.338
2015    3        1     8  39    6.9006   511.1    5.686      54.394
2015    3        1     8  44    6.9030   511.3    5.686      54.451
2015    3        1     8  49    6.9056   511.4    5.686      54.510
2015    3        1     8  55    6.9082   511.6    5.686      54.571
2015    3        1     9   0    6.9110   511.8    5.687      54.635
2015    3        1     9   5    6.9139   512.0    5.688      54.699
2015    3        1     9  10    6.9169   512.1    5.690      54.767
2015    3        1     9  15    6.9200   512.3    5.693      54.839
2015    3        1     9  21    6.9232   512.5    5.695      54.916
2015    3        1     9  26    6.9264   512.7    5.698      54.998
2015    3        1     9  31    6.9297   512.9    5.702      55.083
2015    3        1     9  36    6.9329   513.2    5.705      55.172
2015    3        1     9  41    6.9362   513.4    5.709      55.266
2015    3        1     9  47    6.9395   513.6    5.713      55.361
2015    3        1     9  52    6.9427   513.8    5.717      55.458
2015    3        1     9  57    6.9458   514.1    5.722      55.558
2015    3        1    10   2    6.9489   514.3    5.726      55.660
2015    3        1    10   7    6.9518   514.6    5.730      55.764
2015    3        1    10  13    6.9547   514.9    5.734      55.870
2015    3        1    10  18    6.9574   515.1    5.737      55.979
2015    3        1    10  23    6.9598   515.4    5.740      56.087
2015    3        1    10  28    6.9622   515.7    5.743      56.195
2015    3        1    10  33    6.9645   516.0    5.746      56.301
2015    3        1    10  39    6.9667   516.2    5.748      56.407
2015    3        1    10  44    6.9687   516.5    5.750      56.510
2015    3        1    10  49    6.9705   516.8    5.751      56.612
2015    3        1    10  54    6.9722   517.1    5.752      56.713
2015    3        1    10  59    6.9739   517.3    5.753      56.813
2015    3        1    11   5    6.9755   517.6    5.753      56.911
2015    3        1    11  10    6.9769   517.9    5.753      57.008
2015    3        1    11  15    6.9783   518.2    5.753      57.101
2015    3        1    11  20    6.9798   518.5    5.752      57.193
2015    3        1    11  25    6.9809   518.7    5.751      57.283
2015    3        1    11  31    6.9822   519.0    5.750      57.371
2015    3        1    11  36    6.9832   519.3    5.749      57.457
2015    3        1    11  41    6.9844   519.6    5.747      57.542
2015    3        1    11  46    6.9854   519.9    5.745      57.625
2015    3        1    11  51    6.9864   520.2    5.743      57.707
2015    3        1    11  57    6.9875   520.5    5.740      57.788
2015    3        1    12   2    6.9886   520.8    5.738      57.867
2015    3        1    12   7    6.9895   521.0    5.735      57.945
2015    3        1    12  12    6.9904   521.3    5.732      58.022
2015    3        1    12  17    6.9914   521.6    5.729      58.098
2015    3        1    12  23    6.9922   521.9    5.726      58.173
2015    3        1    12  28    6.9931   522.2    5.722      58.247
2015    3        1    12  33    6.9940   522.5    5.719      58.319
2015    3        1    12  38    6.9948   522.8    5.715      58.390
2015    3        1    12  43    6.9957   523.1    5.711      58.460
2015    3        1    12  49    6.9963   523.4    5.707      58.529
2015    3        1    12  54    6.9970   523.7    5.702      58.597
2015    3        1    12  59    6.9977   524.0    5.698      58.663
2015    3        1    13   4    6.9982   524.3    5.693      58.728
2015    3        1    13   9    6.9987   524.6    5.688      58.791
2015    3        1    13  15    6.9992   524.9    5.683      58.853
2015    3        1    13  20    6.9995   525.2    5.677      58.914
2015    3        1    13  25    6.9999   525.5    5.672      58.974
2015    3        1    13  30    7.0000   525.8    5.666      59.033
2015    3        1    13  35    7.0002   526.1    5.660      59.090
2015    3        1    13  41    7.0003   526.4    5.654      59.146
2015    3        1    13  46    7.0003   526.7    5.647      59.201
2015    3        1    13  51    7.0003   527.1    5.641      59.255
2015    3        1    13  56    7.0001   527.4    5.634      59.308
2015    3        1    14   1    7.0000   527.7    5.627      59.359
2015    3        1    14   7    6.9998   528.0    5.621      59.410
2015    3        1    14  12    6.9995   528.3    5.613      59.459
2015    3        1    14  17    6.9992   528.6    5.606      59.508
2015    3        1    14  22    6.9989   528.9    5.599      59.556
2015    3        1    14  27    6.9985   529.2    5.592      59.602
2015    3        1    14  33    6.9981   529.4    5.585      59.649
2015    3        1    14  38    6.9978   529.7    5.577      59.694
2015    3        1    14  43    6.9974   530.0    5.570      59.740
2015    3        1    14  48    6.9970   530.3    5.563      59.786
2015    3        1    14  53    6.9966   530.6    5.556      59.832
2015    3        1    14  59    6.9962   530.9    5.549      59.879
2015    3        1    15   4    6.9959   531.2    5.541      59.926
2015    3        1    15   9    6.9954   531.5    5.534      59.973
2015    3        1    15  14    6.9950   531.7    5.527      60.021
2015    3        1    15  19    6.9947   532.0    5.520      60.069
2015    3        1    15  25    6.9943   532.3    5.513      60.118
2015    3        1    15  30    6.9940   532.6    5.506      60.167
2015    3        1    15  35    6.9936   532.9    5.500      60.216
2015    3        1    15  40    6.9933   533.2    5.493      60.266
2015    3        1    15  45    6.9930   533.5    5.486      60.317
2015    3        1    15  51    6.9929   533.8    5.480      60.368
2015    3        1    15  56    6.9924   534.1    5.474      60.420
2015    3        1    16   1    6.9924   534.3    5.468      60.472
2015    3        1    16   6    6.9918   534.6    5.462      60.526
2015    3        1    16  11    6.9916   534.9    5.456      60.580
2015    3        1    16  17    6.9917   535.2    5.450      60.636
2015    3        1    16  22    6.9915   535.5    5.445      60.692
2015    3        1    16  27    6.9914   535.8    5.440      60.748
2015    3        1    16  32    6.9909   536.1    5.436      60.806
2015    3        1    16  37    6.9906   536.4    5.431      60.866
2015    3        1    16  43    6.9907   536.7    5.427      60.929
2015    3        1    16  48    6.9899   537.0    5.423      60.994
2015    3        1    16  53    6.9895   537.3    5.419      61.061
2015    3        1    16  58    6.9889   537.6    5.415      61.129
2015    3        1    17   3    6.9883   537.9    5.411      61.198
2015    3        1    17   9    6.9875   538.3    5.406      61.268
2015    3        1    17  14    6.9866   538.6    5.402      61.338
2015    3        1    17  19    6.9855   538.9    5.398      61.407
2015    3        1    17  24    6.9848   539.3    5.393      61.477
2015    3        1    17  29    6.9835   539.6    5.388      61.546
2015    3        1    17  35    6.9815   540.0    5.383      61.616
2015    3        1    17  40    6.9799   540.3    5.378      61.686
2015    3        1    17  45    6.9786   540.6    5.372      61.755
2015    3        1    17  50    6.9762   541.0    5.366      61.822
2015    3        1    17  55    6.9742   541.3    5.360      61.889
2015    3        1    18   1    6.9726   541.7    5.354      61.955
2015    3        1    18   6    6.9699   542.0    5.348      62.020
2015    3        1    18  11    6.9681   542.4    5.342      62.086
2015    3        1    18  16    6.9652   542.7    5.335      62.151
2015    3        1    18  21    6.9627   543.0    5.328      62.215
2015    3        1    18  27    6.9601   543.4    5.322      62.279
2015    3        1    18  32    6.9580   543.7    5.315      62.343
2015    3        1    18  37    6.9548   544.1    5.308      62.406
2015    3        1    18  42    6.9520   544.4    5.301      62.468
2015    3        1    18  47    6.9497   544.8    5.294      62.530
2015    3        1    18  53    6.9463   545.1    5.287      62.590
2015    3        1    18  58    6.9433   545.5    5.280      62.650
2015    3        1    19   3    6.9403   545.8    5.273      62.710
2015    3        1    19   8    6.9373   546.1    5.266      62.769
2015    3        1    19  13    6.9342   546.5    5.259      62.827
2015    3        1    19  19    6.9311   546.8    5.252      62.884
2015    3        1    19  24    6.9280   547.1    5.245      62.940
2015    3        1    19  29    6.9248   547.5    5.237      62.996
2015    3        1    19  34    6.9216   547.8    5.230      63.052
2015    3        1    19  39    6.9190   548.2    5.223      63.107
2015    3        1    19  45    6.9151   548.5    5.215      63.162
2015    3        1    19  50    6.9119   548.8    5.207      63.217
2015    3        1    19  55    6.9085   549.2    5.200      63.271
2015    3        1    20   0    6.9052   549.5    5.192      63.324
2015    3        1    20   5    6.9018   549.9    5.184      63.378
2015    3        1    20  11    6.8989   550.2    5.176      63.431
2015    3        1    20  16    6.8949   550.5    5.168      63.483
2015    3        1    20  21    6.8914   550.9    5.160      63.536
2015    3        1    20  26    6.8877   551.2    5.152      63.588
2015    3        1    20  31    6.8841   551.6    5.144      63.639
2015    3        1    20  37    6.8809   551.9    5.136      63.689
2015    3        1    20  42    6.8766   552.3    5.127      63.738
2015    3        1    20  47    6.8727   552.6    5.119      63.786
2015    3        1    20  52    6.8693   553.0    5.110      63.832
2015    3        1    20  57    6.8652   553.3    5.101      63.878
2015    3        1    21   3    6.8606   553.7    5.092      63.922
2015    3        1    21   8    6.8564   554.0    5.083      63.964
2015    3        1    21  13    6.8522   554.4    5.073      64.005
2015    3        1    21  18    6.8479   554.7    5.064      64.044
2015    3        1    21  23    6.8435   555.1    5.054      64.081
2015    3        1    21  29    6.8391   555.4    5.045      64.117
2015    3        1    21  34    6.8346   555.8    5.035      64.150
2015    3        1    21  39    6.8301   556.1    5.025      64.181
2015    3        1    21  44    6.8261   556.4    5.015      64.210
2015    3        1    21  49    6.8210   556.8    5.005      64.238
2015    3        1    21  55    6.8169   557.1    4.995      64.263
2015    3        1    22   0    6.8122   557.4    4.985      64.286
2015    3        1    22   5    6.8071   557.8    4.975      64.308
2015    3        1    22  10    6.8029   558.1    4.964      64.328
2015    3        1    22  15    6.7977   558.4    4.954      64.347
2015    3        1    22  21    6.7930   558.8    4.943      64.365
2015    3        1    22  26    6.7886   559.1    4.933      64.382
2015    3        1    22  31    6.7834   559.4    4.922      64.397
2015    3        1    22  36    6.7785   559.7    4.912      64.412
2015    3        1    22  41    6.7740   560.0    4.901      64.426
2015    3        1    22  47    6.7691   560.4    4.891      64.439
2015    3        1    22  52    6.7637   560.7    4.880      64.452
2015    3        1    22  57    6.7587   561.0    4.869      64.464
2015    3        1    23   2    6.7541   561.3    4.859      64.475
2015    3        1    23   7    6.7486   561.6    4.849      64.486
2015    3        1    23  13    6.7435   561.9    4.838      64.497
2015    3        1    23  18    6.7383   562.2    4.828      64.508
2015    3        1    23  23    6.7336   562.5    4.818      64.519
2015    3        1    23  28    6.7280   562.7    4.808      64.529
2015    3        1    23  33    6.7227   563.0    4.797      64.540
2015    3        1    23  39    6.7180   563.3    4.787      64.550
2015    3        1    23  44    6.7121   563.6    4.777      64.560
2015    3        1    23  49    6.7068   563.9    4.767      64.569
2015    3        1    23  54    6.7013   564.2    4.757      64.578
2015    3        1    23  59    6.6964   564.5    4.747      64.586
2015    3        2     0   5    6.6908   564.8    4.737      64.593
