year    month   day   hour  minute  B_enl V_enl   n_enl       T_enl
[year] [month] [day] [hour][minute] [nT]  [km/s]  [cm-3]      [kK]
2015    2       27     0   0    5.8863   679.2    3.107      70.816
2015    2       27     0   5    5.8829   679.2    3.104      70.786
2015    2       27     0  10    5.8796   679.3    3.101      70.755
2015    2       27     0  16    5.8764   679.3    3.099      70.725
2015    2       27     0  21    5.8731   679.3    3.096      70.694
2015    2       27     0  26    5.8699   679.3    3.093      70.663
2015    2       27     0  31    5.8668   679.3    3.090      70.632
2015    2       27     0  37    5.8634   679.3    3.088      70.601
2015    2       27     0  42    5.8602   679.3    3.085      70.570
2015    2       27     0  47    5.8570   679.3    3.082      70.538
2015    2       27     0  52    5.8538   679.3    3.080      70.506
2015    2       27     0  58    5.8506   679.4    3.077      70.475
2015    2       27     1   3    5.8474   679.4    3.075      70.443
2015    2       27     1   8    5.8442   679.4    3.072      70.411
2015    2       27     1  13    5.8410   679.4    3.069      70.379
2015    2       27     1  19    5.8378   679.4    3.067      70.348
2015    2       27     1  24    5.8346   679.4    3.064      70.316
2015    2       27     1  29    5.8315   679.4    3.062      70.284
2015    2       27     1  34    5.8283   679.4    3.060      70.253
2015    2       27     1  40    5.8251   679.4    3.057      70.221
2015    2       27     1  45    5.8219   679.4    3.055      70.190
2015    2       27     1  50    5.8188   679.4    3.053      70.158
2015    2       27     1  55    5.8156   679.4    3.050      70.127
2015    2       27     2   1    5.8124   679.4    3.048      70.096
2015    2       27     2   6    5.8092   679.4    3.046      70.065
2015    2       27     2  11    5.8062   679.4    3.044      70.034
2015    2       27     2  16    5.8029   679.3    3.042      70.004
2015    2       27     2  22    5.7997   679.3    3.040      69.974
2015    2       27     2  27    5.7967   679.3    3.038      69.944
2015    2       27     2  32    5.7934   679.3    3.036      69.914
2015    2       27     2  37    5.7902   679.3    3.034      69.884
2015    2       27     2  43    5.7871   679.3    3.032      69.855
2015    2       27     2  48    5.7838   679.3    3.030      69.826
2015    2       27     2  53    5.7806   679.3    3.029      69.797
2015    2       27     2  58    5.7775   679.3    3.027      69.769
2015    2       27     3   4    5.7743   679.3    3.025      69.740
2015    2       27     3   9    5.7712   679.2    3.023      69.713
2015    2       27     3  14    5.7680   679.2    3.022      69.685
2015    2       27     3  19    5.7649   679.2    3.020      69.657
2015    2       27     3  25    5.7617   679.2    3.019      69.630
2015    2       27     3  30    5.7586   679.2    3.017      69.603
2015    2       27     3  35    5.7554   679.2    3.015      69.576
2015    2       27     3  41    5.7523   679.1    3.014      69.550
2015    2       27     3  46    5.7492   679.1    3.012      69.523
2015    2       27     3  51    5.7461   679.1    3.011      69.497
2015    2       27     3  56    5.7430   679.1    3.010      69.471
2015    2       27     4   2    5.7400   679.0    3.008      69.445
2015    2       27     4   7    5.7369   679.0    3.007      69.418
2015    2       27     4  12    5.7339   679.0    3.005      69.392
2015    2       27     4  17    5.7308   679.0    3.004      69.366
2015    2       27     4  23    5.7278   679.0    3.002      69.340
2015    2       27     4  28    5.7248   678.9    3.001      69.314
2015    2       27     4  33    5.7218   678.9    2.999      69.287
2015    2       27     4  38    5.7188   678.9    2.998      69.260
2015    2       27     4  44    5.7158   678.8    2.996      69.233
2015    2       27     4  49    5.7129   678.8    2.995      69.206
2015    2       27     4  54    5.7100   678.8    2.993      69.179
2015    2       27     4  59    5.7070   678.8    2.991      69.151
2015    2       27     5   5    5.7041   678.7    2.990      69.123
2015    2       27     5  10    5.7012   678.7    2.988      69.095
2015    2       27     5  15    5.6984   678.7    2.986      69.066
2015    2       27     5  20    5.6955   678.6    2.985      69.038
2015    2       27     5  26    5.6926   678.6    2.983      69.008
2015    2       27     5  31    5.6898   678.6    2.981      68.979
2015    2       27     5  36    5.6870   678.5    2.979      68.949
2015    2       27     5  41    5.6841   678.5    2.978      68.919
2015    2       27     5  47    5.6814   678.4    2.976      68.888
2015    2       27     5  52    5.6786   678.4    2.974      68.858
2015    2       27     5  57    5.6758   678.4    2.972      68.826
2015    2       27     6   2    5.6730   678.3    2.970      68.795
2015    2       27     6   8    5.6704   678.3    2.968      68.763
2015    2       27     6  13    5.6675   678.2    2.966      68.732
2015    2       27     6  18    5.6648   678.2    2.964      68.700
2015    2       27     6  24    5.6621   678.2    2.962      68.667
2015    2       27     6  29    5.6594   678.1    2.960      68.635
2015    2       27     6  34    5.6567   678.1    2.958      68.602
2015    2       27     6  39    5.6540   678.0    2.957      68.569
2015    2       27     6  45    5.6515   678.0    2.955      68.537
2015    2       27     6  50    5.6487   677.9    2.953      68.504
2015    2       27     6  55    5.6461   677.9    2.951      68.471
2015    2       27     7   0    5.6434   677.8    2.949      68.437
2015    2       27     7   6    5.6408   677.8    2.947      68.404
2015    2       27     7  11    5.6382   677.7    2.945      68.371
2015    2       27     7  16    5.6356   677.7    2.943      68.338
2015    2       27     7  21    5.6330   677.7    2.941      68.304
2015    2       27     7  26    5.6305   677.6    2.939      68.271
2015    2       27     7  32    5.6278   677.6    2.937      68.237
2015    2       27     7  37    5.6252   677.5    2.936      68.204
2015    2       27     7  42    5.6226   677.5    2.934      68.170
2015    2       27     7  47    5.6200   677.4    2.932      68.136
2015    2       27     7  53    5.6175   677.4    2.930      68.102
2015    2       27     7  58    5.6149   677.3    2.928      68.068
2015    2       27     8   3    5.6123   677.3    2.927      68.034
2015    2       27     8   8    5.6098   677.2    2.925      68.000
2015    2       27     8  14    5.6072   677.2    2.923      67.966
2015    2       27     8  19    5.6047   677.1    2.922      67.932
2015    2       27     8  24    5.6021   677.1    2.920      67.898
2015    2       27     8  29    5.5995   677.0    2.919      67.864
2015    2       27     8  35    5.5969   677.0    2.917      67.829
2015    2       27     8  40    5.5944   676.9    2.915      67.795
2015    2       27     8  45    5.5918   676.9    2.914      67.761
2015    2       27     8  50    5.5892   676.8    2.912      67.727
2015    2       27     8  56    5.5866   676.8    2.911      67.692
2015    2       27     9   1    5.5841   676.7    2.909      67.658
2015    2       27     9   6    5.5815   676.7    2.908      67.624
2015    2       27     9  12    5.5789   676.6    2.907      67.590
2015    2       27     9  17    5.5763   676.5    2.905      67.556
2015    2       27     9  22    5.5737   676.5    2.904      67.523
2015    2       27     9  27    5.5711   676.4    2.903      67.489
2015    2       27     9  33    5.5686   676.4    2.901      67.456
2015    2       27     9  38    5.5660   676.3    2.900      67.423
2015    2       27     9  43    5.5634   676.3    2.899      67.390
2015    2       27     9  48    5.5608   676.2    2.898      67.357
2015    2       27     9  54    5.5582   676.1    2.897      67.325
2015    2       27     9  59    5.5556   676.1    2.895      67.293
2015    2       27    10   4    5.5530   676.0    2.894      67.261
2015    2       27    10   9    5.5504   676.0    2.893      67.229
2015    2       27    10  15    5.5478   675.9    2.892      67.198
2015    2       27    10  20    5.5452   675.8    2.891      67.167
2015    2       27    10  25    5.5427   675.8    2.890      67.136
2015    2       27    10  30    5.5401   675.7    2.889      67.106
2015    2       27    10  36    5.5375   675.6    2.888      67.076
2015    2       27    10  41    5.5349   675.6    2.887      67.046
2015    2       27    10  46    5.5324   675.5    2.886      67.017
2015    2       27    10  51    5.5298   675.4    2.885      66.988
2015    2       27    10  57    5.5273   675.4    2.884      66.959
2015    2       27    11   2    5.5248   675.3    2.884      66.930
2015    2       27    11   7    5.5222   675.2    2.883      66.901
2015    2       27    11  12    5.5197   675.2    2.882      66.873
2015    2       27    11  18    5.5172   675.1    2.881      66.845
2015    2       27    11  23    5.5147   675.0    2.880      66.817
2015    2       27    11  28    5.5123   675.0    2.879      66.789
2015    2       27    11  34    5.5098   674.9    2.879      66.761
2015    2       27    11  39    5.5073   674.8    2.878      66.733
2015    2       27    11  44    5.5049   674.7    2.877      66.706
2015    2       27    11  49    5.5025   674.7    2.876      66.678
2015    2       27    11  55    5.5001   674.6    2.875      66.650
2015    2       27    12   0    5.4977   674.5    2.875      66.622
2015    2       27    12   5    5.4953   674.4    2.874      66.594
2015    2       27    12  10    5.4929   674.4    2.873      66.566
2015    2       27    12  16    5.4905   674.3    2.872      66.538
2015    2       27    12  21    5.4882   674.2    2.871      66.509
2015    2       27    12  26    5.4858   674.1    2.870      66.480
2015    2       27    12  31    5.4835   674.0    2.870      66.451
2015    2       27    12  37    5.4812   674.0    2.869      66.422
2015    2       27    12  42    5.4789   673.9    2.868      66.392
2015    2       27    12  47    5.4766   673.8    2.867      66.362
2015    2       27    12  52    5.4743   673.7    2.866      66.332
2015    2       27    12  58    5.4720   673.6    2.865      66.301
2015    2       27    13   3    5.4698   673.6    2.864      66.270
2015    2       27    13   8    5.4675   673.5    2.863      66.239
2015    2       27    13  13    5.4653   673.4    2.862      66.207
2015    2       27    13  19    5.4630   673.3    2.861      66.175
2015    2       27    13  24    5.4608   673.2    2.860      66.143
2015    2       27    13  29    5.4586   673.1    2.859      66.111
2015    2       27    13  34    5.4564   673.0    2.858      66.078
2015    2       27    13  40    5.4542   672.9    2.857      66.045
2015    2       27    13  45    5.4521   672.9    2.856      66.011
2015    2       27    13  50    5.4498   672.8    2.855      65.978
2015    2       27    13  55    5.4477   672.7    2.854      65.944
2015    2       27    14   1    5.4455   672.6    2.853      65.910
2015    2       27    14   6    5.4433   672.5    2.852      65.876
2015    2       27    14  11    5.4412   672.4    2.851      65.841
2015    2       27    14  16    5.4391   672.3    2.850      65.807
2015    2       27    14  22    5.4369   672.2    2.849      65.772
2015    2       27    14  27    5.4349   672.1    2.848      65.737
2015    2       27    14  32    5.4328   672.0    2.847      65.702
2015    2       27    14  37    5.4306   671.9    2.846      65.668
2015    2       27    14  43    5.4284   671.9    2.845      65.632
2015    2       27    14  48    5.4263   671.8    2.844      65.597
2015    2       27    14  53    5.4242   671.7    2.842      65.562
2015    2       27    14  58    5.4221   671.6    2.841      65.527
2015    2       27    15   4    5.4200   671.5    2.840      65.492
2015    2       27    15   9    5.4179   671.4    2.839      65.456
2015    2       27    15  14    5.4159   671.3    2.838      65.421
2015    2       27    15  19    5.4137   671.2    2.837      65.385
2015    2       27    15  25    5.4116   671.1    2.836      65.350
2015    2       27    15  30    5.4095   671.0    2.835      65.314
2015    2       27    15  35    5.4074   670.9    2.834      65.278
2015    2       27    15  40    5.4054   670.9    2.833      65.242
2015    2       27    15  46    5.4032   670.8    2.832      65.206
2015    2       27    15  51    5.4011   670.7    2.831      65.170
2015    2       27    15  56    5.3990   670.6    2.829      65.134
2015    2       27    16   1    5.3969   670.5    2.828      65.098
2015    2       27    16   7    5.3948   670.4    2.827      65.062
2015    2       27    16  12    5.3926   670.3    2.826      65.026
2015    2       27    16  17    5.3905   670.2    2.825      64.989
2015    2       27    16  22    5.3884   670.1    2.824      64.953
2015    2       27    16  28    5.3863   670.0    2.823      64.916
2015    2       27    16  33    5.3841   669.9    2.822      64.880
2015    2       27    16  38    5.3820   669.8    2.821      64.843
2015    2       27    16  43    5.3799   669.7    2.820      64.807
2015    2       27    16  49    5.3778   669.6    2.819      64.770
2015    2       27    16  54    5.3757   669.5    2.818      64.734
2015    2       27    16  59    5.3735   669.4    2.817      64.698
2015    2       27    17   4    5.3714   669.3    2.816      64.662
2015    2       27    17  10    5.3693   669.2    2.815      64.626
2015    2       27    17  15    5.3672   669.1    2.815      64.591
2015    2       27    17  20    5.3651   669.0    2.814      64.555
2015    2       27    17  26    5.3630   668.9    2.813      64.520
2015    2       27    17  31    5.3610   668.8    2.812      64.485
2015    2       27    17  36    5.3589   668.7    2.812      64.450
2015    2       27    17  41    5.3568   668.6    2.811      64.416
2015    2       27    17  47    5.3548   668.5    2.810      64.382
2015    2       27    17  52    5.3527   668.4    2.809      64.348
2015    2       27    17  57    5.3507   668.3    2.809      64.315
2015    2       27    18   2    5.3486   668.2    2.808      64.282
2015    2       27    18   8    5.3466   668.1    2.808      64.249
2015    2       27    18  13    5.3446   668.0    2.807      64.216
2015    2       27    18  18    5.3426   667.9    2.807      64.184
2015    2       27    18  23    5.3406   667.8    2.806      64.152
2015    2       27    18  29    5.3386   667.7    2.806      64.120
2015    2       27    18  34    5.3366   667.6    2.805      64.089
2015    2       27    18  39    5.3346   667.5    2.805      64.058
2015    2       27    18  44    5.3326   667.4    2.805      64.027
2015    2       27    18  50    5.3306   667.3    2.804      63.996
2015    2       27    18  55    5.3287   667.2    2.804      63.965
2015    2       27    19   0    5.3267   667.1    2.804      63.935
2015    2       27    19   5    5.3247   667.0    2.803      63.904
2015    2       27    19  11    5.3228   666.9    2.803      63.874
2015    2       27    19  16    5.3208   666.8    2.803      63.844
2015    2       27    19  21    5.3188   666.7    2.803      63.815
2015    2       27    19  27    5.3168   666.6    2.802      63.785
2015    2       27    19  32    5.3149   666.5    2.802      63.755
2015    2       27    19  37    5.3129   666.3    2.802      63.725
2015    2       27    19  42    5.3109   666.2    2.802      63.696
2015    2       27    19  48    5.3090   666.1    2.801      63.666
2015    2       27    19  53    5.3070   666.0    2.801      63.637
2015    2       27    19  58    5.3050   665.9    2.801      63.608
2015    2       27    20   3    5.3031   665.8    2.801      63.578
2015    2       27    20   9    5.3011   665.7    2.801      63.549
2015    2       27    20  14    5.2992   665.6    2.800      63.520
2015    2       27    20  19    5.2972   665.5    2.800      63.490
2015    2       27    20  24    5.2952   665.3    2.800      63.461
2015    2       27    20  30    5.2933   665.2    2.800      63.432
2015    2       27    20  35    5.2913   665.1    2.800      63.403
2015    2       27    20  40    5.2893   665.0    2.799      63.373
2015    2       27    20  45    5.2874   664.9    2.799      63.344
2015    2       27    20  51    5.2854   664.8    2.799      63.314
2015    2       27    20  56    5.2835   664.7    2.799      63.285
2015    2       27    21   1    5.2815   664.5    2.799      63.255
2015    2       27    21   6    5.2796   664.4    2.799      63.226
2015    2       27    21  12    5.2776   664.3    2.798      63.196
2015    2       27    21  17    5.2757   664.2    2.798      63.166
2015    2       27    21  22    5.2737   664.1    2.798      63.136
2015    2       27    21  27    5.2718   663.9    2.798      63.107
2015    2       27    21  33    5.2699   663.8    2.798      63.077
2015    2       27    21  38    5.2679   663.7    2.798      63.047
2015    2       27    21  43    5.2660   663.6    2.797      63.016
2015    2       27    21  48    5.2641   663.5    2.797      62.986
2015    2       27    21  54    5.2622   663.3    2.797      62.956
2015    2       27    21  59    5.2602   663.2    2.797      62.926
2015    2       27    22   4    5.2583   663.1    2.797      62.895
2015    2       27    22   9    5.2564   663.0    2.797      62.865
2015    2       27    22  15    5.2545   662.9    2.796      62.834
2015    2       27    22  20    5.2526   662.7    2.796      62.804
2015    2       27    22  25    5.2507   662.6    2.796      62.773
2015    2       27    22  30    5.2487   662.5    2.796      62.742
2015    2       27    22  36    5.2468   662.4    2.796      62.711
2015    2       27    22  41    5.2449   662.3    2.796      62.680
2015    2       27    22  46    5.2430   662.1    2.795      62.649
2015    2       27    22  51    5.2411   662.0    2.795      62.618
2015    2       27    22  57    5.2392   661.9    2.795      62.586
2015    2       27    23   2    5.2373   661.8    2.795      62.554
2015    2       27    23   7    5.2354   661.7    2.794      62.522
2015    2       27    23  12    5.2335   661.5    2.794      62.490
2015    2       27    23  18    5.2316   661.4    2.794      62.457
2015    2       27    23  23    5.2297   661.3    2.794      62.425
2015    2       27    23  28    5.2278   661.2    2.793      62.391
2015    2       27    23  33    5.2259   661.1    2.793      62.358
2015    2       27    23  39    5.2240   660.9    2.793      62.324
2015    2       27    23  44    5.2221   660.8    2.792      62.290
2015    2       27    23  49    5.2202   660.7    2.792      62.255
2015    2       27    23  54    5.2183   660.6    2.791      62.220
2015    2       28     0   0    5.2164   660.4    2.791      62.185
2015    2       28     0   5    5.2145   660.3    2.790      62.149
2015    2       28     0  10    5.2126   660.2    2.790      62.113
2015    2       28     0  15    5.2107   660.1    2.790      62.077
2015    2       28     0  21    5.2088   659.9    2.789      62.041
2015    2       28     0  26    5.2070   659.8    2.789      62.004
2015    2       28     0  31    5.2051   659.7    2.788      61.966
2015    2       28     0  36    5.2032   659.5    2.788      61.929
2015    2       28     0  42    5.2014   659.4    2.787      61.891
2015    2       28     0  47    5.1995   659.3    2.787      61.853
2015    2       28     0  52    5.1977   659.2    2.786      61.815
2015    2       28     0  57    5.1959   659.0    2.785      61.776
2015    2       28     1   3    5.1940   658.9    2.785      61.737
2015    2       28     1   8    5.1922   658.8    2.784      61.699
2015    2       28     1  13    5.1904   658.6    2.784      61.660
2015    2       28     1  19    5.1886   658.5    2.783      61.620
2015    2       28     1  24    5.1868   658.4    2.783      61.581
2015    2       28     1  29    5.1850   658.2    2.782      61.541
2015    2       28     1  34    5.1832   658.1    2.782      61.502
2015    2       28     1  40    5.1814   658.0    2.781      61.462
2015    2       28     1  45    5.1797   657.8    2.780      61.422
2015    2       28     1  50    5.1779   657.7    2.780      61.383
2015    2       28     1  55    5.1761   657.6    2.779      61.343
2015    2       28     2   1    5.1743   657.5    2.779      61.303
2015    2       28     2   6    5.1725   657.3    2.778      61.263
2015    2       28     2  11    5.1707   657.2    2.778      61.223
2015    2       28     2  16    5.1689   657.1    2.777      61.182
2015    2       28     2  22    5.1672   656.9    2.777      61.142
2015    2       28     2  27    5.1654   656.8    2.776      61.102
2015    2       28     2  32    5.1635   656.7    2.775      61.062
2015    2       28     2  37    5.1617   656.5    2.775      61.022
2015    2       28     2  43    5.1599   656.4    2.774      60.981
2015    2       28     2  48    5.1580   656.3    2.774      60.941
2015    2       28     2  53    5.1562   656.1    2.773      60.901
2015    2       28     2  59    5.1543   656.0    2.773      60.861
2015    2       28     3   4    5.1525   655.9    2.772      60.821
2015    2       28     3   9    5.1506   655.7    2.772      60.781
2015    2       28     3  14    5.1487   655.6    2.771      60.742
2015    2       28     3  20    5.1468   655.4    2.771      60.702
2015    2       28     3  25    5.1449   655.3    2.771      60.662
2015    2       28     3  30    5.1430   655.2    2.770      60.623
2015    2       28     3  35    5.1411   655.0    2.770      60.584
2015    2       28     3  41    5.1392   654.9    2.769      60.544
2015    2       28     3  46    5.1372   654.8    2.769      60.506
2015    2       28     3  51    5.1353   654.6    2.769      60.467
2015    2       28     3  56    5.1333   654.5    2.769      60.428
2015    2       28     4   2    5.1314   654.3    2.768      60.390
2015    2       28     4   7    5.1294   654.2    2.768      60.352
2015    2       28     4  12    5.1274   654.1    2.768      60.315
2015    2       28     4  17    5.1255   653.9    2.768      60.278
2015    2       28     4  23    5.1235   653.8    2.768      60.241
2015    2       28     4  28    5.1215   653.6    2.768      60.204
2015    2       28     4  33    5.1194   653.5    2.768      60.168
2015    2       28     4  38    5.1174   653.4    2.768      60.132
2015    2       28     4  44    5.1154   653.2    2.768      60.096
2015    2       28     4  49    5.1133   653.1    2.768      60.061
2015    2       28     4  54    5.1112   652.9    2.768      60.026
2015    2       28     4  59    5.1092   652.8    2.768      59.991
2015    2       28     5   5    5.1071   652.6    2.768      59.956
2015    2       28     5  10    5.1050   652.5    2.769      59.922
2015    2       28     5  15    5.1029   652.3    2.769      59.889
2015    2       28     5  20    5.1009   652.2    2.769      59.856
2015    2       28     5  26    5.0988   652.0    2.769      59.822
2015    2       28     5  31    5.0967   651.9    2.770      59.790
2015    2       28     5  36    5.0946   651.7    2.770      59.757
2015    2       28     5  41    5.0925   651.6    2.770      59.725
2015    2       28     5  47    5.0904   651.4    2.771      59.692
2015    2       28     5  52    5.0883   651.3    2.771      59.660
2015    2       28     5  57    5.0862   651.1    2.771      59.627
2015    2       28     6   2    5.0842   650.9    2.772      59.594
2015    2       28     6   8    5.0821   650.8    2.772      59.561
2015    2       28     6  13    5.0801   650.6    2.773      59.529
2015    2       28     6  18    5.0780   650.4    2.773      59.495
2015    2       28     6  23    5.0760   650.3    2.774      59.462
2015    2       28     6  29    5.0740   650.1    2.774      59.428
2015    2       28     6  34    5.0720   649.9    2.775      59.394
2015    2       28     6  39    5.0700   649.8    2.775      59.360
2015    2       28     6  44    5.0680   649.6    2.776      59.326
2015    2       28     6  50    5.0660   649.4    2.776      59.292
2015    2       28     6  55    5.0641   649.3    2.777      59.258
2015    2       28     7   0    5.0622   649.1    2.777      59.224
2015    2       28     7   5    5.0603   648.9    2.778      59.190
2015    2       28     7  11    5.0584   648.8    2.778      59.155
2015    2       28     7  16    5.0565   648.6    2.779      59.121
2015    2       28     7  21    5.0546   648.4    2.779      59.086
2015    2       28     7  26    5.0527   648.3    2.780      59.050
2015    2       28     7  32    5.0509   648.1    2.780      59.014
2015    2       28     7  37    5.0490   647.9    2.780      58.977
2015    2       28     7  42    5.0472   647.8    2.780      58.940
2015    2       28     7  47    5.0454   647.6    2.781      58.902
2015    2       28     7  53    5.0435   647.4    2.781      58.863
2015    2       28     7  58    5.0417   647.3    2.781      58.823
2015    2       28     8   3    5.0399   647.1    2.781      58.782
2015    2       28     8   8    5.0381   646.9    2.781      58.741
2015    2       28     8  14    5.0363   646.8    2.780      58.699
2015    2       28     8  19    5.0345   646.6    2.780      58.656
2015    2       28     8  24    5.0327   646.4    2.780      58.613
2015    2       28     8  29    5.0308   646.3    2.780      58.569
2015    2       28     8  35    5.0290   646.1    2.779      58.524
2015    2       28     8  40    5.0272   645.9    2.779      58.479
2015    2       28     8  45    5.0254   645.8    2.779      58.434
2015    2       28     8  51    5.0236   645.6    2.778      58.387
2015    2       28     8  56    5.0217   645.4    2.778      58.341
2015    2       28     9   1    5.0199   645.3    2.777      58.294
2015    2       28     9   6    5.0181   645.1    2.777      58.246
2015    2       28     9  12    5.0162   644.9    2.776      58.198
2015    2       28     9  17    5.0144   644.8    2.776      58.150
2015    2       28     9  22    5.0125   644.6    2.775      58.102
2015    2       28     9  27    5.0107   644.4    2.774      58.052
2015    2       28     9  33    5.0088   644.3    2.774      58.003
2015    2       28     9  38    5.0069   644.1    2.773      57.953
2015    2       28     9  43    5.0050   643.9    2.772      57.903
2015    2       28     9  48    5.0031   643.7    2.771      57.853
2015    2       28     9  54    5.0012   643.6    2.771      57.802
2015    2       28     9  59    4.9993   643.4    2.770      57.751
2015    2       28    10   4    4.9973   643.2    2.769      57.700
2015    2       28    10   9    4.9954   643.1    2.768      57.648
2015    2       28    10  15    4.9934   642.9    2.767      57.596
2015    2       28    10  20    4.9915   642.7    2.767      57.544
2015    2       28    10  25    4.9895   642.5    2.766      57.491
2015    2       28    10  30    4.9875   642.4    2.765      57.438
2015    2       28    10  36    4.9855   642.2    2.764      57.385
2015    2       28    10  41    4.9835   642.0    2.763      57.332
2015    2       28    10  46    4.9815   641.8    2.762      57.278
2015    2       28    10  51    4.9795   641.7    2.761      57.225
2015    2       28    10  57    4.9774   641.5    2.761      57.171
2015    2       28    11   2    4.9754   641.3    2.760      57.117
2015    2       28    11   7    4.9733   641.1    2.759      57.063
2015    2       28    11  13    4.9713   641.0    2.758      57.008
2015    2       28    11  18    4.9692   640.8    2.757      56.954
2015    2       28    11  23    4.9671   640.6    2.757      56.899
2015    2       28    11  28    4.9650   640.4    2.756      56.845
2015    2       28    11  34    4.9629   640.2    2.755      56.791
2015    2       28    11  39    4.9608   640.1    2.754      56.736
2015    2       28    11  44    4.9586   639.9    2.754      56.682
2015    2       28    11  49    4.9565   639.7    2.753      56.628
2015    2       28    11  55    4.9544   639.5    2.753      56.574
2015    2       28    12   0    4.9523   639.3    2.752      56.520
2015    2       28    12   5    4.9501   639.1    2.752      56.466
2015    2       28    12  10    4.9480   638.9    2.751      56.413
2015    2       28    12  16    4.9458   638.7    2.751      56.360
2015    2       28    12  21    4.9437   638.5    2.750      56.307
2015    2       28    12  26    4.9416   638.3    2.750      56.254
2015    2       28    12  31    4.9394   638.1    2.750      56.201
2015    2       28    12  37    4.9372   637.9    2.749      56.148
2015    2       28    12  42    4.9351   637.7    2.749      56.096
2015    2       28    12  47    4.9329   637.5    2.749      56.043
2015    2       28    12  52    4.9308   637.3    2.749      55.991
2015    2       28    12  57    4.9286   637.1    2.748      55.938
2015    2       28    13   3    4.9265   636.9    2.748      55.886
2015    2       28    13   8    4.9244   636.7    2.748      55.834
2015    2       28    13  13    4.9222   636.5    2.748      55.783
2015    2       28    13  18    4.9201   636.3    2.748      55.732
2015    2       28    13  24    4.9180   636.0    2.748      55.681
2015    2       28    13  29    4.9159   635.8    2.749      55.631
2015    2       28    13  34    4.9138   635.6    2.749      55.582
2015    2       28    13  39    4.9118   635.4    2.749      55.533
2015    2       28    13  45    4.9097   635.2    2.750      55.486
2015    2       28    13  50    4.9077   635.0    2.751      55.439
2015    2       28    13  55    4.9057   634.7    2.751      55.393
2015    2       28    14   0    4.9037   634.5    2.752      55.349
2015    2       28    14   6    4.9018   634.3    2.753      55.306
2015    2       28    14  11    4.8998   634.1    2.754      55.263
2015    2       28    14  16    4.8979   633.9    2.755      55.222
2015    2       28    14  21    4.8960   633.7    2.756      55.181
2015    2       28    14  27    4.8940   633.4    2.757      55.141
2015    2       28    14  32    4.8921   633.2    2.758      55.101
2015    2       28    14  37    4.8902   633.0    2.759      55.061
2015    2       28    14  42    4.8883   632.8    2.760      55.022
2015    2       28    14  48    4.8865   632.6    2.761      54.983
2015    2       28    14  53    4.8845   632.4    2.762      54.944
2015    2       28    14  58    4.8827   632.2    2.763      54.904
2015    2       28    15   3    4.8807   631.9    2.764      54.865
2015    2       28    15   9    4.8788   631.7    2.766      54.825
2015    2       28    15  14    4.8769   631.5    2.767      54.784
2015    2       28    15  19    4.8750   631.3    2.768      54.743
2015    2       28    15  24    4.8730   631.1    2.769      54.702
2015    2       28    15  30    4.8711   630.9    2.769      54.660
2015    2       28    15  35    4.8691   630.7    2.770      54.617
2015    2       28    15  40    4.8671   630.4    2.771      54.574
2015    2       28    15  45    4.8652   630.2    2.772      54.530
2015    2       28    15  51    4.8632   630.0    2.773      54.486
2015    2       28    15  56    4.8612   629.8    2.774      54.441
2015    2       28    16   1    4.8592   629.6    2.774      54.395
2015    2       28    16   6    4.8572   629.4    2.775      54.349
2015    2       28    16  12    4.8551   629.1    2.775      54.302
2015    2       28    16  17    4.8531   628.9    2.776      54.255
2015    2       28    16  22    4.8511   628.7    2.776      54.206
2015    2       28    16  27    4.8490   628.5    2.777      54.157
2015    2       28    16  33    4.8470   628.2    2.777      54.108
2015    2       28    16  38    4.8450   628.0    2.777      54.058
2015    2       28    16  43    4.8429   627.8    2.778      54.007
2015    2       28    16  49    4.8409   627.6    2.778      53.956
2015    2       28    16  54    4.8388   627.3    2.778      53.905
2015    2       28    16  59    4.8368   627.1    2.778      53.852
2015    2       28    17   4    4.8347   626.9    2.778      53.800
2015    2       28    17  10    4.8327   626.7    2.778      53.747
2015    2       28    17  15    4.8306   626.4    2.779      53.693
2015    2       28    17  20    4.8286   626.2    2.779      53.639
2015    2       28    17  25    4.8265   626.0    2.778      53.585
2015    2       28    17  31    4.8245   625.8    2.778      53.530
2015    2       28    17  36    4.8225   625.5    2.778      53.474
2015    2       28    17  41    4.8204   625.3    2.778      53.418
2015    2       28    17  46    4.8183   625.1    2.778      53.362
2015    2       28    17  52    4.8163   624.9    2.778      53.305
2015    2       28    17  57    4.8143   624.6    2.778      53.248
2015    2       28    18   2    4.8122   624.4    2.777      53.191
2015    2       28    18   7    4.8101   624.2    2.777      53.133
2015    2       28    18  13    4.8081   623.9    2.777      53.075
2015    2       28    18  18    4.8061   623.7    2.777      53.017
2015    2       28    18  23    4.8040   623.5    2.776      52.958
2015    2       28    18  28    4.8020   623.2    2.776      52.899
2015    2       28    18  34    4.7999   623.0    2.776      52.839
2015    2       28    18  39    4.7979   622.8    2.775      52.780
2015    2       28    18  44    4.7959   622.5    2.775      52.720
2015    2       28    18  49    4.7939   622.3    2.775      52.661
2015    2       28    18  55    4.7919   622.1    2.775      52.601
2015    2       28    19   0    4.7899   621.8    2.774      52.541
2015    2       28    19   5    4.7879   621.6    2.774      52.481
2015    2       28    19  10    4.7859   621.3    2.774      52.421
2015    2       28    19  16    4.7839   621.1    2.773      52.361
2015    2       28    19  21    4.7820   620.9    2.773      52.301
2015    2       28    19  26    4.7800   620.6    2.773      52.240
2015    2       28    19  31    4.7780   620.4    2.773      52.180
2015    2       28    19  37    4.7761   620.2    2.772      52.119
2015    2       28    19  42    4.7741   619.9    2.772      52.058
2015    2       28    19  47    4.7721   619.7    2.772      51.996
2015    2       28    19  52    4.7702   619.4    2.771      51.934
2015    2       28    19  58    4.7682   619.2    2.771      51.872
2015    2       28    20   3    4.7663   618.9    2.771      51.809
2015    2       28    20   8    4.7643   618.7    2.771      51.746
2015    2       28    20  13    4.7623   618.4    2.770      51.683
2015    2       28    20  19    4.7604   618.2    2.770      51.619
2015    2       28    20  24    4.7584   617.9    2.770      51.556
2015    2       28    20  29    4.7565   617.7    2.770      51.492
2015    2       28    20  34    4.7546   617.4    2.769      51.428
2015    2       28    20  39    4.7527   617.2    2.769      51.364
2015    2       28    20  45    4.7507   616.9    2.769      51.300
2015    2       28    20  50    4.7489   616.6    2.769      51.236
2015    2       28    20  55    4.7469   616.4    2.769      51.172
2015    2       28    21   0    4.7450   616.1    2.768      51.108
2015    2       28    21   6    4.7432   615.8    2.768      51.045
2015    2       28    21  11    4.7413   615.6    2.768      50.982
2015    2       28    21  16    4.7394   615.3    2.768      50.920
2015    2       28    21  21    4.7376   615.0    2.768      50.857
2015    2       28    21  27    4.7358   614.8    2.768      50.796
2015    2       28    21  32    4.7339   614.5    2.769      50.734
2015    2       28    21  37    4.7321   614.2    2.769      50.674
2015    2       28    21  42    4.7303   614.0    2.769      50.613
2015    2       28    21  48    4.7285   613.7    2.769      50.554
2015    2       28    21  53    4.7266   613.4    2.770      50.495
2015    2       28    21  58    4.7248   613.2    2.770      50.436
2015    2       28    22   3    4.7230   612.9    2.771      50.378
2015    2       28    22   9    4.7212   612.6    2.771      50.320
2015    2       28    22  14    4.7194   612.3    2.772      50.263
2015    2       28    22  19    4.7176   612.1    2.772      50.206
2015    2       28    22  24    4.7158   611.8    2.773      50.149
2015    2       28    22  30    4.7140   611.5    2.774      50.093
2015    2       28    22  35    4.7121   611.2    2.775      50.037
2015    2       28    22  40    4.7103   611.0    2.775      49.981
2015    2       28    22  45    4.7085   610.7    2.776      49.926
2015    2       28    22  51    4.7066   610.4    2.777      49.871
2015    2       28    22  56    4.7048   610.1    2.778      49.816
2015    2       28    23   1    4.7030   609.8    2.779      49.761
2015    2       28    23   6    4.7011   609.6    2.780      49.707
2015    2       28    23  12    4.6993   609.3    2.781      49.652
2015    2       28    23  17    4.6974   609.0    2.782      49.598
2015    2       28    23  22    4.6956   608.7    2.783      49.544
2015    2       28    23  27    4.6938   608.4    2.784      49.489
2015    2       28    23  33    4.6919   608.1    2.785      49.435
2015    2       28    23  38    4.6901   607.8    2.786      49.381
2015    2       28    23  43    4.6883   607.5    2.787      49.327
2015    2       28    23  48    4.6865   607.3    2.788      49.273
2015    2       28    23  54    4.6847   607.0    2.789      49.218
2015    2       28    23  59    4.6829   606.7    2.791      49.164
2015    3        1     0   4    4.6810   606.4    2.792      49.110
2015    3        1     0   9    4.6792   606.1    2.793      49.056
2015    3        1     0  15    4.6775   605.8    2.794      49.002
2015    3        1     0  20    4.6757   605.5    2.796      48.948
2015    3        1     0  25    4.6739   605.2    2.797      48.894
2015    3        1     0  31    4.6722   604.9    2.798      48.840
2015    3        1     0  36    4.6704   604.6    2.800      48.786
2015    3        1     0  41    4.6687   604.3    2.801      48.733
2015    3        1     0  46    4.6669   604.0    2.802      48.679
2015    3        1     0  52    4.6652   603.7    2.804      48.626
2015    3        1     0  57    4.6635   603.4    2.805      48.572
2015    3        1     1   2    4.6618   603.1    2.806      48.519
2015    3        1     1   7    4.6601   602.8    2.808      48.465
2015    3        1     1  13    4.6583   602.5    2.809      48.412
2015    3        1     1  18    4.6566   602.2    2.811      48.359
2015    3        1     1  23    4.6549   601.9    2.812      48.306
2015    3        1     1  28    4.6533   601.6    2.813      48.253
2015    3        1     1  34    4.6516   601.3    2.815      48.199
2015    3        1     1  39    4.6499   601.0    2.816      48.146
2015    3        1     1  44    4.6482   600.7    2.818      48.093
2015    3        1     1  49    4.6466   600.4    2.819      48.041
2015    3        1     1  55    4.6449   600.1    2.820      47.987
2015    3        1     2   0    4.6433   599.8    2.822      47.935
2015    3        1     2   5    4.6416   599.5    2.823      47.882
2015    3        1     2  10    4.6400   599.2    2.824      47.829
2015    3        1     2  16    4.6383   598.9    2.826      47.776
2015    3        1     2  21    4.6367   598.6    2.827      47.723
2015    3        1     2  26    4.6351   598.3    2.828      47.670
2015    3        1     2  31    4.6335   597.9    2.830      47.618
2015    3        1     2  37    4.6319   597.6    2.831      47.565
2015    3        1     2  42    4.6303   597.3    2.832      47.513
2015    3        1     2  47    4.6287   597.0    2.833      47.459
2015    3        1     2  52    4.6271   596.7    2.834      47.406
2015    3        1     2  58    4.6256   596.4    2.836      47.352
2015    3        1     3   3    4.6240   596.1    2.837      47.299
2015    3        1     3   8    4.6224   595.8    2.838      47.245
2015    3        1     3  13    4.6208   595.5    2.839      47.190
2015    3        1     3  19    4.6193   595.2    2.840      47.135
2015    3        1     3  24    4.6178   594.9    2.841      47.080
2015    3        1     3  29    4.6162   594.6    2.842      47.025
2015    3        1     3  34    4.6146   594.3    2.843      46.969
2015    3        1     3  40    4.6131   594.0    2.845      46.913
2015    3        1     3  45    4.6116   593.6    2.846      46.858
2015    3        1     3  50    4.6100   593.3    2.847      46.801
2015    3        1     3  55    4.6085   593.0    2.848      46.745
2015    3        1     4   0    4.6070   592.7    2.849      46.688
2015    3        1     4   6    4.6055   592.4    2.850      46.632
2015    3        1     4  11    4.6040   592.1    2.851      46.575
2015    3        1     4  16    4.6026   591.8    2.852      46.519
2015    3        1     4  21    4.6011   591.4    2.853      46.462
2015    3        1     4  27    4.5996   591.1    2.854      46.405
2015    3        1     4  32    4.5982   590.8    2.855      46.348
2015    3        1     4  37    4.5967   590.5    2.856      46.291
2015    3        1     4  43    4.5953   590.2    2.857      46.234
2015    3        1     4  48    4.5939   589.9    2.858      46.177
2015    3        1     4  53    4.5924   589.5    2.859      46.120
2015    3        1     4  58    4.5911   589.2    2.860      46.063
2015    3        1     5   4    4.5896   588.9    2.861      46.006
2015    3        1     5   9    4.5881   588.6    2.862      45.949
2015    3        1     5  14    4.5867   588.3    2.863      45.892
2015    3        1     5  19    4.5853   587.9    2.864      45.835
2015    3        1     5  25    4.5839   587.6    2.865      45.778
2015    3        1     5  30    4.5825   587.3    2.866      45.720
2015    3        1     5  35    4.5811   587.0    2.867      45.663
2015    3        1     5  40    4.5796   586.6    2.868      45.606
2015    3        1     5  46    4.5782   586.3    2.869      45.548
2015    3        1     5  51    4.5768   586.0    2.871      45.491
2015    3        1     5  56    4.5754   585.6    2.872      45.433
2015    3        1     6   1    4.5740   585.3    2.873      45.376
2015    3        1     6   7    4.5727   585.0    2.874      45.318
2015    3        1     6  12    4.5713   584.6    2.876      45.260
2015    3        1     6  17    4.5699   584.3    2.877      45.203
2015    3        1     6  22    4.5686   584.0    2.878      45.145
2015    3        1     6  28    4.5672   583.6    2.880      45.088
2015    3        1     6  33    4.5659   583.3    2.881      45.030
2015    3        1     6  38    4.5646   582.9    2.883      44.973
2015    3        1     6  43    4.5633   582.6    2.884      44.916
2015    3        1     6  49    4.5620   582.2    2.886      44.859
2015    3        1     6  54    4.5607   581.9    2.888      44.802
2015    3        1     6  59    4.5595   581.6    2.890      44.745
2015    3        1     7   5    4.5582   581.2    2.891      44.689
2015    3        1     7  10    4.5569   580.9    2.893      44.633
2015    3        1     7  15    4.5557   580.5    2.895      44.577
2015    3        1     7  20    4.5545   580.2    2.897      44.522
2015    3        1     7  26    4.5533   579.8    2.899      44.467
2015    3        1     7  31    4.5522   579.5    2.901      44.412
2015    3        1     7  36    4.5510   579.1    2.903      44.357
2015    3        1     7  41    4.5499   578.8    2.905      44.303
2015    3        1     7  47    4.5488   578.4    2.908      44.249
2015    3        1     7  52    4.5477   578.1    2.910      44.195
2015    3        1     7  57    4.5466   577.7    2.912      44.142
2015    3        1     8   2    4.5456   577.4    2.915      44.088
2015    3        1     8   8    4.5445   577.0    2.917      44.035
2015    3        1     8  13    4.5435   576.6    2.919      43.982
2015    3        1     8  18    4.5425   576.3    2.922      43.929
2015    3        1     8  23    4.5415   575.9    2.924      43.876
2015    3        1     8  29    4.5405   575.6    2.927      43.823
2015    3        1     8  34    4.5395   575.2    2.929      43.771
2015    3        1     8  39    4.5386   574.9    2.932      43.718
2015    3        1     8  44    4.5376   574.5    2.934      43.666
2015    3        1     8  50    4.5367   574.1    2.937      43.613
2015    3        1     8  55    4.5358   573.8    2.940      43.561
2015    3        1     9   0    4.5349   573.4    2.942      43.509
2015    3        1     9   5    4.5340   573.1    2.945      43.457
2015    3        1     9  11    4.5332   572.7    2.947      43.405
2015    3        1     9  16    4.5323   572.3    2.950      43.353
2015    3        1     9  21    4.5315   572.0    2.953      43.301
2015    3        1     9  26    4.5306   571.6    2.955      43.249
2015    3        1     9  32    4.5298   571.3    2.958      43.198
2015    3        1     9  37    4.5290   570.9    2.961      43.146
2015    3        1     9  42    4.5282   570.5    2.963      43.095
2015    3        1     9  47    4.5274   570.2    2.966      43.044
2015    3        1     9  53    4.5266   569.8    2.969      42.993
2015    3        1     9  58    4.5259   569.4    2.971      42.942
2015    3        1    10   3    4.5251   569.1    2.974      42.892
2015    3        1    10   8    4.5244   568.7    2.977      42.842
2015    3        1    10  14    4.5237   568.4    2.979      42.791
2015    3        1    10  19    4.5230   568.0    2.982      42.742
2015    3        1    10  24    4.5223   567.6    2.985      42.692
2015    3        1    10  29    4.5216   567.3    2.988      42.642
2015    3        1    10  35    4.5209   566.9    2.991      42.593
2015    3        1    10  40    4.5203   566.5    2.993      42.544
2015    3        1    10  45    4.5197   566.2    2.996      42.496
2015    3        1    10  50    4.5190   565.8    2.999      42.447
2015    3        1    10  56    4.5184   565.5    3.002      42.399
2015    3        1    11   1    4.5178   565.1    3.005      42.351
2015    3        1    11   6    4.5172   564.7    3.008      42.303
2015    3        1    11  11    4.5167   564.4    3.011      42.255
2015    3        1    11  17    4.5161   564.0    3.014      42.208
2015    3        1    11  22    4.5156   563.7    3.017      42.160
2015    3        1    11  27    4.5150   563.3    3.020      42.113
2015    3        1    11  32    4.5145   562.9    3.023      42.066
2015    3        1    11  38    4.5140   562.6    3.026      42.019
2015    3        1    11  43    4.5135   562.2    3.029      41.972
2015    3        1    11  48    4.5130   561.9    3.032      41.925
2015    3        1    11  53    4.5126   561.5    3.036      41.878
2015    3        1    11  59    4.5121   561.2    3.039      41.832
2015    3        1    12   4    4.5117   560.8    3.042      41.785
2015    3        1    12   9    4.5113   560.4    3.045      41.738
2015    3        1    12  14    4.5108   560.1    3.048      41.691
2015    3        1    12  20    4.5103   559.7    3.051      41.645
2015    3        1    12  25    4.5099   559.4    3.055      41.598
2015    3        1    12  30    4.5095   559.0    3.058      41.551
2015    3        1    12  35    4.5092   558.7    3.061      41.504
2015    3        1    12  41    4.5087   558.3    3.064      41.457
2015    3        1    12  46    4.5084   557.9    3.067      41.410
2015    3        1    12  51    4.5080   557.6    3.071      41.363
2015    3        1    12  56    4.5076   557.2    3.074      41.315
2015    3        1    13   2    4.5073   556.9    3.077      41.268
2015    3        1    13   7    4.5071   556.5    3.080      41.220
2015    3        1    13  12    4.5066   556.2    3.084      41.172
2015    3        1    13  17    4.5063   555.8    3.087      41.124
2015    3        1    13  23    4.5060   555.5    3.090      41.076
2015    3        1    13  28    4.5058   555.1    3.093      41.028
2015    3        1    13  33    4.5055   554.7    3.097      40.979
2015    3        1    13  39    4.5053   554.4    3.100      40.930
2015    3        1    13  44    4.5050   554.0    3.103      40.881
2015    3        1    13  49    4.5048   553.7    3.107      40.832
2015    3        1    13  54    4.5046   553.3    3.110      40.783
2015    3        1    14   0    4.5045   552.9    3.113      40.734
2015    3        1    14   5    4.5042   552.6    3.117      40.684
2015    3        1    14  10    4.5041   552.2    3.120      40.635
2015    3        1    14  15    4.5039   551.9    3.123      40.585
2015    3        1    14  21    4.5039   551.5    3.127      40.535
2015    3        1    14  26    4.5038   551.1    3.130      40.485
2015    3        1    14  31    4.5037   550.8    3.134      40.435
2015    3        1    14  36    4.5035   550.4    3.137      40.385
2015    3        1    14  42    4.5035   550.1    3.140      40.334
2015    3        1    14  47    4.5034   549.7    3.144      40.284
2015    3        1    14  52    4.5034   549.3    3.147      40.233
2015    3        1    14  57    4.5034   549.0    3.151      40.183
2015    3        1    15   3    4.5034   548.6    3.154      40.132
2015    3        1    15   8    4.5034   548.3    3.158      40.081
2015    3        1    15  13    4.5035   547.9    3.161      40.030
2015    3        1    15  18    4.5036   547.5    3.165      39.980
2015    3        1    15  24    4.5037   547.2    3.168      39.928
2015    3        1    15  29    4.5038   546.8    3.172      39.878
2015    3        1    15  34    4.5039   546.4    3.175      39.827
2015    3        1    15  40    4.5041   546.1    3.179      39.776
2015    3        1    15  45    4.5042   545.7    3.182      39.724
2015    3        1    15  50    4.5044   545.3    3.186      39.673
2015    3        1    15  55    4.5046   545.0    3.189      39.622
2015    3        1    16   1    4.5048   544.6    3.193      39.572
2015    3        1    16   6    4.5052   544.2    3.196      39.521
2015    3        1    16  11    4.5054   543.9    3.200      39.470
2015    3        1    16  16    4.5057   543.5    3.204      39.419
2015    3        1    16  22    4.5060   543.2    3.207      39.369
2015    3        1    16  27    4.5064   542.8    3.211      39.319
2015    3        1    16  32    4.5067   542.4    3.215      39.269
2015    3        1    16  37    4.5070   542.1    3.218      39.219
2015    3        1    16  43    4.5076   541.7    3.222      39.169
2015    3        1    16  48    4.5079   541.3    3.226      39.120
2015    3        1    16  53    4.5083   541.0    3.230      39.071
2015    3        1    16  58    4.5088   540.6    3.234      39.022
2015    3        1    17   4    4.5093   540.2    3.237      38.974
2015    3        1    17   9    4.5098   539.9    3.241      38.926
2015    3        1    17  14    4.5104   539.5    3.246      38.879
2015    3        1    17  19    4.5110   539.1    3.250      38.831
2015    3        1    17  25    4.5117   538.8    3.254      38.784
2015    3        1    17  30    4.5122   538.4    3.258      38.738
2015    3        1    17  35    4.5128   538.1    3.262      38.691
2015    3        1    17  40    4.5135   537.7    3.266      38.645
2015    3        1    17  46    4.5143   537.3    3.271      38.600
2015    3        1    17  51    4.5148   537.0    3.275      38.555
2015    3        1    17  56    4.5156   536.6    3.280      38.510
2015    3        1    18   1    4.5164   536.3    3.284      38.466
2015    3        1    18   7    4.5171   535.9    3.289      38.422
2015    3        1    18  12    4.5178   535.6    3.293      38.378
2015    3        1    18  17    4.5187   535.2    3.298      38.334
2015    3        1    18  22    4.5196   534.8    3.303      38.291
2015    3        1    18  28    4.5203   534.5    3.307      38.248
2015    3        1    18  33    4.5211   534.1    3.312      38.204
2015    3        1    18  38    4.5220   533.8    3.317      38.162
2015    3        1    18  43    4.5229   533.4    3.322      38.119
2015    3        1    18  49    4.5237   533.1    3.327      38.077
2015    3        1    18  54    4.5247   532.7    3.332      38.034
2015    3        1    18  59    4.5256   532.4    3.337      37.992
2015    3        1    19   4    4.5265   532.0    3.342      37.950
2015    3        1    19   9    4.5274   531.7    3.347      37.907
2015    3        1    19  15    4.5286   531.3    3.352      37.865
2015    3        1    19  20    4.5294   531.0    3.357      37.823
2015    3        1    19  25    4.5304   530.6    3.362      37.781
2015    3        1    19  31    4.5314   530.3    3.367      37.739
2015    3        1    19  36    4.5324   529.9    3.372      37.697
2015    3        1    19  41    4.5335   529.6    3.377      37.655
2015    3        1    19  46    4.5345   529.2    3.383      37.612
2015    3        1    19  52    4.5356   528.9    3.388      37.570
2015    3        1    19  57    4.5367   528.5    3.393      37.528
2015    3        1    20   2    4.5378   528.2    3.398      37.485
2015    3        1    20   7    4.5389   527.8    3.403      37.443
2015    3        1    20  13    4.5400   527.5    3.408      37.400
2015    3        1    20  18    4.5412   527.2    3.414      37.358
2015    3        1    20  23    4.5423   526.8    3.419      37.315
2015    3        1    20  28    4.5435   526.5    3.424      37.272
2015    3        1    20  34    4.5447   526.1    3.429      37.230
2015    3        1    20  39    4.5460   525.8    3.434      37.187
2015    3        1    20  44    4.5472   525.4    3.439      37.144
2015    3        1    20  49    4.5485   525.1    3.445      37.101
2015    3        1    20  55    4.5497   524.8    3.450      37.058
2015    3        1    21   0    4.5510   524.4    3.455      37.014
2015    3        1    21   5    4.5523   524.1    3.460      36.971
2015    3        1    21  10    4.5537   523.7    3.465      36.928
2015    3        1    21  16    4.5552   523.4    3.470      36.885
2015    3        1    21  21    4.5564   523.1    3.475      36.841
2015    3        1    21  26    4.5578   522.7    3.480      36.798
2015    3        1    21  31    4.5592   522.4    3.486      36.754
2015    3        1    21  37    4.5606   522.0    3.491      36.711
2015    3        1    21  42    4.5622   521.7    3.496      36.667
2015    3        1    21  47    4.5635   521.4    3.501      36.623
2015    3        1    21  53    4.5650   521.0    3.506      36.580
2015    3        1    21  58    4.5665   520.7    3.511      36.536
2015    3        1    22   3    4.5680   520.4    3.516      36.493
2015    3        1    22   8    4.5696   520.0    3.521      36.449
2015    3        1    22  14    4.5711   519.7    3.526      36.406
2015    3        1    22  19    4.5727   519.4    3.531      36.362
2015    3        1    22  24    4.5743   519.0    3.536      36.319
2015    3        1    22  29    4.5759   518.7    3.542      36.276
2015    3        1    22  35    4.5775   518.4    3.547      36.232
2015    3        1    22  40    4.5792   518.0    3.552      36.189
2015    3        1    22  45    4.5808   517.7    3.557      36.146
2015    3        1    22  50    4.5825   517.4    3.562      36.103
2015    3        1    22  56    4.5842   517.1    3.567      36.061
2015    3        1    23   1    4.5860   516.7    3.573      36.018
2015    3        1    23   6    4.5877   516.4    3.578      35.976
2015    3        1    23  11    4.5895   516.1    3.583      35.933
2015    3        1    23  17    4.5913   515.7    3.588      35.891
2015    3        1    23  22    4.5931   515.4    3.594      35.849
2015    3        1    23  27    4.5949   515.1    3.599      35.808
2015    3        1    23  32    4.5968   514.8    3.604      35.766
2015    3        1    23  38    4.5986   514.4    3.610      35.725
2015    3        1    23  43    4.6005   514.1    3.615      35.684
2015    3        1    23  48    4.6024   513.8    3.621      35.643
2015    3        1    23  53    4.6044   513.4    3.626      35.603
2015    3        1    23  59    4.6063   513.1    3.632      35.563
2015    3        2     0   4    4.6083   512.8    3.637      35.523
2015    3        2     0   9    4.6103   512.5    3.643      35.483
2015    3        2     0  14    4.6123   512.1    3.649      35.444
2015    3        2     0  20    4.6143   511.8    3.655      35.405
2015    3        2     0  25    4.6163   511.5    3.660      35.366
2015    3        2     0  30    4.6184   511.2    3.666      35.328
2015    3        2     0  35    4.6205   510.9    3.672      35.289
2015    3        2     0  41    4.6226   510.5    3.678      35.252
2015    3        2     0  46    4.6248   510.2    3.684      35.214
2015    3        2     0  51    4.6269   509.9    3.691      35.177
2015    3        2     0  56    4.6291   509.6    3.697      35.141
2015    3        2     1   2    4.6313   509.3    3.703      35.104
2015    3        2     1   7    4.6335   508.9    3.710      35.068
2015    3        2     1  12    4.6358   508.6    3.716      35.033
2015    3        2     1  17    4.6380   508.3    3.723      34.998
2015    3        2     1  23    4.6403   508.0    3.729      34.963
2015    3        2     1  28    4.6426   507.7    3.736      34.928
2015    3        2     1  33    4.6450   507.3    3.743      34.894
2015    3        2     1  38    4.6473   507.0    3.750      34.861
2015    3        2     1  44    4.6497   506.7    3.757      34.827
2015    3        2     1  49    4.6521   506.4    3.764      34.795
2015    3        2     1  54    4.6545   506.1    3.771      34.762
2015    3        2     1  59    4.6570   505.8    3.778      34.730
2015    3        2     2   5    4.6595   505.5    3.785      34.698
2015    3        2     2  10    4.6620   505.2    3.793      34.667
2015    3        2     2  15    4.6645   504.9    3.800      34.636
2015    3        2     2  20    4.6670   504.5    3.807      34.605
2015    3        2     2  26    4.6696   504.2    3.815      34.574
2015    3        2     2  31    4.6722   503.9    3.823      34.544
2015    3        2     2  36    4.6749   503.6    3.830      34.514
2015    3        2     2  41    4.6776   503.3    3.838      34.485
2015    3        2     2  47    4.6802   503.0    3.846      34.456
2015    3        2     2  52    4.6829   502.7    3.854      34.426
2015    3        2     2  57    4.6856   502.4    3.862      34.397
2015    3        2     3   2    4.6883   502.2    3.870      34.369
2015    3        2     3   8    4.6911   501.9    3.878      34.340
2015    3        2     3  13    4.6938   501.6    3.886      34.312
2015    3        2     3  18    4.6966   501.3    3.894      34.283
2015    3        2     3  23    4.6995   501.0    3.902      34.255
2015    3        2     3  29    4.7023   500.7    3.910      34.227
2015    3        2     3  34    4.7052   500.4    3.918      34.199
2015    3        2     3  39    4.7081   500.1    3.926      34.172
2015    3        2     3  44    4.7111   499.8    3.934      34.144
2015    3        2     3  50    4.7139   499.6    3.942      34.117
2015    3        2     3  55    4.7168   499.3    3.950      34.089
2015    3        2     4   0    4.7198   499.0    3.958      34.062
2015    3        2     4   5    4.7228   498.7    3.966      34.035
2015    3        2     4  11    4.7259   498.4    3.974      34.008
2015    3        2     4  16    4.7289   498.2    3.982      33.981
2015    3        2     4  21    4.7320   497.9    3.990      33.954
2015    3        2     4  27    4.7352   497.6    3.998      33.927
2015    3        2     4  32    4.7382   497.3    4.006      33.901
2015    3        2     4  37    4.7413   497.1    4.014      33.874
2015    3        2     4  42    4.7444   496.8    4.022      33.848
2015    3        2     4  48    4.7476   496.5    4.030      33.822
2015    3        2     4  53    4.7508   496.2    4.038      33.795
2015    3        2     4  58    4.7540   496.0    4.046      33.770
2015    3        2     5   3    4.7573   495.7    4.053      33.744
2015    3        2     5   9    4.7605   495.4    4.061      33.718
2015    3        2     5  14    4.7640   495.2    4.069      33.692
2015    3        2     5  19    4.7671   494.9    4.077      33.666
2015    3        2     5  24    4.7704   494.7    4.085      33.641
2015    3        2     5  30    4.7737   494.4    4.093      33.616
2015    3        2     5  35    4.7771   494.1    4.100      33.590
2015    3        2     5  40    4.7806   493.9    4.108      33.565
2015    3        2     5  45    4.7838   493.6    4.116      33.540
2015    3        2     5  51    4.7872   493.4    4.124      33.515
2015    3        2     5  56    4.7906   493.1    4.131      33.490
2015    3        2     6   1    4.7941   492.9    4.139      33.466
2015    3        2     6   6    4.7974   492.6    4.147      33.441
2015    3        2     6  12    4.8008   492.4    4.154      33.417
2015    3        2     6  17    4.8043   492.1    4.162      33.393
2015    3        2     6  22    4.8077   491.9    4.170      33.368
2015    3        2     6  27    4.8112   491.6    4.177      33.344
2015    3        2     6  33    4.8147   491.4    4.185      33.321
2015    3        2     6  38    4.8182   491.2    4.192      33.297
2015    3        2     6  43    4.8219   490.9    4.200      33.273
2015    3        2     6  48    4.8252   490.7    4.208      33.250
2015    3        2     6  54    4.8288   490.4    4.215      33.227
2015    3        2     6  59    4.8323   490.2    4.223      33.204
2015    3        2     7   4    4.8358   490.0    4.230      33.181
2015    3        2     7   9    4.8394   489.7    4.238      33.158
2015    3        2     7  15    4.8430   489.5    4.246      33.136
2015    3        2     7  20    4.8466   489.3    4.253      33.114
2015    3        2     7  25    4.8502   489.0    4.261      33.093
2015    3        2     7  30    4.8539   488.8    4.269      33.071
2015    3        2     7  36    4.8575   488.6    4.277      33.050
2015    3        2     7  41    4.8612   488.3    4.285      33.029
2015    3        2     7  46    4.8648   488.1    4.292      33.009
2015    3        2     7  51    4.8686   487.9    4.300      32.989
2015    3        2     7  57    4.8723   487.6    4.308      32.969
2015    3        2     8   2    4.8760   487.4    4.316      32.950
2015    3        2     8   7    4.8797   487.2    4.324      32.931
2015    3        2     8  12    4.8835   487.0    4.332      32.912
2015    3        2     8  18    4.8873   486.7    4.341      32.894
2015    3        2     8  23    4.8911   486.5    4.349      32.877
2015    3        2     8  28    4.8949   486.3    4.357      32.860
2015    3        2     8  33    4.8988   486.1    4.366      32.843
2015    3        2     8  39    4.9026   485.9    4.374      32.827
2015    3        2     8  44    4.9065   485.6    4.383      32.812
2015    3        2     8  49    4.9104   485.4    4.391      32.797
2015    3        2     8  54    4.9144   485.2    4.400      32.782
2015    3        2     9   0    4.9183   485.0    4.409      32.768
2015    3        2     9   5    4.9223   484.8    4.418      32.755
2015    3        2     9  10    4.9263   484.6    4.427      32.742
2015    3        2     9  15    4.9304   484.4    4.436      32.730
2015    3        2     9  21    4.9344   484.2    4.445      32.718
2015    3        2     9  26    4.9385   484.0    4.455      32.706
2015    3        2     9  31    4.9426   483.8    4.464      32.695
2015    3        2     9  36    4.9468   483.6    4.473      32.685
2015    3        2     9  42    4.9511   483.4    4.483      32.675
2015    3        2     9  47    4.9551   483.2    4.493      32.665
2015    3        2     9  52    4.9593   483.0    4.502      32.656
2015    3        2     9  57    4.9637   482.8    4.512      32.647
2015    3        2    10   3    4.9678   482.6    4.522      32.638
2015    3        2    10   8    4.9720   482.4    4.531      32.630
2015    3        2    10  13    4.9763   482.2    4.541      32.621
2015    3        2    10  18    4.9807   482.0    4.551      32.614
2015    3        2    10  24    4.9849   481.9    4.561      32.606
2015    3        2    10  29    4.9893   481.7    4.571      32.599
2015    3        2    10  34    4.9936   481.5    4.581      32.592
2015    3        2    10  39    4.9980   481.3    4.591      32.585
2015    3        2    10  45    5.0025   481.1    4.601      32.578
2015    3        2    10  50    5.0068   481.0    4.611      32.571
2015    3        2    10  55    5.0112   480.8    4.621      32.565
2015    3        2    11   0    5.0156   480.6    4.631      32.559
2015    3        2    11   6    5.0200   480.4    4.641      32.552
2015    3        2    11  11    5.0245   480.3    4.651      32.546
2015    3        2    11  16    5.0290   480.1    4.661      32.540
2015    3        2    11  22    5.0335   479.9    4.671      32.534
2015    3        2    11  27    5.0380   479.8    4.681      32.529
2015    3        2    11  32    5.0426   479.6    4.691      32.523
2015    3        2    11  37    5.0471   479.4    4.701      32.517
2015    3        2    11  43    5.0517   479.3    4.712      32.512
2015    3        2    11  48    5.0563   479.1    4.722      32.507
2015    3        2    11  53    5.0609   478.9    4.732      32.502
2015    3        2    11  58    5.0656   478.8    4.742      32.498
2015    3        2    12   4    5.0701   478.6    4.752      32.493
2015    3        2    12   9    5.0747   478.5    4.762      32.490
2015    3        2    12  14    5.0794   478.3    4.772      32.487
2015    3        2    12  19    5.0840   478.2    4.782      32.484
2015    3        2    12  25    5.0887   478.0    4.792      32.482
2015    3        2    12  30    5.0933   477.9    4.802      32.480
2015    3        2    12  35    5.0980   477.7    4.812      32.479
2015    3        2    12  40    5.1027   477.6    4.821      32.478
2015    3        2    12  46    5.1074   477.4    4.831      32.478
2015    3        2    12  51    5.1120   477.3    4.841      32.478
2015    3        2    12  56    5.1167   477.1    4.850      32.478
2015    3        2    13   1    5.1214   477.0    4.860      32.479
2015    3        2    13   7    5.1261   476.9    4.869      32.480
2015    3        2    13  12    5.1308   476.7    4.878      32.481
2015    3        2    13  17    5.1356   476.6    4.887      32.482
2015    3        2    13  22    5.1402   476.4    4.897      32.483
2015    3        2    13  28    5.1449   476.3    4.906      32.484
2015    3        2    13  33    5.1496   476.2    4.915      32.486
2015    3        2    13  38    5.1544   476.1    4.924      32.487
2015    3        2    13  43    5.1591   475.9    4.933      32.488
2015    3        2    13  49    5.1639   475.8    4.941      32.489
2015    3        2    13  54    5.1685   475.7    4.950      32.490
2015    3        2    13  59    5.1733   475.5    4.959      32.492
2015    3        2    14   5    5.1780   475.4    4.968      32.493
2015    3        2    14  10    5.1828   475.3    4.976      32.494
2015    3        2    14  15    5.1875   475.2    4.985      32.496
2015    3        2    14  20    5.1923   475.0    4.993      32.498
2015    3        2    14  26    5.1970   474.9    5.002      32.500
2015    3        2    14  31    5.2018   474.8    5.010      32.502
2015    3        2    14  36    5.2065   474.7    5.018      32.504
2015    3        2    14  41    5.2113   474.6    5.026      32.506
2015    3        2    14  47    5.2160   474.4    5.034      32.508
2015    3        2    14  52    5.2208   474.3    5.042      32.510
2015    3        2    14  57    5.2255   474.2    5.050      32.512
2015    3        2    15   2    5.2303   474.1    5.058      32.514
2015    3        2    15   8    5.2350   474.0    5.066      32.517
2015    3        2    15  13    5.2399   473.9    5.073      32.519
2015    3        2    15  18    5.2445   473.8    5.081      32.521
2015    3        2    15  23    5.2493   473.7    5.089      32.523
2015    3        2    15  28    5.2540   473.5    5.096      32.525
2015    3        2    15  34    5.2588   473.4    5.104      32.527
2015    3        2    15  39    5.2636   473.3    5.111      32.529
2015    3        2    15  44    5.2684   473.2    5.118      32.530
2015    3        2    15  49    5.2731   473.1    5.126      32.532
2015    3        2    15  55    5.2779   473.0    5.133      32.533
2015    3        2    16   0    5.2827   472.9    5.140      32.535
2015    3        2    16   5    5.2875   472.8    5.148      32.537
2015    3        2    16  10    5.2923   472.7    5.155      32.538
2015    3        2    16  16    5.2971   472.6    5.162      32.540
2015    3        2    16  21    5.3019   472.5    5.170      32.542
2015    3        2    16  26    5.3068   472.4    5.177      32.544
2015    3        2    16  31    5.3116   472.3    5.184      32.546
2015    3        2    16  37    5.3165   472.2    5.192      32.547
2015    3        2    16  42    5.3213   472.1    5.199      32.550
2015    3        2    16  47    5.3262   472.0    5.206      32.551
2015    3        2    16  52    5.3311   471.9    5.214      32.554
2015    3        2    16  58    5.3360   471.8    5.221      32.556
2015    3        2    17   3    5.3409   471.7    5.228      32.558
2015    3        2    17   8    5.3459   471.6    5.236      32.561
2015    3        2    17  13    5.3508   471.5    5.243      32.563
2015    3        2    17  19    5.3557   471.4    5.250      32.566
2015    3        2    17  24    5.3607   471.3    5.258      32.569
2015    3        2    17  29    5.3656   471.3    5.265      32.572
2015    3        2    17  34    5.3706   471.2    5.273      32.575
2015    3        2    17  40    5.3756   471.1    5.280      32.578
2015    3        2    17  45    5.3806   471.0    5.288      32.582
2015    3        2    17  50    5.3856   470.9    5.296      32.585
2015    3        2    17  55    5.3906   470.8    5.303      32.589
2015    3        2    18   1    5.3956   470.7    5.311      32.593
2015    3        2    18   6    5.4006   470.7    5.319      32.597
2015    3        2    18  11    5.4057   470.6    5.327      32.601
2015    3        2    18  16    5.4108   470.5    5.335      32.605
2015    3        2    18  22    5.4158   470.4    5.343      32.610
2015    3        2    18  27    5.4209   470.3    5.351      32.615
2015    3        2    18  32    5.4260   470.3    5.359      32.620
2015    3        2    18  38    5.4311   470.2    5.367      32.625
2015    3        2    18  43    5.4362   470.1    5.375      32.630
2015    3        2    18  48    5.4413   470.0    5.384      32.636
2015    3        2    18  53    5.4464   470.0    5.392      32.642
2015    3        2    18  59    5.4516   469.9    5.401      32.648
2015    3        2    19   4    5.4567   469.8    5.410      32.655
2015    3        2    19   9    5.4619   469.8    5.419      32.662
2015    3        2    19  14    5.4671   469.7    5.428      32.670
2015    3        2    19  20    5.4723   469.6    5.436      32.679
2015    3        2    19  25    5.4774   469.6    5.446      32.688
2015    3        2    19  30    5.4826   469.5    5.455      32.698
2015    3        2    19  35    5.4878   469.4    5.464      32.709
2015    3        2    19  41    5.4930   469.4    5.473      32.720
2015    3        2    19  46    5.4982   469.3    5.482      32.732
2015    3        2    19  51    5.5034   469.3    5.492      32.746
2015    3        2    19  56    5.5086   469.2    5.501      32.761
2015    3        2    20   2    5.5137   469.1    5.510      32.776
2015    3        2    20   7    5.5189   469.1    5.519      32.793
2015    3        2    20  12    5.5241   469.0    5.528      32.810
2015    3        2    20  17    5.5292   469.0    5.537      32.828
2015    3        2    20  23    5.5344   468.9    5.546      32.846
2015    3        2    20  28    5.5395   468.9    5.555      32.864
2015    3        2    20  33    5.5446   468.8    5.563      32.883
2015    3        2    20  38    5.5498   468.8    5.572      32.902
2015    3        2    20  44    5.5549   468.7    5.580      32.922
2015    3        2    20  49    5.5600   468.7    5.588      32.941
2015    3        2    20  54    5.5651   468.6    5.596      32.961
2015    3        2    21   0    5.5702   468.6    5.604      32.980
2015    3        2    21   5    5.5754   468.5    5.612      32.999
2015    3        2    21  10    5.5805   468.5    5.620      33.018
2015    3        2    21  15    5.5855   468.4    5.628      33.037
2015    3        2    21  21    5.5906   468.4    5.635      33.056
2015    3        2    21  26    5.5957   468.3    5.643      33.075
2015    3        2    21  31    5.6008   468.3    5.650      33.094
2015    3        2    21  36    5.6058   468.3    5.657      33.112
2015    3        2    21  42    5.6109   468.2    5.664      33.132
2015    3        2    21  47    5.6159   468.2    5.671      33.151
2015    3        2    21  52    5.6209   468.1    5.678      33.169
2015    3        2    21  57    5.6259   468.1    5.684      33.188
2015    3        2    22   3    5.6309   468.1    5.691      33.207
2015    3        2    22   8    5.6359   468.0    5.697      33.226
2015    3        2    22  13    5.6408   468.0    5.703      33.245
2015    3        2    22  18    5.6457   468.0    5.709      33.263
2015    3        2    22  24    5.6507   467.9    5.714      33.281
2015    3        2    22  29    5.6556   467.9    5.720      33.299
2015    3        2    22  34    5.6605   467.9    5.725      33.317
2015    3        2    22  39    5.6653   467.8    5.730      33.334
2015    3        2    22  45    5.6702   467.8    5.736      33.350
2015    3        2    22  50    5.6750   467.8    5.741      33.367
2015    3        2    22  55    5.6799   467.7    5.745      33.383
2015    3        2    23   0    5.6847   467.7    5.750      33.398
2015    3        2    23   5    5.6895   467.7    5.755      33.413
2015    3        2    23  11    5.6944   467.6    5.759      33.428
2015    3        2    23  16    5.6992   467.6    5.764      33.442
2015    3        2    23  21    5.7040   467.6    5.768      33.455
2015    3        2    23  26    5.7087   467.5    5.773      33.469
2015    3        2    23  32    5.7136   467.5    5.777      33.481
2015    3        2    23  37    5.7184   467.5    5.781      33.494
2015    3        2    23  42    5.7232   467.4    5.785      33.506
2015    3        2    23  47    5.7279   467.4    5.789      33.518
2015    3        2    23  53    5.7327   467.4    5.793      33.530
2015    3        2    23  58    5.7375   467.4    5.797      33.541
2015    3        3     0   3    5.7423   467.3    5.801      33.552
2015    3        3     0   8    5.7471   467.3    5.805      33.563
2015    3        3     0  14    5.7519   467.3    5.809      33.573
2015    3        3     0  19    5.7567   467.2    5.812      33.583
2015    3        3     0  24    5.7615   467.2    5.816      33.593
2015    3        3     0  29    5.7663   467.2    5.820      33.603
2015    3        3     0  35    5.7712   467.1    5.824      33.613
2015    3        3     0  40    5.7760   467.1    5.827      33.623
2015    3        3     0  45    5.7809   467.1    5.831      33.632
2015    3        3     0  50    5.7858   467.1    5.835      33.642
2015    3        3     0  56    5.7905   467.0    5.838      33.651
2015    3        3     1   1    5.7955   467.0    5.842      33.661
2015    3        3     1   6    5.8004   467.0    5.846      33.670
2015    3        3     1  11    5.8053   467.0    5.850      33.680
2015    3        3     1  17    5.8101   466.9    5.854      33.689
2015    3        3     1  22    5.8152   466.9    5.858      33.699
2015    3        3     1  27    5.8201   466.9    5.862      33.708
2015    3        3     1  32    5.8251   466.9    5.866      33.718
2015    3        3     1  38    5.8300   466.8    5.870      33.728
2015    3        3     1  43    5.8350   466.8    5.874      33.739
2015    3        3     1  48    5.8401   466.8    5.879      33.749
2015    3        3     1  54    5.8450   466.8    5.883      33.760
2015    3        3     1  59    5.8501   466.8    5.888      33.770
2015    3        3     2   4    5.8552   466.7    5.893      33.782
2015    3        3     2   9    5.8603   466.7    5.898      33.793
2015    3        3     2  15    5.8654   466.7    5.903      33.805
2015    3        3     2  20    5.8705   466.7    5.909      33.818
2015    3        3     2  25    5.8756   466.7    5.914      33.830
2015    3        3     2  30    5.8808   466.6    5.920      33.844
2015    3        3     2  36    5.8860   466.6    5.926      33.858
2015    3        3     2  41    5.8912   466.6    5.932      33.872
2015    3        3     2  46    5.8964   466.6    5.939      33.887
2015    3        3     2  51    5.9017   466.6    5.946      33.902
2015    3        3     2  57    5.9070   466.6    5.953      33.919
2015    3        3     3   2    5.9122   466.6    5.960      33.936
2015    3        3     3   7    5.9175   466.6    5.968      33.955
2015    3        3     3  12    5.9228   466.6    5.976      33.974
2015    3        3     3  18    5.9281   466.6    5.984      33.996
2015    3        3     3  23    5.9333   466.6    5.992      34.019
2015    3        3     3  28    5.9386   466.6    6.000      34.044
2015    3        3     3  33    5.9439   466.6    6.008      34.070
2015    3        3     3  39    5.9492   466.6    6.016      34.098
2015    3        3     3  44    5.9545   466.6    6.025      34.126
2015    3        3     3  49    5.9598   466.6    6.033      34.156
2015    3        3     3  54    5.9650   466.6    6.041      34.186
2015    3        3     4   0    5.9701   466.6    6.048      34.217
2015    3        3     4   5    5.9753   466.6    6.056      34.248
2015    3        3     4  10    5.9804   466.6    6.064      34.280
2015    3        3     4  15    5.9855   466.7    6.071      34.313
2015    3        3     4  21    5.9906   466.7    6.078      34.345
2015    3        3     4  26    5.9956   466.7    6.085      34.378
2015    3        3     4  31    6.0007   466.7    6.091      34.410
2015    3        3     4  36    6.0057   466.7    6.098      34.442
2015    3        3     4  42    6.0106   466.8    6.104      34.474
2015    3        3     4  47    6.0155   466.8    6.110      34.505
2015    3        3     4  52    6.0204   466.8    6.115      34.537
2015    3        3     4  57    6.0252   466.8    6.120      34.568
2015    3        3     5   3    6.0300   466.8    6.125      34.599
2015    3        3     5   8    6.0348   466.9    6.130      34.630
2015    3        3     5  13    6.0396   466.9    6.135      34.661
2015    3        3     5  18    6.0443   466.9    6.139      34.692
2015    3        3     5  24    6.0490   466.9    6.143      34.722
2015    3        3     5  29    6.0537   466.9    6.147      34.752
2015    3        3     5  34    6.0583   467.0    6.151      34.781
2015    3        3     5  39    6.0629   467.0    6.154      34.810
2015    3        3     5  45    6.0675   467.0    6.157      34.839
2015    3        3     5  50    6.0722   467.0    6.160      34.867
2015    3        3     5  55    6.0767   467.0    6.163      34.895
2015    3        3     6   0    6.0813   467.1    6.166      34.922
2015    3        3     6   6    6.0858   467.1    6.169      34.949
2015    3        3     6  11    6.0904   467.1    6.171      34.974
2015    3        3     6  16    6.0949   467.1    6.174      35.000
2015    3        3     6  21    6.0994   467.1    6.176      35.024
2015    3        3     6  27    6.1038   467.1    6.178      35.049
2015    3        3     6  32    6.1084   467.2    6.180      35.072
2015    3        3     6  37    6.1128   467.2    6.182      35.096
2015    3        3     6  42    6.1173   467.2    6.184      35.118
2015    3        3     6  48    6.1217   467.2    6.185      35.141
2015    3        3     6  53    6.1262   467.2    6.187      35.163
2015    3        3     6  58    6.1307   467.2    6.189      35.184
2015    3        3     7   3    6.1351   467.2    6.190      35.206
2015    3        3     7   9    6.1396   467.3    6.192      35.226
2015    3        3     7  14    6.1440   467.3    6.193      35.247
2015    3        3     7  19    6.1485   467.3    6.194      35.267
2015    3        3     7  24    6.1530   467.3    6.196      35.287
2015    3        3     7  30    6.1574   467.3    6.197      35.306
2015    3        3     7  35    6.1619   467.3    6.198      35.326
2015    3        3     7  40    6.1664   467.4    6.199      35.345
2015    3        3     7  45    6.1708   467.4    6.201      35.363
2015    3        3     7  51    6.1753   467.4    6.202      35.382
2015    3        3     7  56    6.1798   467.4    6.203      35.400
2015    3        3     8   1    6.1843   467.4    6.204      35.418
2015    3        3     8   6    6.1888   467.4    6.205      35.436
2015    3        3     8  12    6.1933   467.5    6.206      35.454
2015    3        3     8  17    6.1978   467.5    6.208      35.471
2015    3        3     8  22    6.2023   467.5    6.209      35.489
2015    3        3     8  27    6.2069   467.5    6.210      35.506
2015    3        3     8  33    6.2114   467.5    6.211      35.524
2015    3        3     8  38    6.2160   467.5    6.213      35.541
2015    3        3     8  43    6.2205   467.6    6.214      35.558
2015    3        3     8  48    6.2251   467.6    6.215      35.576
2015    3        3     8  54    6.2297   467.6    6.217      35.593
2015    3        3     8  59    6.2343   467.6    6.219      35.611
2015    3        3     9   4    6.2390   467.6    6.220      35.628
2015    3        3     9   9    6.2436   467.7    6.222      35.646
2015    3        3     9  15    6.2483   467.7    6.224      35.664
2015    3        3     9  20    6.2529   467.7    6.226      35.682
2015    3        3     9  25    6.2575   467.7    6.228      35.700
2015    3        3     9  31    6.2623   467.8    6.231      35.719
2015    3        3     9  36    6.2670   467.8    6.233      35.738
2015    3        3     9  41    6.2717   467.8    6.236      35.757
2015    3        3     9  46    6.2765   467.8    6.239      35.777
2015    3        3     9  52    6.2813   467.9    6.242      35.797
2015    3        3     9  57    6.2861   467.9    6.246      35.818
2015    3        3    10   2    6.2909   467.9    6.250      35.840
2015    3        3    10   7    6.2957   467.9    6.254      35.861
2015    3        3    10  13    6.3006   468.0    6.258      35.883
2015    3        3    10  18    6.3055   468.0    6.263      35.906
2015    3        3    10  23    6.3104   468.0    6.267      35.930
2015    3        3    10  28    6.3152   468.1    6.272      35.956
2015    3        3    10  34    6.3202   468.1    6.278      35.983
2015    3        3    10  39    6.3252   468.2    6.283      36.011
2015    3        3    10  44    6.3301   468.2    6.289      36.040
2015    3        3    10  49    6.3351   468.2    6.295      36.071
2015    3        3    10  55    6.3400   468.3    6.301      36.102
2015    3        3    11   0    6.3451   468.3    6.307      36.135
2015    3        3    11   5    6.3501   468.4    6.314      36.168
2015    3        3    11  10    6.3551   468.4    6.320      36.203
2015    3        3    11  16    6.3600   468.5    6.326      36.239
2015    3        3    11  21    6.3649   468.6    6.332      36.277
2015    3        3    11  26    6.3699   468.6    6.338      36.317
2015    3        3    11  31    6.3748   468.7    6.344      36.359
2015    3        3    11  37    6.3796   468.8    6.350      36.402
2015    3        3    11  42    6.3845   468.8    6.355      36.445
2015    3        3    11  47    6.3893   468.9    6.360      36.489
2015    3        3    11  52    6.3941   469.0    6.365      36.534
2015    3        3    11  58    6.3988   469.0    6.370      36.580
2015    3        3    12   3    6.4035   469.1    6.374      36.625
2015    3        3    12   8    6.4081   469.2    6.378      36.671
2015    3        3    12  13    6.4127   469.3    6.381      36.718
2015    3        3    12  19    6.4173   469.3    6.384      36.764
2015    3        3    12  24    6.4219   469.4    6.387      36.810
2015    3        3    12  29    6.4264   469.5    6.390      36.855
2015    3        3    12  34    6.4309   469.6    6.393      36.901
2015    3        3    12  40    6.4354   469.6    6.395      36.945
2015    3        3    12  45    6.4399   469.7    6.397      36.988
2015    3        3    12  50    6.4443   469.8    6.398      37.031
2015    3        3    12  55    6.4487   469.8    6.400      37.073
2015    3        3    13   1    6.4531   469.9    6.401      37.114
2015    3        3    13   6    6.4576   470.0    6.402      37.155
2015    3        3    13  11    6.4619   470.0    6.403      37.195
2015    3        3    13  16    6.4664   470.1    6.404      37.234
2015    3        3    13  22    6.4707   470.2    6.405      37.273
2015    3        3    13  27    6.4751   470.2    6.405      37.311
2015    3        3    13  32    6.4795   470.3    6.406      37.348
2015    3        3    13  37    6.4839   470.4    6.406      37.385
2015    3        3    13  43    6.4882   470.4    6.406      37.422
2015    3        3    13  48    6.4926   470.5    6.406      37.457
2015    3        3    13  53    6.4970   470.6    6.406      37.493
2015    3        3    13  58    6.5013   470.6    6.406      37.528
2015    3        3    14   4    6.5057   470.7    6.406      37.562
2015    3        3    14   9    6.5101   470.8    6.405      37.596
2015    3        3    14  14    6.5144   470.8    6.405      37.630
2015    3        3    14  19    6.5187   470.9    6.404      37.663
2015    3        3    14  25    6.5231   471.0    6.404      37.696
2015    3        3    14  30    6.5274   471.0    6.403      37.728
2015    3        3    14  35    6.5318   471.1    6.403      37.760
2015    3        3    14  40    6.5361   471.2    6.402      37.791
2015    3        3    14  46    6.5404   471.2    6.401      37.823
2015    3        3    14  51    6.5448   471.3    6.400      37.853
2015    3        3    14  56    6.5491   471.3    6.400      37.884
2015    3        3    15   1    6.5535   471.4    6.399      37.914
2015    3        3    15   7    6.5578   471.5    6.398      37.944
2015    3        3    15  12    6.5621   471.5    6.397      37.973
2015    3        3    15  17    6.5664   471.6    6.396      38.003
2015    3        3    15  22    6.5708   471.7    6.395      38.032
2015    3        3    15  28    6.5751   471.7    6.394      38.060
2015    3        3    15  33    6.5794   471.8    6.393      38.089
2015    3        3    15  38    6.5838   471.9    6.392      38.117
2015    3        3    15  43    6.5881   471.9    6.391      38.145
2015    3        3    15  49    6.5924   472.0    6.389      38.173
2015    3        3    15  54    6.5968   472.1    6.388      38.201
2015    3        3    15  59    6.6011   472.1    6.387      38.228
2015    3        3    16   4    6.6055   472.2    6.386      38.256
2015    3        3    16  10    6.6098   472.2    6.385      38.283
2015    3        3    16  15    6.6141   472.3    6.384      38.311
2015    3        3    16  20    6.6185   472.4    6.383      38.338
2015    3        3    16  25    6.6228   472.4    6.382      38.366
2015    3        3    16  31    6.6272   472.5    6.381      38.393
2015    3        3    16  36    6.6315   472.6    6.380      38.420
2015    3        3    16  41    6.6359   472.6    6.379      38.448
2015    3        3    16  46    6.6402   472.7    6.378      38.476
2015    3        3    16  52    6.6446   472.8    6.378      38.504
2015    3        3    16  57    6.6489   472.9    6.377      38.532
2015    3        3    17   2    6.6533   472.9    6.376      38.560
2015    3        3    17   7    6.6577   473.0    6.376      38.588
2015    3        3    17  13    6.6620   473.1    6.375      38.617
2015    3        3    17  18    6.6664   473.1    6.375      38.646
2015    3        3    17  23    6.6707   473.2    6.374      38.675
2015    3        3    17  29    6.6751   473.3    6.374      38.705
2015    3        3    17  34    6.6794   473.4    6.374      38.735
2015    3        3    17  39    6.6838   473.4    6.374      38.766
2015    3        3    17  44    6.6881   473.5    6.374      38.797
2015    3        3    17  50    6.6925   473.6    6.374      38.828
2015    3        3    17  55    6.6968   473.7    6.374      38.860
2015    3        3    18   0    6.7011   473.7    6.375      38.893
2015    3        3    18   5    6.7055   473.8    6.375      38.926
2015    3        3    18  11    6.7097   473.9    6.376      38.959
2015    3        3    18  16    6.7141   474.0    6.376      38.993
2015    3        3    18  21    6.7185   474.1    6.377      39.028
2015    3        3    18  26    6.7228   474.2    6.378      39.063
2015    3        3    18  32    6.7271   474.2    6.379      39.099
2015    3        3    18  37    6.7314   474.3    6.380      39.136
2015    3        3    18  42    6.7357   474.4    6.382      39.173
2015    3        3    18  47    6.7399   474.5    6.383      39.210
2015    3        3    18  53    6.7442   474.6    6.385      39.248
2015    3        3    18  58    6.7485   474.7    6.386      39.287
2015    3        3    19   3    6.7527   474.8    6.388      39.327
2015    3        3    19   8    6.7569   474.9    6.390      39.367
2015    3        3    19  14    6.7612   474.9    6.392      39.407
2015    3        3    19  19    6.7654   475.0    6.394      39.449
2015    3        3    19  24    6.7696   475.1    6.396      39.490
2015    3        3    19  29    6.7738   475.2    6.399      39.533
2015    3        3    19  35    6.7780   475.3    6.401      39.576
2015    3        3    19  40    6.7821   475.4    6.404      39.619
2015    3        3    19  45    6.7864   475.5    6.407      39.663
2015    3        3    19  50    6.7906   475.6    6.410      39.708
2015    3        3    19  56    6.7948   475.7    6.413      39.753
2015    3        3    20   1    6.7990   475.8    6.416      39.800
2015    3        3    20   6    6.8032   475.9    6.419      39.847
2015    3        3    20  11    6.8074   476.0    6.423      39.895
2015    3        3    20  17    6.8117   476.1    6.426      39.944
2015    3        3    20  22    6.8159   476.2    6.430      39.995
2015    3        3    20  27    6.8201   476.3    6.433      40.047
2015    3        3    20  32    6.8243   476.4    6.437      40.101
2015    3        3    20  38    6.8285   476.5    6.441      40.156
2015    3        3    20  43    6.8326   476.6    6.444      40.212
2015    3        3    20  48    6.8369   476.7    6.448      40.270
2015    3        3    20  53    6.8411   476.8    6.452      40.328
2015    3        3    20  59    6.8452   476.9    6.455      40.388
2015    3        3    21   4    6.8494   477.1    6.459      40.449
2015    3        3    21   9    6.8537   477.2    6.462      40.510
2015    3        3    21  14    6.8579   477.3    6.466      40.573
2015    3        3    21  20    6.8621   477.4    6.469      40.636
2015    3        3    21  25    6.8663   477.5    6.473      40.699
2015    3        3    21  30    6.8705   477.6    6.476      40.763
2015    3        3    21  35    6.8747   477.8    6.480      40.826
2015    3        3    21  41    6.8789   477.9    6.484      40.890
2015    3        3    21  46    6.8831   478.0    6.487      40.954
2015    3        3    21  51    6.8873   478.1    6.490      41.020
2015    3        3    21  56    6.8915   478.3    6.494      41.086
2015    3        3    22   1    6.8957   478.4    6.497      41.153
2015    3        3    22   7    6.8999   478.5    6.500      41.220
2015    3        3    22  12    6.9040   478.6    6.503      41.287
2015    3        3    22  17    6.9083   478.8    6.506      41.355
2015    3        3    22  22    6.9124   478.9    6.509      41.422
2015    3        3    22  28    6.9165   479.0    6.511      41.489
2015    3        3    22  33    6.9206   479.2    6.513      41.555
2015    3        3    22  38    6.9246   479.3    6.515      41.621
2015    3        3    22  43    6.9286   479.4    6.517      41.686
2015    3        3    22  49    6.9326   479.6    6.518      41.751
2015    3        3    22  54    6.9365   479.7    6.520      41.815
2015    3        3    22  59    6.9404   479.8    6.521      41.877
2015    3        3    23   5    6.9442   480.0    6.521      41.938
2015    3        3    23  10    6.9480   480.1    6.522      41.998
2015    3        3    23  15    6.9518   480.2    6.522      42.057
2015    3        3    23  20    6.9555   480.4    6.522      42.114
2015    3        3    23  26    6.9593   480.5    6.522      42.170
2015    3        3    23  31    6.9630   480.6    6.521      42.225
2015    3        3    23  36    6.9667   480.8    6.521      42.278
2015    3        3    23  41    6.9703   480.9    6.520      42.331
2015    3        3    23  47    6.9740   481.0    6.519      42.382
2015    3        3    23  52    6.9776   481.1    6.518      42.432
2015    3        3    23  57    6.9813   481.3    6.517      42.482
2015    3        4     0   2    6.9849   481.4    6.515      42.530
2015    3        4     0   8    6.9886   481.5    6.514      42.577
2015    3        4     0  13    6.9922   481.7    6.512      42.624
2015    3        4     0  18    6.9958   481.8    6.510      42.670
2015    3        4     0  23    6.9994   481.9    6.509      42.715
2015    3        4     0  29    7.0030   482.0    6.507      42.759
2015    3        4     0  34    7.0067   482.2    6.505      42.803
2015    3        4     0  39    7.0103   482.3    6.503      42.845
2015    3        4     0  44    7.0140   482.4    6.501      42.888
2015    3        4     0  50    7.0176   482.5    6.498      42.929
2015    3        4     0  55    7.0213   482.7    6.496      42.971
2015    3        4     1   0    7.0249   482.8    6.494      43.011
2015    3        4     1   5    7.0286   482.9    6.492      43.052
2015    3        4     1  11    7.0323   483.0    6.489      43.092
2015    3        4     1  16    7.0360   483.2    6.487      43.131
2015    3        4     1  21    7.0397   483.3    6.485      43.171
2015    3        4     1  26    7.0434   483.4    6.482      43.210
2015    3        4     1  32    7.0471   483.5    6.480      43.249
2015    3        4     1  37    7.0508   483.7    6.478      43.288
2015    3        4     1  42    7.0546   483.8    6.475      43.326
2015    3        4     1  47    7.0583   483.9    6.473      43.365
2015    3        4     1  53    7.0621   484.0    6.471      43.404
2015    3        4     1  58    7.0658   484.2    6.469      43.442
2015    3        4     2   3    7.0696   484.3    6.466      43.481
2015    3        4     2   8    7.0734   484.4    6.464      43.520
2015    3        4     2  14    7.0772   484.5    6.462      43.559
2015    3        4     2  19    7.0809   484.7    6.460      43.598
2015    3        4     2  24    7.0848   484.8    6.458      43.637
2015    3        4     2  29    7.0886   484.9    6.457      43.677
2015    3        4     2  35    7.0924   485.1    6.455      43.717
2015    3        4     2  40    7.0962   485.2    6.454      43.757
2015    3        4     2  45    7.1001   485.3    6.452      43.798
2015    3        4     2  50    7.1039   485.4    6.451      43.839
2015    3        4     2  56    7.1078   485.6    6.450      43.881
2015    3        4     3   1    7.1117   485.7    6.449      43.923
2015    3        4     3   6    7.1156   485.8    6.448      43.966
2015    3        4     3  11    7.1195   485.9    6.448      44.010
2015    3        4     3  17    7.1234   486.1    6.447      44.055
2015    3        4     3  22    7.1274   486.2    6.447      44.100
2015    3        4     3  27    7.1314   486.3    6.448      44.146
2015    3        4     3  32    7.1353   486.5    6.448      44.193
2015    3        4     3  38    7.1394   486.6    6.449      44.242
2015    3        4     3  43    7.1434   486.7    6.450      44.291
2015    3        4     3  48    7.1475   486.9    6.451      44.343
2015    3        4     3  53    7.1514   487.0    6.452      44.395
2015    3        4     3  59    7.1556   487.1    6.453      44.449
2015    3        4     4   4    7.1596   487.3    6.455      44.505
2015    3        4     4   9    7.1637   487.4    6.457      44.561
2015    3        4     4  14    7.1678   487.6    6.459      44.619
2015    3        4     4  20    7.1719   487.7    6.461      44.678
2015    3        4     4  25    7.1761   487.8    6.464      44.737
2015    3        4     4  30    7.1802   488.0    6.467      44.798
2015    3        4     4  35    7.1844   488.1    6.469      44.859
2015    3        4     4  41    7.1885   488.3    6.472      44.923
2015    3        4     4  46    7.1927   488.4    6.475      44.988
2015    3        4     4  51    7.1969   488.6    6.479      45.054
2015    3        4     4  56    7.2011   488.7    6.482      45.120
2015    3        4     5   2    7.2053   488.9    6.485      45.188
2015    3        4     5   7    7.2094   489.0    6.489      45.258
2015    3        4     5  12    7.2136   489.2    6.492      45.329
2015    3        4     5  17    7.2178   489.4    6.495      45.400
2015    3        4     5  23    7.2219   489.5    6.498      45.473
2015    3        4     5  28    7.2260   489.7    6.501      45.546
2015    3        4     5  33    7.2301   489.9    6.504      45.619
2015    3        4     5  38    7.2342   490.0    6.506      45.692
2015    3        4     5  44    7.2382   490.2    6.509      45.766
2015    3        4     5  49    7.2422   490.4    6.511      45.839
2015    3        4     5  54    7.2460   490.6    6.512      45.911
2015    3        4     5  59    7.2500   490.7    6.514      45.983
2015    3        4     6   5    7.2538   490.9    6.515      46.054
2015    3        4     6  10    7.2576   491.1    6.516      46.123
2015    3        4     6  15    7.2614   491.3    6.516      46.192
2015    3        4     6  20    7.2651   491.4    6.517      46.259
2015    3        4     6  26    7.2688   491.6    6.517      46.325
2015    3        4     6  31    7.2723   491.8    6.516      46.389
2015    3        4     6  36    7.2760   492.0    6.516      46.452
2015    3        4     6  41    7.2795   492.2    6.515      46.514
2015    3        4     6  47    7.2831   492.3    6.514      46.575
2015    3        4     6  52    7.2866   492.5    6.513      46.634
2015    3        4     6  57    7.2900   492.7    6.511      46.693
2015    3        4     7   2    7.2935   492.9    6.510      46.750
2015    3        4     7   8    7.2969   493.1    6.508      46.806
2015    3        4     7  13    7.3004   493.3    6.506      46.862
2015    3        4     7  18    7.3038   493.4    6.504      46.916
2015    3        4     7  23    7.3072   493.6    6.502      46.970
2015    3        4     7  29    7.3105   493.8    6.499      47.022
2015    3        4     7  34    7.3139   494.0    6.497      47.074
2015    3        4     7  39    7.3173   494.2    6.494      47.125
2015    3        4     7  44    7.3206   494.4    6.491      47.176
2015    3        4     7  50    7.3239   494.5    6.488      47.225
2015    3        4     7  55    7.3273   494.7    6.485      47.274
2015    3        4     8   0    7.3306   494.9    6.482      47.323
2015    3        4     8   6    7.3338   495.1    6.479      47.370
2015    3        4     8  11    7.3371   495.3    6.475      47.418
2015    3        4     8  16    7.3404   495.5    6.472      47.464
2015    3        4     8  21    7.3437   495.7    6.469      47.510
2015    3        4     8  27    7.3469   495.8    6.465      47.556
2015    3        4     8  32    7.3502   496.0    6.461      47.601
2015    3        4     8  37    7.3533   496.2    6.458      47.646
2015    3        4     8  42    7.3566   496.4    6.454      47.691
2015    3        4     8  48    7.3599   496.6    6.451      47.735
2015    3        4     8  53    7.3630   496.8    6.447      47.779
2015    3        4     8  58    7.3663   497.0    6.443      47.822
2015    3        4     9   3    7.3695   497.2    6.440      47.866
2015    3        4     9   9    7.3727   497.4    6.436      47.910
2015    3        4     9  14    7.3759   497.5    6.432      47.953
2015    3        4     9  19    7.3791   497.7    6.429      47.996
2015    3        4     9  24    7.3823   497.9    6.425      48.039
2015    3        4     9  30    7.3855   498.1    6.422      48.083
2015    3        4     9  35    7.3887   498.3    6.418      48.126
2015    3        4     9  40    7.3918   498.5    6.415      48.169
2015    3        4     9  45    7.3951   498.7    6.412      48.213
2015    3        4     9  51    7.3982   498.9    6.408      48.257
2015    3        4     9  56    7.4015   499.1    6.405      48.301
2015    3        4    10   1    7.4047   499.2    6.402      48.346
2015    3        4    10   6    7.4080   499.4    6.400      48.391
2015    3        4    10  12    7.4112   499.6    6.397      48.437
2015    3        4    10  17    7.4145   499.8    6.394      48.483
2015    3        4    10  22    7.4178   500.0    6.392      48.530
2015    3        4    10  27    7.4210   500.2    6.390      48.578
2015    3        4    10  33    7.4244   500.4    6.388      48.627
2015    3        4    10  38    7.4277   500.6    6.386      48.678
2015    3        4    10  43    7.4310   500.8    6.384      48.730
2015    3        4    10  48    7.4343   501.0    6.382      48.783
2015    3        4    10  54    7.4376   501.2    6.380      48.837
2015    3        4    10  59    7.4408   501.4    6.378      48.892
2015    3        4    11   4    7.4442   501.6    6.376      48.947
2015    3        4    11   9    7.4475   501.8    6.375      49.003
2015    3        4    11  15    7.4507   502.0    6.373      49.060
2015    3        4    11  20    7.4540   502.2    6.371      49.118
2015    3        4    11  25    7.4572   502.4    6.370      49.177
2015    3        4    11  30    7.4604   502.6    6.368      49.237
2015    3        4    11  36    7.4635   502.8    6.366      49.297
2015    3        4    11  41    7.4666   503.1    6.365      49.357
2015    3        4    11  46    7.4697   503.3    6.363      49.417
2015    3        4    11  51    7.4727   503.5    6.361      49.477
2015    3        4    11  56    7.4758   503.7    6.359      49.537
2015    3        4    12   2    7.4789   503.9    6.357      49.596
2015    3        4    12   7    7.4819   504.1    6.355      49.655
2015    3        4    12  12    7.4849   504.4    6.354      49.715
2015    3        4    12  17    7.4879   504.6    6.352      49.776
2015    3        4    12  23    7.4908   504.8    6.349      49.837
2015    3        4    12  28    7.4936   505.0    6.347      49.897
2015    3        4    12  33    7.4966   505.3    6.345      49.958
2015    3        4    12  38    7.4994   505.5    6.343      50.018
2015    3        4    12  44    7.5022   505.7    6.340      50.079
2015    3        4    12  49    7.5049   506.0    6.338      50.139
2015    3        4    12  54    7.5076   506.2    6.335      50.199
2015    3        4    12  59    7.5103   506.4    6.332      50.258
2015    3        4    13   5    7.5129   506.7    6.329      50.318
2015    3        4    13  10    7.5154   506.9    6.326      50.376
2015    3        4    13  15    7.5178   507.2    6.323      50.435
2015    3        4    13  20    7.5204   507.4    6.319      50.493
2015    3        4    13  26    7.5228   507.7    6.316      50.550
2015    3        4    13  31    7.5252   507.9    6.312      50.606
2015    3        4    13  36    7.5275   508.2    6.308      50.662
2015    3        4    13  41    7.5299   508.4    6.304      50.717
2015    3        4    13  47    7.5322   508.7    6.300      50.771
2015    3        4    13  52    7.5343   508.9    6.295      50.824
2015    3        4    13  57    7.5366   509.2    6.291      50.877
2015    3        4    14   2    7.5388   509.4    6.286      50.929
2015    3        4    14   8    7.5410   509.7    6.282      50.981
2015    3        4    14  13    7.5431   509.9    6.277      51.033
2015    3        4    14  18    7.5452   510.2    6.272      51.084
2015    3        4    14  23    7.5473   510.4    6.267      51.135
2015    3        4    14  29    7.5494   510.7    6.262      51.186
2015    3        4    14  34    7.5514   510.9    6.257      51.236
2015    3        4    14  39    7.5533   511.2    6.252      51.286
2015    3        4    14  45    7.5554   511.4    6.247      51.336
2015    3        4    14  50    7.5572   511.7    6.242      51.385
2015    3        4    14  55    7.5593   512.0    6.236      51.434
2015    3        4    15   0    7.5612   512.2    6.231      51.483
2015    3        4    15   6    7.5630   512.5    6.225      51.531
2015    3        4    15  11    7.5649   512.7    6.220      51.579
2015    3        4    15  16    7.5667   513.0    6.214      51.627
2015    3        4    15  21    7.5686   513.3    6.208      51.675
2015    3        4    15  27    7.5704   513.5    6.203      51.722
2015    3        4    15  32    7.5720   513.8    6.197      51.769
2015    3        4    15  37    7.5738   514.0    6.191      51.816
2015    3        4    15  42    7.5756   514.3    6.185      51.863
2015    3        4    15  48    7.5773   514.6    6.180      51.909
2015    3        4    15  53    7.5790   514.8    6.174      51.955
2015    3        4    15  58    7.5807   515.1    6.168      52.001
2015    3        4    16   3    7.5822   515.4    6.162      52.047
2015    3        4    16   9    7.5840   515.6    6.156      52.093
2015    3        4    16  14    7.5856   515.9    6.151      52.139
2015    3        4    16  19    7.5871   516.1    6.145      52.184
2015    3        4    16  24    7.5888   516.4    6.139      52.229
2015    3        4    16  30    7.5904   516.7    6.133      52.275
2015    3        4    16  35    7.5920   516.9    6.128      52.320
2015    3        4    16  40    7.5936   517.2    6.122      52.365
2015    3        4    16  45    7.5952   517.4    6.116      52.410
2015    3        4    16  51    7.5967   517.7    6.111      52.456
2015    3        4    16  56    7.5982   518.0    6.105      52.501
2015    3        4    17   1    7.5998   518.2    6.100      52.546
2015    3        4    17   6    7.6013   518.5    6.094      52.592
2015    3        4    17  12    7.6028   518.7    6.089      52.638
2015    3        4    17  17    7.6041   519.0    6.083      52.685
2015    3        4    17  22    7.6056   519.3    6.078      52.732
2015    3        4    17  27    7.6071   519.5    6.073      52.780
2015    3        4    17  33    7.6085   519.8    6.067      52.828
2015    3        4    17  38    7.6101   520.1    6.062      52.877
2015    3        4    17  43    7.6115   520.3    6.057      52.926
2015    3        4    17  48    7.6128   520.6    6.051      52.977
2015    3        4    17  54    7.6142   520.9    6.046      53.027
2015    3        4    17  59    7.6155   521.1    6.041      53.079
2015    3        4    18   4    7.6168   521.4    6.035      53.131
2015    3        4    18   9    7.6179   521.7    6.030      53.184
2015    3        4    18  15    7.6193   522.0    6.024      53.237
2015    3        4    18  20    7.6204   522.2    6.019      53.291
2015    3        4    18  25    7.6216   522.5    6.013      53.344
2015    3        4    18  30    7.6226   522.8    6.008      53.398
2015    3        4    18  36    7.6238   523.1    6.002      53.451
2015    3        4    18  41    7.6248   523.3    5.996      53.505
2015    3        4    18  46    7.6259   523.6    5.990      53.558
2015    3        4    18  51    7.6270   523.9    5.984      53.611
2015    3        4    18  57    7.6280   524.2    5.978      53.664
2015    3        4    19   2    7.6289   524.4    5.972      53.717
2015    3        4    19   7    7.6299   524.7    5.966      53.769
2015    3        4    19  12    7.6308   525.0    5.960      53.821
2015    3        4    19  18    7.6315   525.3    5.954      53.872
2015    3        4    19  23    7.6325   525.6    5.948      53.924
2015    3        4    19  28    7.6334   525.8    5.942      53.974
2015    3        4    19  33    7.6342   526.1    5.935      54.025
2015    3        4    19  39    7.6350   526.4    5.929      54.076
2015    3        4    19  44    7.6357   526.7    5.923      54.126
2015    3        4    19  49    7.6365   526.9    5.916      54.176
2015    3        4    19  54    7.6372   527.2    5.910      54.225
2015    3        4    19  59    7.6380   527.5    5.904      54.275
2015    3        4    20   5    7.6386   527.8    5.897      54.324
2015    3        4    20  10    7.6393   528.1    5.891      54.373
2015    3        4    20  15    7.6399   528.3    5.884      54.421
2015    3        4    20  20    7.6405   528.6    5.878      54.469
2015    3        4    20  26    7.6411   528.9    5.871      54.518
2015    3        4    20  31    7.6417   529.2    5.865      54.566
2015    3        4    20  36    7.6421   529.5    5.859      54.613
2015    3        4    20  41    7.6428   529.7    5.852      54.661
2015    3        4    20  47    7.6433   530.0    5.846      54.708
2015    3        4    20  52    7.6438   530.3    5.839      54.756
2015    3        4    20  57    7.6443   530.6    5.833      54.803
2015    3        4    21   2    7.6445   530.9    5.826      54.850
2015    3        4    21   8    7.6452   531.1    5.820      54.897
2015    3        4    21  13    7.6456   531.4    5.814      54.944
2015    3        4    21  18    7.6459   531.7    5.807      54.992
2015    3        4    21  24    7.6463   532.0    5.801      55.040
2015    3        4    21  29    7.6466   532.3    5.795      55.088
2015    3        4    21  34    7.6469   532.6    5.788      55.136
2015    3        4    21  39    7.6470   532.9    5.782      55.185
2015    3        4    21  45    7.6472   533.1    5.775      55.233
2015    3        4    21  50    7.6476   533.4    5.769      55.282
2015    3        4    21  55    7.6477   533.7    5.762      55.331
2015    3        4    22   0    7.6478   534.0    5.755      55.380
2015    3        4    22   6    7.6479   534.3    5.749      55.428
2015    3        4    22  11    7.6480   534.6    5.742      55.477
2015    3        4    22  16    7.6480   534.9    5.735      55.525
2015    3        4    22  21    7.6479   535.2    5.728      55.573
2015    3        4    22  27    7.6479   535.5    5.721      55.620
2015    3        4    22  32    7.6478   535.7    5.714      55.667
2015    3        4    22  37    7.6475   536.0    5.707      55.714
2015    3        4    22  42    7.6475   536.3    5.700      55.760
2015    3        4    22  48    7.6474   536.6    5.693      55.806
2015    3        4    22  53    7.6472   536.9    5.686      55.852
2015    3        4    22  58    7.6470   537.2    5.678      55.898
2015    3        4    23   3    7.6467   537.5    5.671      55.943
2015    3        4    23   9    7.6464   537.7    5.664      55.988
2015    3        4    23  14    7.6461   538.0    5.657      56.033
2015    3        4    23  19    7.6458   538.3    5.649      56.078
2015    3        4    23  24    7.6454   538.6    5.642      56.123
2015    3        4    23  30    7.6448   538.9    5.634      56.167
2015    3        4    23  35    7.6446   539.2    5.627      56.211
2015    3        4    23  40    7.6442   539.4    5.620      56.255
2015    3        4    23  45    7.6437   539.7    5.612      56.299
2015    3        4    23  51    7.6432   540.0    5.605      56.343
2015    3        4    23  56    7.6427   540.3    5.597      56.386
2015    3        5     0   1    7.6419   540.6    5.590      56.429
2015    3        5     0   6    7.6415   540.9    5.582      56.472
2015    3        5     0  12    7.6407   541.1    5.575      56.515
2015    3        5     0  17    7.6403   541.4    5.568      56.557
2015    3        5     0  22    7.6396   541.7    5.560      56.599
2015    3        5     0  27    7.6387   542.0    5.553      56.642
2015    3        5     0  33    7.6380   542.3    5.545      56.684
2015    3        5     0  38    7.6375   542.5    5.538      56.726
2015    3        5     0  43    7.6368   542.8    5.531      56.768
2015    3        5     0  48    7.6360   543.1    5.523      56.810
2015    3        5     0  54    7.6350   543.4    5.516      56.852
2015    3        5     0  59    7.6345   543.7    5.509      56.895
2015    3        5     1   4    7.6334   543.9    5.502      56.937
2015    3        5     1   9    7.6328   544.2    5.495      56.980
2015    3        5     1  15    7.6317   544.5    5.488      57.023
2015    3        5     1  20    7.6311   544.8    5.481      57.066
2015    3        5     1  25    7.6303   545.1    5.474      57.110
2015    3        5     1  30    7.6294   545.4    5.467      57.153
2015    3        5     1  36    7.6285   545.6    5.460      57.197
2015    3        5     1  41    7.6276   545.9    5.453      57.242
2015    3        5     1  46    7.6267   546.2    5.447      57.288
2015    3        5     1  51    7.6258   546.5    5.440      57.334
2015    3        5     1  57    7.6248   546.8    5.434      57.380
2015    3        5     2   2    7.6238   547.1    5.427      57.427
2015    3        5     2   7    7.6228   547.4    5.421      57.474
2015    3        5     2  12    7.6218   547.6    5.414      57.521
2015    3        5     2  18    7.6208   547.9    5.408      57.569
2015    3        5     2  23    7.6197   548.2    5.401      57.616
2015    3        5     2  28    7.6186   548.5    5.395      57.663
2015    3        5     2  33    7.6174   548.8    5.388      57.710
2015    3        5     2  39    7.6163   549.1    5.381      57.757
2015    3        5     2  44    7.6148   549.4    5.375      57.804
2015    3        5     2  49    7.6139   549.7    5.368      57.850
2015    3        5     2  54    7.6126   550.0    5.361      57.896
2015    3        5     3   0    7.6111   550.2    5.354      57.941
2015    3        5     3   5    7.6098   550.5    5.347      57.987
2015    3        5     3  10    7.6086   550.8    5.341      58.031
2015    3        5     3  15    7.6072   551.1    5.334      58.076
2015    3        5     3  20    7.6059   551.4    5.327      58.120
2015    3        5     3  26    7.6048   551.7    5.320      58.163
2015    3        5     3  31    7.6035   552.0    5.313      58.207
2015    3        5     3  36    7.6021   552.2    5.306      58.251
2015    3        5     3  41    7.6007   552.5    5.299      58.294
2015    3        5     3  47    7.5991   552.8    5.292      58.337
2015    3        5     3  52    7.5979   553.1    5.285      58.380
2015    3        5     3  57    7.5965   553.4    5.279      58.424
2015    3        5     4   2    7.5951   553.7    5.272      58.467
2015    3        5     4   8    7.5937   553.9    5.265      58.510
2015    3        5     4  13    7.5922   554.2    5.258      58.552
2015    3        5     4  18    7.5907   554.5    5.251      58.595
2015    3        5     4  23    7.5892   554.8    5.245      58.637
2015    3        5     4  29    7.5877   555.1    5.238      58.679
2015    3        5     4  34    7.5862   555.3    5.231      58.721
2015    3        5     4  39    7.5847   555.6    5.224      58.762
2015    3        5     4  45    7.5832   555.9    5.218      58.803
2015    3        5     4  50    7.5816   556.2    5.211      58.844
2015    3        5     4  55    7.5800   556.4    5.204      58.884
2015    3        5     5   0    7.5784   556.7    5.197      58.924
2015    3        5     5   6    7.5768   557.0    5.191      58.964
2015    3        5     5  11    7.5752   557.3    5.184      59.003
2015    3        5     5  16    7.5733   557.5    5.177      59.042
2015    3        5     5  21    7.5718   557.8    5.170      59.081
2015    3        5     5  27    7.5701   558.1    5.164      59.120
2015    3        5     5  32    7.5682   558.4    5.157      59.158
2015    3        5     5  37    7.5667   558.6    5.150      59.197
2015    3        5     5  42    7.5647   558.9    5.143      59.236
2015    3        5     5  48    7.5631   559.2    5.137      59.275
2015    3        5     5  53    7.5610   559.4    5.130      59.314
2015    3        5     5  58    7.5592   559.7    5.123      59.352
2015    3        5     6   3    7.5573   560.0    5.117      59.391
2015    3        5     6   9    7.5556   560.2    5.110      59.430
2015    3        5     6  14    7.5537   560.5    5.103      59.469
2015    3        5     6  19    7.5518   560.8    5.097      59.507
2015    3        5     6  24    7.5498   561.0    5.090      59.546
2015    3        5     6  30    7.5476   561.3    5.083      59.584
2015    3        5     6  35    7.5457   561.6    5.077      59.623
2015    3        5     6  40    7.5436   561.8    5.070      59.662
2015    3        5     6  45    7.5413   562.1    5.063      59.700
2015    3        5     6  51    7.5394   562.4    5.057      59.738
2015    3        5     6  56    7.5370   562.7    5.050      59.777
2015    3        5     7   1    7.5351   562.9    5.043      59.815
2015    3        5     7   6    7.5328   563.2    5.036      59.852
2015    3        5     7  12    7.5306   563.5    5.030      59.890
2015    3        5     7  17    7.5283   563.7    5.023      59.928
2015    3        5     7  22    7.5261   564.0    5.016      59.965
2015    3        5     7  27    7.5238   564.3    5.010      60.002
2015    3        5     7  33    7.5215   564.5    5.003      60.039
2015    3        5     7  38    7.5190   564.8    4.996      60.076
2015    3        5     7  43    7.5168   565.0    4.989      60.112
2015    3        5     7  48    7.5144   565.3    4.983      60.149
2015    3        5     7  54    7.5121   565.6    4.976      60.185
2015    3        5     7  59    7.5097   565.8    4.970      60.222
2015    3        5     8   4    7.5073   566.1    4.963      60.258
2015    3        5     8   9    7.5049   566.3    4.956      60.295
2015    3        5     8  15    7.5026   566.6    4.950      60.331
2015    3        5     8  20    7.5002   566.9    4.944      60.368
2015    3        5     8  25    7.4978   567.1    4.937      60.404
2015    3        5     8  30    7.4954   567.4    4.931      60.441
2015    3        5     8  36    7.4931   567.6    4.925      60.478
2015    3        5     8  41    7.4907   567.9    4.918      60.514
2015    3        5     8  46    7.4884   568.1    4.912      60.551
2015    3        5     8  51    7.4861   568.4    4.906      60.588
2015    3        5     8  57    7.4838   568.7    4.901      60.626
2015    3        5     9   2    7.4815   568.9    4.895      60.663
2015    3        5     9   7    7.4792   569.2    4.889      60.702
2015    3        5     9  12    7.4769   569.4    4.883      60.741
2015    3        5     9  18    7.4746   569.7    4.877      60.780
2015    3        5     9  23    7.4723   570.0    4.872      60.819
2015    3        5     9  28    7.4701   570.2    4.866      60.858
2015    3        5     9  33    7.4678   570.5    4.860      60.897
2015    3        5     9  39    7.4655   570.8    4.855      60.936
2015    3        5     9  44    7.4632   571.0    4.849      60.975
2015    3        5     9  49    7.4610   571.3    4.843      61.013
2015    3        5     9  54    7.4586   571.5    4.837      61.051
2015    3        5    10   0    7.4564   571.8    4.832      61.089
2015    3        5    10   5    7.4540   572.1    4.826      61.126
2015    3        5    10  10    7.4516   572.3    4.820      61.163
2015    3        5    10  15    7.4494   572.6    4.814      61.199
2015    3        5    10  21    7.4471   572.8    4.808      61.234
2015    3        5    10  26    7.4448   573.1    4.802      61.270
2015    3        5    10  31    7.4424   573.4    4.797      61.304
2015    3        5    10  36    7.4401   573.6    4.791      61.338
2015    3        5    10  41    7.4378   573.9    4.785      61.372
2015    3        5    10  47    7.4354   574.1    4.779      61.406
2015    3        5    10  52    7.4331   574.4    4.773      61.439
2015    3        5    10  57    7.4308   574.6    4.768      61.472
2015    3        5    11   2    7.4284   574.9    4.762      61.505
2015    3        5    11   8    7.4260   575.2    4.756      61.538
2015    3        5    11  13    7.4237   575.4    4.751      61.572
2015    3        5    11  18    7.4214   575.7    4.745      61.605
2015    3        5    11  23    7.4190   575.9    4.739      61.639
2015    3        5    11  29    7.4166   576.2    4.734      61.672
2015    3        5    11  34    7.4142   576.4    4.728      61.706
2015    3        5    11  39    7.4118   576.7    4.723      61.739
2015    3        5    11  45    7.4094   576.9    4.717      61.773
2015    3        5    11  50    7.4070   577.2    4.712      61.806
2015    3        5    11  55    7.4046   577.4    4.706      61.840
2015    3        5    12   0    7.4021   577.7    4.700      61.874
2015    3        5    12   6    7.3997   577.9    4.695      61.909
2015    3        5    12  11    7.3972   578.2    4.690      61.943
2015    3        5    12  16    7.3947   578.4    4.684      61.977
2015    3        5    12  21    7.3922   578.7    4.679      62.012
2015    3        5    12  27    7.3896   578.9    4.674      62.047
2015    3        5    12  32    7.3871   579.2    4.668      62.083
2015    3        5    12  37    7.3845   579.4    4.663      62.119
2015    3        5    12  42    7.3820   579.7    4.658      62.155
2015    3        5    12  48    7.3794   579.9    4.652      62.192
2015    3        5    12  53    7.3768   580.2    4.647      62.229
2015    3        5    12  58    7.3742   580.4    4.642      62.266
2015    3        5    13   3    7.3715   580.6    4.637      62.302
2015    3        5    13   9    7.3689   580.9    4.631      62.339
2015    3        5    13  14    7.3662   581.1    4.626      62.375
2015    3        5    13  19    7.3635   581.4    4.620      62.411
2015    3        5    13  24    7.3608   581.6    4.615      62.447
2015    3        5    13  30    7.3581   581.9    4.610      62.482
2015    3        5    13  35    7.3554   582.1    4.604      62.517
2015    3        5    13  40    7.3527   582.3    4.599      62.550
2015    3        5    13  45    7.3499   582.6    4.593      62.584
2015    3        5    13  51    7.3472   582.8    4.587      62.616
2015    3        5    13  56    7.3444   583.1    4.582      62.648
2015    3        5    14   1    7.3416   583.3    4.576      62.680
2015    3        5    14   6    7.3389   583.5    4.571      62.711
2015    3        5    14  12    7.3361   583.8    4.565      62.742
2015    3        5    14  17    7.3333   584.0    4.559      62.772
2015    3        5    14  22    7.3305   584.3    4.553      62.801
2015    3        5    14  27    7.3276   584.5    4.548      62.830
2015    3        5    14  33    7.3248   584.7    4.542      62.859
2015    3        5    14  38    7.3220   585.0    4.536      62.887
2015    3        5    14  43    7.3192   585.2    4.530      62.915
2015    3        5    14  48    7.3163   585.4    4.524      62.942
2015    3        5    14  54    7.3135   585.7    4.518      62.969
2015    3        5    14  59    7.3106   585.9    4.512      62.996
2015    3        5    15   4    7.3078   586.1    4.506      63.022
2015    3        5    15   9    7.3049   586.4    4.500      63.047
2015    3        5    15  15    7.3020   586.6    4.494      63.072
2015    3        5    15  20    7.2991   586.8    4.488      63.097
2015    3        5    15  25    7.2963   587.1    4.482      63.122
2015    3        5    15  30    7.2934   587.3    4.476      63.146
2015    3        5    15  36    7.2905   587.5    4.471      63.169
2015    3        5    15  41    7.2876   587.7    4.465      63.193
2015    3        5    15  46    7.2848   588.0    4.459      63.216
2015    3        5    15  51    7.2819   588.2    4.453      63.239
2015    3        5    15  57    7.2790   588.4    4.447      63.261
2015    3        5    16   2    7.2762   588.6    4.441      63.283
2015    3        5    16   7    7.2734   588.9    4.435      63.305
2015    3        5    16  12    7.2705   589.1    4.429      63.326
2015    3        5    16  18    7.2677   589.3    4.424      63.347
2015    3        5    16  23    7.2649   589.5    4.418      63.368
2015    3        5    16  28    7.2621   589.8    4.412      63.389
2015    3        5    16  33    7.2593   590.0    4.407      63.410
2015    3        5    16  39    7.2565   590.2    4.401      63.430
2015    3        5    16  44    7.2538   590.4    4.396      63.451
2015    3        5    16  49    7.2510   590.7    4.391      63.472
2015    3        5    16  54    7.2482   590.9    4.386      63.493
2015    3        5    17   0    7.2454   591.1    4.381      63.516
2015    3        5    17   5    7.2427   591.3    4.376      63.538
2015    3        5    17  10    7.2400   591.5    4.371      63.562
2015    3        5    17  15    7.2372   591.8    4.366      63.586
2015    3        5    17  21    7.2344   592.0    4.361      63.610
2015    3        5    17  26    7.2317   592.2    4.357      63.635
2015    3        5    17  31    7.2290   592.4    4.352      63.660
2015    3        5    17  36    7.2262   592.6    4.348      63.687
2015    3        5    17  42    7.2235   592.8    4.343      63.714
2015    3        5    17  47    7.2208   593.1    4.339      63.741
2015    3        5    17  52    7.2181   593.3    4.335      63.770
2015    3        5    17  57    7.2154   593.5    4.331      63.800
2015    3        5    18   2    7.2127   593.7    4.327      63.831
2015    3        5    18   8    7.2100   593.9    4.323      63.864
2015    3        5    18  13    7.2074   594.1    4.319      63.897
2015    3        5    18  18    7.2046   594.4    4.315      63.931
2015    3        5    18  23    7.2019   594.6    4.311      63.966
2015    3        5    18  29    7.1992   594.8    4.307      64.001
2015    3        5    18  34    7.1964   595.0    4.304      64.036
2015    3        5    18  39    7.1936   595.3    4.300      64.071
2015    3        5    18  45    7.1908   595.5    4.296      64.106
2015    3        5    18  50    7.1880   595.7    4.291      64.141
2015    3        5    18  55    7.1851   595.9    4.287      64.176
2015    3        5    19   0    7.1822   596.1    4.283      64.210
2015    3        5    19   6    7.1793   596.3    4.279      64.243
2015    3        5    19  11    7.1763   596.6    4.274      64.275
2015    3        5    19  16    7.1733   596.8    4.270      64.307
2015    3        5    19  21    7.1703   597.0    4.265      64.338
2015    3        5    19  27    7.1673   597.2    4.261      64.369
2015    3        5    19  32    7.1643   597.4    4.256      64.400
2015    3        5    19  37    7.1613   597.6    4.252      64.430
2015    3        5    19  42    7.1583   597.8    4.247      64.461
2015    3        5    19  48    7.1553   598.0    4.242      64.491
2015    3        5    19  53    7.1522   598.2    4.238      64.522
2015    3        5    19  58    7.1492   598.4    4.233      64.552
2015    3        5    20   3    7.1462   598.6    4.229      64.582
2015    3        5    20   9    7.1432   598.8    4.224      64.612
2015    3        5    20  14    7.1401   599.0    4.219      64.642
2015    3        5    20  19    7.1371   599.2    4.215      64.670
2015    3        5    20  24    7.1341   599.4    4.210      64.698
2015    3        5    20  30    7.1311   599.6    4.205      64.726
2015    3        5    20  35    7.1281   599.8    4.200      64.753
2015    3        5    20  40    7.1251   600.0    4.195      64.779
2015    3        5    20  45    7.1221   600.2    4.191      64.804
2015    3        5    20  51    7.1191   600.4    4.186      64.828
2015    3        5    20  56    7.1162   600.6    4.181      64.851
2015    3        5    21   1    7.1132   600.8    4.175      64.873
2015    3        5    21   6    7.1103   601.0    4.170      64.894
2015    3        5    21  12    7.1073   601.2    4.165      64.915
2015    3        5    21  17    7.1044   601.4    4.160      64.934
2015    3        5    21  22    7.1015   601.6    4.155      64.952
2015    3        5    21  27    7.0986   601.8    4.150      64.970
2015    3        5    21  33    7.0957   602.0    4.145      64.986
2015    3        5    21  38    7.0928   602.2    4.139      65.002
2015    3        5    21  43    7.0899   602.4    4.134      65.017
2015    3        5    21  48    7.0870   602.6    4.129      65.031
2015    3        5    21  54    7.0841   602.7    4.124      65.045
2015    3        5    21  59    7.0812   602.9    4.119      65.058
2015    3        5    22   4    7.0784   603.1    4.113      65.071
2015    3        5    22   9    7.0755   603.3    4.108      65.083
2015    3        5    22  15    7.0726   603.5    4.103      65.095
2015    3        5    22  20    7.0697   603.7    4.098      65.106
2015    3        5    22  25    7.0668   603.9    4.093      65.117
2015    3        5    22  30    7.0639   604.1    4.088      65.127
2015    3        5    22  36    7.0609   604.2    4.083      65.137
2015    3        5    22  41    7.0580   604.4    4.078      65.147
2015    3        5    22  46    7.0550   604.6    4.073      65.157
2015    3        5    22  51    7.0520   604.8    4.068      65.167
2015    3        5    22  57    7.0490   605.0    4.063      65.177
2015    3        5    23   2    7.0460   605.2    4.058      65.186
2015    3        5    23   7    7.0430   605.4    4.054      65.196
2015    3        5    23  12    7.0400   605.5    4.049      65.206
2015    3        5    23  18    7.0369   605.7    4.044      65.216
2015    3        5    23  23    7.0339   605.9    4.040      65.227
2015    3        5    23  28    7.0308   606.1    4.036      65.237
2015    3        5    23  33    7.0278   606.3    4.031      65.248
2015    3        5    23  39    7.0247   606.4    4.027      65.260
2015    3        5    23  44    7.0217   606.6    4.023      65.272
2015    3        5    23  49    7.0186   606.8    4.019      65.284
2015    3        5    23  54    7.0155   607.0    4.015      65.296
2015    3        6     0   0    7.0125   607.1    4.011      65.310
2015    3        6     0   5    7.0094   607.3    4.007      65.325
2015    3        6     0  10    7.0063   607.5    4.004      65.340
2015    3        6     0  15    7.0032   607.6    4.000      65.357
2015    3        6     0  21    7.0002   607.8    3.997      65.376
2015    3        6     0  26    6.9971   608.0    3.993      65.397
2015    3        6     0  31    6.9941   608.2    3.990      65.419
2015    3        6     0  36    6.9910   608.3    3.987      65.442
2015    3        6     0  42    6.9880   608.5    3.984      65.467
2015    3        6     0  47    6.9850   608.7    3.981      65.494
2015    3        6     0  52    6.9820   608.8    3.979      65.522
2015    3        6     0  57    6.9790   609.0    3.976      65.551
2015    3        6     1   3    6.9761   609.2    3.973      65.582
2015    3        6     1   8    6.9732   609.3    3.971      65.615
2015    3        6     1  13    6.9703   609.5    3.968      65.651
2015    3        6     1  18    6.9674   609.7    3.965      65.688
2015    3        6     1  23    6.9645   609.8    3.963      65.725
2015    3        6     1  29    6.9616   610.0    3.960      65.764
2015    3        6     1  34    6.9588   610.2    3.958      65.803
2015    3        6     1  39    6.9559   610.4    3.955      65.842
2015    3        6     1  44    6.9531   610.6    3.952      65.879
2015    3        6     1  50    6.9502   610.8    3.949      65.916
2015    3        6     1  55    6.9473   610.9    3.946      65.952
2015    3        6     2   0    6.9444   611.1    3.943      65.987
2015    3        6     2   6    6.9415   611.3    3.939      66.020
2015    3        6     2  11    6.9385   611.5    3.936      66.051
2015    3        6     2  16    6.9355   611.7    3.932      66.079
2015    3        6     2  21    6.9325   611.8    3.928      66.105
2015    3        6     2  27    6.9295   612.0    3.924      66.128
2015    3        6     2  32    6.9265   612.2    3.920      66.150
2015    3        6     2  37    6.9234   612.4    3.916      66.170
2015    3        6     2  42    6.9204   612.5    3.911      66.188
2015    3        6     2  48    6.9173   612.7    3.907      66.204
2015    3        6     2  53    6.9143   612.9    3.903      66.219
2015    3        6     2  58    6.9113   613.0    3.898      66.232
2015    3        6     3   3    6.9082   613.2    3.894      66.245
2015    3        6     3   9    6.9052   613.3    3.889      66.256
2015    3        6     3  14    6.9021   613.5    3.884      66.266
2015    3        6     3  19    6.8991   613.6    3.880      66.275
2015    3        6     3  24    6.8961   613.8    3.875      66.283
2015    3        6     3  30    6.8931   614.0    3.871      66.291
2015    3        6     3  35    6.8901   614.1    3.866      66.298
2015    3        6     3  40    6.8871   614.3    3.861      66.304
2015    3        6     3  45    6.8842   614.4    3.857      66.310
2015    3        6     3  51    6.8812   614.5    3.852      66.316
2015    3        6     3  56    6.8783   614.7    3.847      66.320
2015    3        6     4   1    6.8753   614.8    3.843      66.325
2015    3        6     4   6    6.8724   615.0    3.838      66.329
2015    3        6     4  12    6.8695   615.1    3.834      66.333
2015    3        6     4  17    6.8666   615.3    3.829      66.337
2015    3        6     4  22    6.8637   615.4    3.825      66.340
2015    3        6     4  27    6.8609   615.5    3.820      66.344
2015    3        6     4  33    6.8581   615.7    3.816      66.347
2015    3        6     4  38    6.8552   615.8    3.812      66.351
2015    3        6     4  43    6.8524   616.0    3.807      66.354
2015    3        6     4  48    6.8496   616.1    3.803      66.358
2015    3        6     4  54    6.8468   616.2    3.799      66.362
2015    3        6     4  59    6.8440   616.4    3.795      66.367
2015    3        6     5   4    6.8412   616.5    3.791      66.372
2015    3        6     5   9    6.8385   616.7    3.788      66.377
2015    3        6     5  15    6.8357   616.8    3.784      66.383
2015    3        6     5  20    6.8330   617.0    3.781      66.389
2015    3        6     5  25    6.8302   617.1    3.777      66.397
2015    3        6     5  30    6.8274   617.2    3.774      66.406
2015    3        6     5  36    6.8245   617.4    3.771      66.415
2015    3        6     5  41    6.8217   617.5    3.768      66.426
2015    3        6     5  46    6.8188   617.7    3.765      66.437
2015    3        6     5  51    6.8159   617.8    3.762      66.449
2015    3        6     5  57    6.8129   618.0    3.759      66.461
2015    3        6     6   2    6.8099   618.1    3.756      66.473
2015    3        6     6   7    6.8068   618.3    3.753      66.485
2015    3        6     6  12    6.8037   618.4    3.750      66.497
2015    3        6     6  18    6.8006   618.6    3.747      66.509
2015    3        6     6  23    6.7975   618.7    3.744      66.521
2015    3        6     6  28    6.7943   618.9    3.741      66.532
2015    3        6     6  33    6.7911   619.0    3.738      66.543
2015    3        6     6  39    6.7879   619.2    3.734      66.553
2015    3        6     6  44    6.7847   619.3    3.731      66.562
2015    3        6     6  49    6.7815   619.4    3.728      66.572
2015    3        6     6  54    6.7782   619.6    3.725      66.582
2015    3        6     7   0    6.7750   619.7    3.721      66.591
2015    3        6     7   5    6.7717   619.8    3.718      66.600
2015    3        6     7  10    6.7685   620.0    3.715      66.610
2015    3        6     7  15    6.7652   620.1    3.712      66.619
2015    3        6     7  21    6.7620   620.2    3.709      66.629
2015    3        6     7  26    6.7588   620.3    3.706      66.639
2015    3        6     7  31    6.7556   620.5    3.703      66.650
2015    3        6     7  36    6.7524   620.6    3.700      66.661
2015    3        6     7  42    6.7492   620.7    3.697      66.673
2015    3        6     7  47    6.7461   620.8    3.694      66.686
2015    3        6     7  52    6.7430   620.9    3.691      66.701
2015    3        6     7  57    6.7399   621.0    3.689      66.716
2015    3        6     8   3    6.7369   621.2    3.686      66.733
2015    3        6     8   8    6.7339   621.3    3.683      66.751
2015    3        6     8  13    6.7309   621.4    3.681      66.770
2015    3        6     8  18    6.7279   621.5    3.678      66.791
2015    3        6     8  23    6.7250   621.6    3.676      66.812
2015    3        6     8  29    6.7221   621.8    3.673      66.835
2015    3        6     8  34    6.7192   621.9    3.671      66.859
2015    3        6     8  39    6.7163   622.0    3.668      66.883
2015    3        6     8  44    6.7135   622.1    3.666      66.906
2015    3        6     8  50    6.7106   622.2    3.663      66.930
2015    3        6     8  55    6.7078   622.4    3.660      66.953
2015    3        6     9   0    6.7050   622.5    3.658      66.976
2015    3        6     9   5    6.7022   622.6    3.655      66.997
2015    3        6     9  11    6.6994   622.7    3.652      67.017
2015    3        6     9  16    6.6966   622.9    3.649      67.036
2015    3        6     9  21    6.6938   623.0    3.646      67.053
2015    3        6     9  26    6.6910   623.1    3.643      67.070
2015    3        6     9  32    6.6882   623.3    3.639      67.084
2015    3        6     9  37    6.6854   623.4    3.636      67.098
2015    3        6     9  42    6.6826   623.5    3.633      67.110
2015    3        6     9  48    6.6798   623.6    3.629      67.121
2015    3        6     9  53    6.6770   623.8    3.626      67.131
2015    3        6     9  58    6.6742   623.9    3.622      67.140
2015    3        6    10   3    6.6713   624.0    3.619      67.147
2015    3        6    10   9    6.6685   624.1    3.615      67.153
2015    3        6    10  14    6.6656   624.2    3.612      67.158
2015    3        6    10  19    6.6627   624.4    3.608      67.161
2015    3        6    10  24    6.6598   624.5    3.605      67.164
2015    3        6    10  30    6.6569   624.6    3.601      67.165
2015    3        6    10  35    6.6540   624.7    3.597      67.165
2015    3        6    10  40    6.6511   624.8    3.594      67.164
2015    3        6    10  45    6.6481   624.9    3.590      67.162
2015    3        6    10  51    6.6452   625.1    3.586      67.158
2015    3        6    10  56    6.6423   625.2    3.582      67.154
2015    3        6    11   1    6.6393   625.3    3.579      67.149
2015    3        6    11   6    6.6363   625.4    3.575      67.144
2015    3        6    11  12    6.6334   625.5    3.571      67.137
2015    3        6    11  17    6.6304   625.6    3.567      67.130
2015    3        6    11  22    6.6275   625.7    3.563      67.123
2015    3        6    11  27    6.6245   625.8    3.560      67.116
2015    3        6    11  33    6.6215   625.9    3.556      67.108
2015    3        6    11  38    6.6186   626.0    3.552      67.100
2015    3        6    11  43    6.6156   626.1    3.549      67.092
2015    3        6    11  48    6.6127   626.1    3.545      67.084
2015    3        6    11  54    6.6098   626.2    3.542      67.077
2015    3        6    11  59    6.6068   626.3    3.539      67.070
2015    3        6    12   4    6.6039   626.4    3.535      67.064
2015    3        6    12   9    6.6010   626.5    3.532      67.058
2015    3        6    12  15    6.5981   626.6    3.529      67.054
2015    3        6    12  20    6.5953   626.7    3.527      67.050
2015    3        6    12  25    6.5924   626.8    3.524      67.048
2015    3        6    12  30    6.5895   626.9    3.521      67.047
2015    3        6    12  36    6.5867   626.9    3.519      67.048
2015    3        6    12  41    6.5838   627.0    3.517      67.050
2015    3        6    12  46    6.5810   627.1    3.515      67.055
2015    3        6    12  51    6.5782   627.2    3.513      67.062
2015    3        6    12  57    6.5754   627.3    3.512      67.072
2015    3        6    13   2    6.5726   627.4    3.510      67.085
2015    3        6    13   7    6.5697   627.5    3.509      67.101
2015    3        6    13  12    6.5669   627.6    3.508      67.118
2015    3        6    13  18    6.5640   627.7    3.506      67.137
2015    3        6    13  23    6.5611   627.8    3.505      67.156
2015    3        6    13  28    6.5582   627.9    3.504      67.176
2015    3        6    13  33    6.5553   628.0    3.502      67.196
2015    3        6    13  39    6.5524   628.1    3.501      67.215
2015    3        6    13  44    6.5494   628.2    3.499      67.233
2015    3        6    13  49    6.5464   628.3    3.497      67.250
2015    3        6    13  54    6.5434   628.4    3.495      67.266
2015    3        6    14   0    6.5405   628.5    3.493      67.279
2015    3        6    14   5    6.5373   628.6    3.490      67.290
2015    3        6    14  10    6.5343   628.7    3.488      67.299
2015    3        6    14  15    6.5312   628.8    3.486      67.307
2015    3        6    14  21    6.5282   628.9    3.483      67.313
2015    3        6    14  26    6.5251   629.0    3.480      67.318
2015    3        6    14  31    6.5221   629.1    3.478      67.322
2015    3        6    14  36    6.5190   629.2    3.475      67.324
2015    3        6    14  42    6.5160   629.3    3.472      67.325
2015    3        6    14  47    6.5129   629.3    3.469      67.326
2015    3        6    14  52    6.5098   629.4    3.467      67.325
2015    3        6    14  57    6.5068   629.5    3.464      67.325
2015    3        6    15   3    6.5039   629.6    3.461      67.324
2015    3        6    15   8    6.5009   629.6    3.458      67.323
2015    3        6    15  13    6.4980   629.7    3.456      67.322
2015    3        6    15  18    6.4951   629.7    3.453      67.321
2015    3        6    15  24    6.4922   629.8    3.450      67.320
2015    3        6    15  29    6.4894   629.9    3.448      67.321
2015    3        6    15  34    6.4866   629.9    3.445      67.322
2015    3        6    15  39    6.4838   630.0    3.443      67.323
2015    3        6    15  45    6.4811   630.1    3.440      67.324
2015    3        6    15  50    6.4783   630.1    3.437      67.325
2015    3        6    15  55    6.4756   630.2    3.434      67.326
2015    3        6    16   0    6.4729   630.3    3.432      67.327
2015    3        6    16   5    6.4702   630.3    3.429      67.328
2015    3        6    16  11    6.4675   630.4    3.426      67.327
2015    3        6    16  16    6.4648   630.5    3.423      67.327
2015    3        6    16  21    6.4621   630.5    3.420      67.325
2015    3        6    16  26    6.4593   630.6    3.417      67.323
2015    3        6    16  32    6.4566   630.7    3.414      67.319
2015    3        6    16  37    6.4539   630.7    3.411      67.315
2015    3        6    16  42    6.4512   630.8    3.408      67.311
2015    3        6    16  48    6.4485   630.9    3.404      67.306
2015    3        6    16  53    6.4457   630.9    3.401      67.300
2015    3        6    16  58    6.4430   631.0    3.398      67.295
2015    3        6    17   3    6.4402   631.1    3.395      67.289
2015    3        6    17   9    6.4375   631.1    3.392      67.282
2015    3        6    17  14    6.4347   631.2    3.389      67.276
2015    3        6    17  19    6.4319   631.3    3.385      67.269
2015    3        6    17  24    6.4291   631.3    3.382      67.261
2015    3        6    17  30    6.4263   631.4    3.379      67.254
2015    3        6    17  35    6.4235   631.4    3.376      67.246
2015    3        6    17  40    6.4206   631.5    3.373      67.238
2015    3        6    17  45    6.4177   631.6    3.370      67.229
2015    3        6    17  51    6.4149   631.6    3.367      67.221
2015    3        6    17  56    6.4120   631.7    3.364      67.212
2015    3        6    18   1    6.4091   631.7    3.361      67.203
2015    3        6    18   6    6.4062   631.8    3.358      67.193
2015    3        6    18  12    6.4034   631.9    3.356      67.184
2015    3        6    18  17    6.4005   631.9    3.353      67.175
2015    3        6    18  22    6.3976   632.0    3.350      67.166
2015    3        6    18  27    6.3948   632.0    3.347      67.157
2015    3        6    18  33    6.3919   632.1    3.345      67.149
2015    3        6    18  38    6.3891   632.1    3.342      67.141
2015    3        6    18  43    6.3863   632.2    3.340      67.133
2015    3        6    18  48    6.3834   632.2    3.337      67.125
2015    3        6    18  54    6.3806   632.2    3.335      67.117
2015    3        6    18  59    6.3777   632.3    3.332      67.110
2015    3        6    19   4    6.3749   632.3    3.330      67.103
2015    3        6    19   9    6.3721   632.4    3.328      67.096
2015    3        6    19  15    6.3693   632.4    3.326      67.089
2015    3        6    19  20    6.3665   632.4    3.324      67.083
2015    3        6    19  25    6.3637   632.5    3.322      67.077
2015    3        6    19  30    6.3609   632.5    3.320      67.072
2015    3        6    19  36    6.3582   632.5    3.318      67.067
2015    3        6    19  41    6.3554   632.6    3.317      67.063
2015    3        6    19  46    6.3527   632.6    3.315      67.060
2015    3        6    19  51    6.3500   632.6    3.314      67.058
2015    3        6    19  57    6.3473   632.7    3.312      67.057
2015    3        6    20   2    6.3447   632.7    3.311      67.058
2015    3        6    20   7    6.3421   632.7    3.311      67.060
2015    3        6    20  12    6.3396   632.7    3.310      67.064
2015    3        6    20  18    6.3370   632.7    3.309      67.073
2015    3        6    20  23    6.3345   632.8    3.309      67.084
2015    3        6    20  28    6.3321   632.8    3.309      67.098
2015    3        6    20  33    6.3297   632.8    3.308      67.115
2015    3        6    20  39    6.3273   632.9    3.308      67.134
2015    3        6    20  44    6.3250   632.9    3.308      67.154
2015    3        6    20  49    6.3226   632.9    3.308      67.175
2015    3        6    20  54    6.3203   633.0    3.308      67.196
2015    3        6    21   0    6.3179   633.0    3.308      67.217
2015    3        6    21   5    6.3155   633.1    3.307      67.239
2015    3        6    21  10    6.3132   633.2    3.307      67.259
2015    3        6    21  15    6.3107   633.2    3.306      67.277
2015    3        6    21  21    6.3083   633.3    3.306      67.292
2015    3        6    21  26    6.3058   633.3    3.305      67.305
2015    3        6    21  31    6.3033   633.4    3.304      67.317
2015    3        6    21  36    6.3007   633.4    3.303      67.326
2015    3        6    21  42    6.2983   633.5    3.302      67.333
2015    3        6    21  47    6.2956   633.6    3.300      67.338
2015    3        6    21  52    6.2931   633.6    3.299      67.341
2015    3        6    21  57    6.2905   633.7    3.297      67.342
2015    3        6    22   3    6.2878   633.7    3.295      67.341
2015    3        6    22   8    6.2851   633.7    3.294      67.339
2015    3        6    22  13    6.2825   633.8    3.292      67.335
2015    3        6    22  18    6.2800   633.8    3.290      67.330
2015    3        6    22  24    6.2773   633.9    3.288      67.324
2015    3        6    22  29    6.2747   633.9    3.286      67.316
2015    3        6    22  34    6.2721   633.9    3.284      67.308
2015    3        6    22  39    6.2695   633.9    3.281      67.299
2015    3        6    22  45    6.2669   634.0    3.279      67.288
2015    3        6    22  50    6.2643   634.0    3.277      67.277
2015    3        6    22  55    6.2617   634.0    3.274      67.265
2015    3        6    23   0    6.2592   634.0    3.272      67.252
2015    3        6    23   5    6.2566   634.1    3.269      67.238
2015    3        6    23  11    6.2541   634.1    3.267      67.224
2015    3        6    23  16    6.2517   634.1    3.264      67.208
2015    3        6    23  21    6.2490   634.1    3.261      67.192
2015    3        6    23  26    6.2465   634.1    3.259      67.174
2015    3        6    23  32    6.2439   634.2    3.256      67.155
2015    3        6    23  37    6.2414   634.2    3.253      67.136
2015    3        6    23  42    6.2389   634.2    3.250      67.115
2015    3        6    23  47    6.2363   634.2    3.247      67.094
2015    3        6    23  53    6.2337   634.2    3.244      67.072
2015    3        6    23  58    6.2312   634.2    3.241      67.049
2015    3        7     0   3    6.2287   634.2    3.238      67.025
2015    3        7     0   8    6.2260   634.2    3.235      67.001
2015    3        7     0  14    6.2234   634.2    3.232      66.976
2015    3        7     0  19    6.2208   634.2    3.229      66.950
2015    3        7     0  24    6.2182   634.2    3.226      66.924
2015    3        7     0  30    6.2156   634.2    3.223      66.898
2015    3        7     0  35    6.2130   634.2    3.219      66.872
2015    3        7     0  40    6.2103   634.2    3.216      66.845
2015    3        7     0  45    6.2077   634.2    3.213      66.818
2015    3        7     0  51    6.2051   634.2    3.210      66.792
2015    3        7     0  56    6.2025   634.2    3.207      66.766
2015    3        7     1   1    6.1999   634.2    3.205      66.740
2015    3        7     1   6    6.1973   634.2    3.202      66.714
2015    3        7     1  12    6.1947   634.1    3.199      66.690
2015    3        7     1  17    6.1921   634.1    3.196      66.666
2015    3        7     1  22    6.1896   634.1    3.194      66.644
2015    3        7     1  27    6.1871   634.1    3.191      66.622
2015    3        7     1  33    6.1845   634.1    3.189      66.602
2015    3        7     1  38    6.1820   634.0    3.187      66.583
2015    3        7     1  43    6.1796   634.0    3.185      66.566
2015    3        7     1  48    6.1772   634.0    3.183      66.550
2015    3        7     1  54    6.1748   634.0    3.181      66.535
2015    3        7     1  59    6.1724   634.0    3.179      66.523
2015    3        7     2   4    6.1701   633.9    3.178      66.512
2015    3        7     2   9    6.1678   633.9    3.176      66.502
2015    3        7     2  15    6.1655   633.9    3.175      66.494
2015    3        7     2  20    6.1632   633.9    3.174      66.488
2015    3        7     2  25    6.1611   633.9    3.173      66.483
2015    3        7     2  30    6.1589   633.9    3.172      66.479
2015    3        7     2  36    6.1567   633.8    3.171      66.477
2015    3        7     2  41    6.1546   633.8    3.170      66.476
2015    3        7     2  46    6.1524   633.8    3.170      66.476
2015    3        7     2  51    6.1503   633.8    3.170      66.478
2015    3        7     2  57    6.1482   633.8    3.169      66.481
2015    3        7     3   2    6.1461   633.8    3.169      66.486
2015    3        7     3   7    6.1440   633.7    3.169      66.491
2015    3        7     3  12    6.1419   633.7    3.169      66.498
2015    3        7     3  18    6.1398   633.7    3.169      66.505
2015    3        7     3  23    6.1377   633.7    3.169      66.512
2015    3        7     3  28    6.1356   633.7    3.169      66.521
2015    3        7     3  33    6.1336   633.6    3.170      66.531
2015    3        7     3  39    6.1315   633.6    3.170      66.543
2015    3        7     3  44    6.1295   633.6    3.170      66.555
2015    3        7     3  49    6.1275   633.6    3.171      66.568
2015    3        7     3  54    6.1255   633.6    3.171      66.581
2015    3        7     4   0    6.1236   633.6    3.171      66.594
2015    3        7     4   5    6.1215   633.6    3.171      66.607
2015    3        7     4  10    6.1196   633.6    3.172      66.620
2015    3        7     4  15    6.1176   633.6    3.172      66.632
2015    3        7     4  21    6.1155   633.6    3.172      66.644
2015    3        7     4  26    6.1135   633.6    3.172      66.655
2015    3        7     4  31    6.1115   633.6    3.172      66.665
2015    3        7     4  36    6.1094   633.6    3.172      66.673
2015    3        7     4  42    6.1073   633.6    3.172      66.680
2015    3        7     4  47    6.1053   633.6    3.172      66.687
2015    3        7     4  52    6.1032   633.6    3.171      66.692
2015    3        7     4  57    6.1010   633.6    3.171      66.696
2015    3        7     5   3    6.0989   633.6    3.171      66.700
2015    3        7     5   8    6.0967   633.6    3.170      66.701
2015    3        7     5  13    6.0945   633.6    3.170      66.703
2015    3        7     5  18    6.0923   633.6    3.169      66.702
2015    3        7     5  24    6.0902   633.6    3.168      66.701
2015    3        7     5  29    6.0880   633.6    3.167      66.699
2015    3        7     5  34    6.0857   633.6    3.167      66.696
2015    3        7     5  39    6.0835   633.6    3.166      66.692
2015    3        7     5  45    6.0813   633.6    3.165      66.687
2015    3        7     5  50    6.0792   633.6    3.164      66.680
2015    3        7     5  55    6.0769   633.6    3.163      66.674
2015    3        7     6   0    6.0747   633.6    3.162      66.666
2015    3        7     6   5    6.0726   633.6    3.160      66.657
2015    3        7     6  11    6.0704   633.6    3.159      66.648
2015    3        7     6  16    6.0682   633.6    3.158      66.638
2015    3        7     6  21    6.0661   633.6    3.157      66.627
2015    3        7     6  26    6.0639   633.5    3.155      66.615
2015    3        7     6  32    6.0618   633.5    3.154      66.603
2015    3        7     6  37    6.0596   633.5    3.153      66.591
2015    3        7     6  42    6.0575   633.5    3.151      66.577
2015    3        7     6  47    6.0554   633.5    3.150      66.563
2015    3        7     6  53    6.0532   633.4    3.148      66.549
2015    3        7     6  58    6.0511   633.4    3.147      66.534
2015    3        7     7   3    6.0490   633.4    3.145      66.517
2015    3        7     7   8    6.0468   633.4    3.144      66.501
2015    3        7     7  14    6.0447   633.3    3.142      66.483
2015    3        7     7  19    6.0426   633.3    3.140      66.465
2015    3        7     7  24    6.0404   633.3    3.139      66.445
2015    3        7     7  30    6.0384   633.2    3.137      66.425
2015    3        7     7  35    6.0362   633.2    3.135      66.404
2015    3        7     7  40    6.0340   633.1    3.133      66.382
2015    3        7     7  45    6.0319   633.1    3.131      66.359
2015    3        7     7  51    6.0298   633.0    3.129      66.335
2015    3        7     7  56    6.0277   633.0    3.127      66.311
2015    3        7     8   1    6.0255   632.9    3.126      66.287
2015    3        7     8   6    6.0234   632.9    3.124      66.262
2015    3        7     8  12    6.0213   632.8    3.122      66.237
2015    3        7     8  17    6.0192   632.8    3.120      66.211
2015    3        7     8  22    6.0172   632.7    3.118      66.186
2015    3        7     8  27    6.0151   632.7    3.116      66.161
2015    3        7     8  33    6.0131   632.6    3.114      66.137
2015    3        7     8  38    6.0111   632.5    3.113      66.113
2015    3        7     8  43    6.0091   632.5    3.111      66.090
2015    3        7     8  48    6.0072   632.4    3.109      66.068
2015    3        7     8  54    6.0052   632.3    3.108      66.047
2015    3        7     8  59    6.0034   632.3    3.106      66.027
2015    3        7     9   4    6.0015   632.2    3.105      66.009
2015    3        7     9   9    5.9997   632.1    3.104      65.992
2015    3        7     9  15    5.9980   632.1    3.103      65.977
2015    3        7     9  20    5.9962   632.0    3.102      65.963
2015    3        7     9  25    5.9946   632.0    3.101      65.951
2015    3        7     9  30    5.9929   631.9    3.100      65.941
2015    3        7     9  36    5.9913   631.8    3.099      65.932
2015    3        7     9  41    5.9897   631.8    3.099      65.925
2015    3        7     9  46    5.9882   631.7    3.099      65.919
2015    3        7     9  51    5.9866   631.7    3.098      65.914
2015    3        7     9  57    5.9851   631.6    3.098      65.912
2015    3        7    10   2    5.9836   631.6    3.098      65.910
2015    3        7    10   7    5.9820   631.5    3.098      65.910
2015    3        7    10  12    5.9804   631.5    3.098      65.911
2015    3        7    10  18    5.9789   631.4    3.098      65.913
2015    3        7    10  23    5.9773   631.4    3.098      65.915
2015    3        7    10  28    5.9756   631.4    3.098      65.918
2015    3        7    10  33    5.9740   631.3    3.098      65.920
2015    3        7    10  39    5.9723   631.3    3.098      65.922
2015    3        7    10  44    5.9706   631.3    3.098      65.923
2015    3        7    10  49    5.9690   631.2    3.098      65.924
2015    3        7    10  54    5.9672   631.2    3.098      65.925
2015    3        7    11   0    5.9654   631.1    3.098      65.924
2015    3        7    11   5    5.9637   631.1    3.097      65.922
2015    3        7    11  10    5.9619   631.1    3.097      65.920
2015    3        7    11  15    5.9600   631.0    3.097      65.916
2015    3        7    11  21    5.9582   631.0    3.097      65.912
2015    3        7    11  26    5.9564   630.9    3.096      65.908
2015    3        7    11  31    5.9545   630.9    3.096      65.902
2015    3        7    11  36    5.9527   630.9    3.096      65.896
2015    3        7    11  42    5.9508   630.8    3.095      65.890
2015    3        7    11  47    5.9490   630.8    3.095      65.883
2015    3        7    11  52    5.9471   630.7    3.094      65.876
2015    3        7    11  57    5.9453   630.7    3.094      65.868
2015    3        7    12   3    5.9434   630.6    3.093      65.861
2015    3        7    12   8    5.9416   630.6    3.093      65.853
2015    3        7    12  13    5.9397   630.5    3.092      65.845
2015    3        7    12  18    5.9379   630.5    3.092      65.837
2015    3        7    12  24    5.9361   630.4    3.092      65.829
2015    3        7    12  29    5.9342   630.4    3.091      65.820
2015    3        7    12  34    5.9324   630.3    3.091      65.812
2015    3        7    12  39    5.9306   630.3    3.090      65.804
2015    3        7    12  45    5.9288   630.3    3.090      65.796
2015    3        7    12  50    5.9270   630.2    3.089      65.788
2015    3        7    12  55    5.9253   630.2    3.089      65.780
2015    3        7    13   0    5.9235   630.1    3.089      65.772
2015    3        7    13   6    5.9218   630.1    3.088      65.765
2015    3        7    13  11    5.9200   630.0    3.088      65.757
2015    3        7    13  16    5.9183   630.0    3.088      65.751
2015    3        7    13  21    5.9166   629.9    3.088      65.744
2015    3        7    13  26    5.9149   629.9    3.088      65.737
2015    3        7    13  32    5.9132   629.8    3.087      65.731
2015    3        7    13  37    5.9116   629.8    3.087      65.725
2015    3        7    13  42    5.9100   629.7    3.087      65.720
2015    3        7    13  47    5.9084   629.7    3.087      65.715
2015    3        7    13  53    5.9067   629.6    3.087      65.711
2015    3        7    13  58    5.9052   629.6    3.088      65.707
2015    3        7    14   3    5.9036   629.5    3.088      65.704
2015    3        7    14   8    5.9021   629.5    3.088      65.702
2015    3        7    14  14    5.9005   629.4    3.088      65.700
2015    3        7    14  19    5.8990   629.4    3.088      65.698
2015    3        7    14  24    5.8974   629.3    3.089      65.697
2015    3        7    14  29    5.8959   629.3    3.089      65.696
2015    3        7    14  35    5.8944   629.2    3.089      65.695
2015    3        7    14  40    5.8928   629.2    3.090      65.695
2015    3        7    14  45    5.8913   629.1    3.090      65.695
2015    3        7    14  50    5.8897   629.1    3.091      65.697
2015    3        7    14  56    5.8882   629.0    3.091      65.698
2015    3        7    15   1    5.8866   629.0    3.091      65.700
2015    3        7    15   6    5.8850   628.9    3.092      65.701
2015    3        7    15  12    5.8834   628.9    3.092      65.703
2015    3        7    15  17    5.8819   628.8    3.092      65.704
2015    3        7    15  22    5.8803   628.8    3.093      65.706
2015    3        7    15  27    5.8786   628.7    3.093      65.706
2015    3        7    15  33    5.8770   628.7    3.093      65.707
2015    3        7    15  38    5.8754   628.6    3.093      65.706
2015    3        7    15  43    5.8738   628.6    3.093      65.705
2015    3        7    15  48    5.8722   628.5    3.093      65.704
2015    3        7    15  54    5.8706   628.5    3.093      65.701
2015    3        7    15  59    5.8690   628.4    3.093      65.698
2015    3        7    16   4    5.8674   628.3    3.093      65.694
2015    3        7    16   9    5.8658   628.3    3.093      65.690
2015    3        7    16  15    5.8643   628.2    3.092      65.686
2015    3        7    16  20    5.8628   628.2    3.092      65.681
2015    3        7    16  25    5.8612   628.1    3.092      65.676
2015    3        7    16  30    5.8597   628.0    3.092      65.670
2015    3        7    16  36    5.8582   628.0    3.091      65.665
2015    3        7    16  41    5.8568   627.9    3.091      65.659
2015    3        7    16  46    5.8553   627.9    3.091      65.653
2015    3        7    16  51    5.8540   627.8    3.090      65.647
2015    3        7    16  57    5.8525   627.7    3.090      65.641
2015    3        7    17   2    5.8512   627.7    3.089      65.635
2015    3        7    17   7    5.8497   627.6    3.089      65.629
2015    3        7    17  12    5.8483   627.6    3.089      65.622
2015    3        7    17  18    5.8469   627.5    3.088      65.615
2015    3        7    17  23    5.8456   627.4    3.088      65.608
2015    3        7    17  28    5.8442   627.4    3.087      65.600
2015    3        7    17  33    5.8428   627.3    3.087      65.592
2015    3        7    17  39    5.8415   627.3    3.086      65.584
2015    3        7    17  44    5.8401   627.2    3.086      65.575
2015    3        7    17  49    5.8387   627.1    3.085      65.566
2015    3        7    17  54    5.8373   627.1    3.085      65.556
2015    3        7    18   0    5.8360   627.0    3.084      65.546
2015    3        7    18   5    5.8345   627.0    3.084      65.535
2015    3        7    18  10    5.8331   626.9    3.083      65.523
2015    3        7    18  15    5.8317   626.8    3.082      65.511
2015    3        7    18  21    5.8303   626.8    3.082      65.498
2015    3        7    18  26    5.8289   626.7    3.081      65.484
2015    3        7    18  31    5.8274   626.6    3.080      65.469
2015    3        7    18  36    5.8260   626.6    3.079      65.454
2015    3        7    18  42    5.8246   626.5    3.079      65.438
2015    3        7    18  47    5.8232   626.4    3.078      65.422
2015    3        7    18  52    5.8217   626.4    3.077      65.405
2015    3        7    18  57    5.8203   626.3    3.076      65.387
2015    3        7    19   3    5.8189   626.2    3.075      65.368
2015    3        7    19   8    5.8174   626.2    3.074      65.349
2015    3        7    19  13    5.8160   626.1    3.073      65.330
2015    3        7    19  18    5.8146   626.0    3.072      65.310
2015    3        7    19  24    5.8132   626.0    3.072      65.290
2015    3        7    19  29    5.8118   625.9    3.071      65.269
2015    3        7    19  34    5.8104   625.8    3.070      65.249
2015    3        7    19  39    5.8090   625.7    3.069      65.228
2015    3        7    19  45    5.8076   625.7    3.068      65.207
2015    3        7    19  50    5.8063   625.6    3.067      65.186
2015    3        7    19  55    5.8049   625.5    3.066      65.166
2015    3        7    20   0    5.8036   625.4    3.065      65.145
2015    3        7    20   6    5.8022   625.4    3.064      65.126
2015    3        7    20  11    5.8009   625.3    3.064      65.106
2015    3        7    20  16    5.7996   625.2    3.063      65.087
2015    3        7    20  21    5.7983   625.1    3.062      65.068
2015    3        7    20  26    5.7970   625.1    3.062      65.050
2015    3        7    20  32    5.7958   625.0    3.061      65.033
2015    3        7    20  37    5.7945   624.9    3.061      65.017
2015    3        7    20  42    5.7933   624.8    3.060      65.001
2015    3        7    20  47    5.7921   624.8    3.060      64.987
2015    3        7    20  53    5.7909   624.7    3.060      64.973
2015    3        7    20  58    5.7897   624.6    3.060      64.961
2015    3        7    21   3    5.7885   624.6    3.060      64.950
2015    3        7    21   8    5.7873   624.5    3.060      64.939
2015    3        7    21  14    5.7862   624.4    3.060      64.930
2015    3        7    21  19    5.7850   624.4    3.060      64.923
2015    3        7    21  24    5.7839   624.3    3.061      64.916
2015    3        7    21  29    5.7827   624.2    3.061      64.911
2015    3        7    21  35    5.7816   624.1    3.062      64.907
2015    3        7    21  40    5.7805   624.1    3.062      64.904
2015    3        7    21  45    5.7793   624.0    3.063      64.903
2015    3        7    21  50    5.7781   624.0    3.064      64.902
2015    3        7    21  56    5.7770   623.9    3.065      64.903
2015    3        7    22   1    5.7758   623.8    3.066      64.905
2015    3        7    22   6    5.7745   623.8    3.067      64.909
2015    3        7    22  11    5.7733   623.7    3.068      64.913
2015    3        7    22  17    5.7720   623.6    3.069      64.919
2015    3        7    22  22    5.7708   623.6    3.070      64.926
2015    3        7    22  27    5.7695   623.5    3.071      64.933
2015    3        7    22  33    5.7682   623.5    3.073      64.941
2015    3        7    22  38    5.7668   623.4    3.074      64.950
2015    3        7    22  43    5.7655   623.3    3.075      64.958
2015    3        7    22  48    5.7642   623.3    3.076      64.967
2015    3        7    22  54    5.7628   623.2    3.077      64.977
2015    3        7    22  59    5.7614   623.2    3.078      64.986
2015    3        7    23   4    5.7601   623.1    3.079      64.994
2015    3        7    23   9    5.7588   623.0    3.080      65.001
2015    3        7    23  15    5.7574   623.0    3.081      65.008
2015    3        7    23  20    5.7561   622.9    3.082      65.015
2015    3        7    23  25    5.7547   622.8    3.083      65.021
2015    3        7    23  30    5.7534   622.8    3.084      65.027
2015    3        7    23  36    5.7521   622.7    3.084      65.032
2015    3        7    23  41    5.7508   622.6    3.085      65.036
2015    3        7    23  46    5.7496   622.6    3.086      65.040
2015    3        7    23  51    5.7484   622.5    3.087      65.044
2015    3        7    23  57    5.7471   622.4    3.087      65.047
2015    3        8     0   2    5.7459   622.4    3.088      65.050
2015    3        8     0   7    5.7447   622.3    3.088      65.052
2015    3        8     0  12    5.7435   622.2    3.089      65.054
2015    3        8     0  18    5.7424   622.1    3.089      65.055
2015    3        8     0  23    5.7412   622.1    3.090      65.055
2015    3        8     0  28    5.7401   622.0    3.090      65.056
2015    3        8     0  33    5.7390   621.9    3.091      65.055
2015    3        8     0  39    5.7379   621.9    3.091      65.054
2015    3        8     0  44    5.7368   621.8    3.091      65.052
2015    3        8     0  49    5.7357   621.7    3.092      65.049
2015    3        8     0  54    5.7346   621.6    3.092      65.045
2015    3        8     1   0    5.7336   621.6    3.092      65.041
2015    3        8     1   5    5.7324   621.5    3.092      65.036
2015    3        8     1  10    5.7314   621.4    3.092      65.030
2015    3        8     1  15    5.7303   621.4    3.092      65.024
2015    3        8     1  21    5.7293   621.3    3.092      65.017
2015    3        8     1  26    5.7283   621.2    3.092      65.009
2015    3        8     1  31    5.7272   621.1    3.092      65.001
2015    3        8     1  36    5.7262   621.1    3.092      64.991
2015    3        8     1  42    5.7251   621.0    3.092      64.981
2015    3        8     1  47    5.7241   620.9    3.091      64.971
2015    3        8     1  52    5.7230   620.8    3.091      64.959
2015    3        8     1  57    5.7221   620.8    3.091      64.947
2015    3        8     2   3    5.7210   620.7    3.090      64.935
2015    3        8     2   8    5.7199   620.6    3.090      64.921
2015    3        8     2  13    5.7189   620.5    3.090      64.907
2015    3        8     2  18    5.7178   620.5    3.089      64.892
2015    3        8     2  24    5.7168   620.4    3.089      64.876
2015    3        8     2  29    5.7158   620.3    3.088      64.860
2015    3        8     2  34    5.7147   620.2    3.088      64.843
2015    3        8     2  39    5.7136   620.2    3.087      64.826
2015    3        8     2  45    5.7126   620.1    3.086      64.808
2015    3        8     2  50    5.7115   620.0    3.086      64.790
2015    3        8     2  55    5.7105   619.9    3.085      64.771
2015    3        8     3   0    5.7094   619.8    3.085      64.752
2015    3        8     3   6    5.7084   619.7    3.084      64.733
2015    3        8     3  11    5.7073   619.7    3.083      64.713
2015    3        8     3  16    5.7063   619.6    3.083      64.693
2015    3        8     3  21    5.7052   619.5    3.082      64.673
2015    3        8     3  27    5.7042   619.4    3.081      64.654
2015    3        8     3  32    5.7032   619.3    3.081      64.634
2015    3        8     3  37    5.7021   619.2    3.080      64.614
2015    3        8     3  42    5.7011   619.2    3.080      64.594
2015    3        8     3  47    5.7001   619.1    3.079      64.575
2015    3        8     3  53    5.6991   619.0    3.078      64.555
2015    3        8     3  58    5.6981   618.9    3.078      64.537
2015    3        8     4   3    5.6971   618.8    3.077      64.518
2015    3        8     4   8    5.6960   618.7    3.077      64.499
2015    3        8     4  14    5.6950   618.6    3.076      64.481
2015    3        8     4  19    5.6940   618.5    3.076      64.464
2015    3        8     4  24    5.6930   618.5    3.076      64.447
2015    3        8     4  29    5.6920   618.4    3.075      64.430
2015    3        8     4  35    5.6909   618.3    3.075      64.415
2015    3        8     4  40    5.6899   618.2    3.075      64.399
2015    3        8     4  45    5.6889   618.1    3.075      64.384
2015    3        8     4  50    5.6879   618.0    3.075      64.370
2015    3        8     4  56    5.6869   617.9    3.074      64.357
2015    3        8     5   1    5.6859   617.8    3.074      64.344
2015    3        8     5   6    5.6849   617.7    3.075      64.332
2015    3        8     5  11    5.6839   617.6    3.075      64.320
2015    3        8     5  17    5.6829   617.5    3.075      64.309
2015    3        8     5  22    5.6819   617.4    3.075      64.299
2015    3        8     5  27    5.6809   617.4    3.075      64.289
2015    3        8     5  32    5.6799   617.3    3.076      64.280
2015    3        8     5  38    5.6789   617.2    3.076      64.272
2015    3        8     5  43    5.6779   617.1    3.076      64.264
2015    3        8     5  48    5.6769   617.0    3.077      64.257
2015    3        8     5  54    5.6759   616.9    3.078      64.250
2015    3        8     5  59    5.6749   616.8    3.078      64.243
2015    3        8     6   4    5.6740   616.7    3.079      64.238
2015    3        8     6   9    5.6730   616.6    3.080      64.233
2015    3        8     6  15    5.6720   616.5    3.080      64.228
2015    3        8     6  20    5.6711   616.4    3.081      64.225
2015    3        8     6  25    5.6701   616.3    3.082      64.222
2015    3        8     6  30    5.6692   616.2    3.083      64.219
2015    3        8     6  36    5.6683   616.1    3.084      64.217
2015    3        8     6  41    5.6674   616.0    3.085      64.216
2015    3        8     6  46    5.6665   615.9    3.086      64.214
2015    3        8     6  51    5.6657   615.8    3.087      64.214
2015    3        8     6  57    5.6648   615.7    3.088      64.213
2015    3        8     7   2    5.6640   615.6    3.089      64.213
2015    3        8     7   7    5.6632   615.5    3.090      64.214
2015    3        8     7  12    5.6624   615.4    3.091      64.214
2015    3        8     7  18    5.6616   615.3    3.092      64.215
2015    3        8     7  23    5.6609   615.2    3.093      64.216
2015    3        8     7  28    5.6601   615.1    3.094      64.217
2015    3        8     7  33    5.6594   615.0    3.096      64.218
2015    3        8     7  39    5.6587   614.9    3.097      64.219
2015    3        8     7  44    5.6579   614.8    3.098      64.221
2015    3        8     7  49    5.6572   614.7    3.099      64.222
2015    3        8     7  54    5.6565   614.6    3.100      64.224
2015    3        8     8   0    5.6558   614.5    3.101      64.225
2015    3        8     8   5    5.6551   614.4    3.103      64.226
2015    3        8     8  10    5.6544   614.4    3.104      64.227
2015    3        8     8  15    5.6536   614.3    3.105      64.228
2015    3        8     8  21    5.6529   614.2    3.106      64.229
2015    3        8     8  26    5.6522   614.1    3.107      64.229
2015    3        8     8  31    5.6515   614.0    3.108      64.229
2015    3        8     8  36    5.6507   613.9    3.109      64.228
2015    3        8     8  42    5.6500   613.8    3.110      64.227
2015    3        8     8  47    5.6492   613.7    3.111      64.225
2015    3        8     8  52    5.6485   613.6    3.112      64.224
2015    3        8     8  57    5.6477   613.5    3.112      64.221
2015    3        8     9   3    5.6469   613.4    3.113      64.219
2015    3        8     9   8    5.6461   613.3    3.114      64.216
2015    3        8     9  13    5.6453   613.2    3.115      64.212
2015    3        8     9  18    5.6445   613.1    3.116      64.209
2015    3        8     9  24    5.6437   613.0    3.117      64.204
2015    3        8     9  29    5.6430   612.9    3.117      64.200
2015    3        8     9  34    5.6422   612.8    3.118      64.195
2015    3        8     9  39    5.6414   612.7    3.119      64.190
2015    3        8     9  45    5.6406   612.6    3.119      64.185
2015    3        8     9  50    5.6398   612.5    3.120      64.180
2015    3        8     9  55    5.6390   612.4    3.121      64.175
2015    3        8    10   0    5.6383   612.3    3.121      64.169
2015    3        8    10   6    5.6375   612.2    3.122      64.164
2015    3        8    10  11    5.6368   612.1    3.123      64.158
2015    3        8    10  16    5.6360   612.0    3.123      64.153
2015    3        8    10  21    5.6353   611.9    3.124      64.147
2015    3        8    10  27    5.6345   611.8    3.125      64.142
2015    3        8    10  32    5.6338   611.7    3.125      64.136
2015    3        8    10  37    5.6332   611.6    3.126      64.131
2015    3        8    10  42    5.6325   611.4    3.127      64.126
2015    3        8    10  47    5.6318   611.3    3.127      64.121
2015    3        8    10  53    5.6311   611.2    3.128      64.115
2015    3        8    10  58    5.6304   611.1    3.129      64.110
2015    3        8    11   3    5.6298   611.0    3.129      64.105
2015    3        8    11   8    5.6292   610.9    3.130      64.100
2015    3        8    11  14    5.6286   610.8    3.131      64.095
2015    3        8    11  19    5.6280   610.7    3.131      64.090
2015    3        8    11  24    5.6273   610.6    3.132      64.085
2015    3        8    11  29    5.6267   610.5    3.133      64.080
2015    3        8    11  35    5.6261   610.4    3.133      64.075
2015    3        8    11  40    5.6255   610.3    3.134      64.070
2015    3        8    11  45    5.6249   610.1    3.134      64.064
2015    3        8    11  50    5.6243   610.0    3.135      64.059
2015    3        8    11  56    5.6238   609.9    3.136      64.053
2015    3        8    12   1    5.6232   609.8    3.136      64.048
2015    3        8    12   6    5.6227   609.7    3.137      64.042
2015    3        8    12  11    5.6220   609.6    3.137      64.036
2015    3        8    12  17    5.6215   609.5    3.138      64.030
2015    3        8    12  22    5.6210   609.4    3.138      64.024
2015    3        8    12  27    5.6204   609.2    3.139      64.017
2015    3        8    12  32    5.6199   609.1    3.140      64.011
2015    3        8    12  38    5.6194   609.0    3.140      64.004
2015    3        8    12  43    5.6189   608.9    3.141      63.997
2015    3        8    12  48    5.6184   608.8    3.141      63.990
2015    3        8    12  53    5.6180   608.7    3.142      63.983
2015    3        8    12  59    5.6174   608.6    3.142      63.976
2015    3        8    13   4    5.6170   608.4    3.143      63.968
2015    3        8    13   9    5.6166   608.3    3.143      63.961
2015    3        8    13  15    5.6162   608.2    3.144      63.953
2015    3        8    13  20    5.6157   608.1    3.145      63.945
2015    3        8    13  25    5.6153   608.0    3.145      63.937
2015    3        8    13  30    5.6148   607.9    3.146      63.929
2015    3        8    13  36    5.6144   607.7    3.146      63.921
2015    3        8    13  41    5.6141   607.6    3.147      63.912
2015    3        8    13  46    5.6137   607.5    3.148      63.904
2015    3        8    13  51    5.6133   607.4    3.148      63.895
2015    3        8    13  57    5.6129   607.3    3.149      63.887
2015    3        8    14   2    5.6125   607.1    3.150      63.878
2015    3        8    14   7    5.6122   607.0    3.151      63.869
2015    3        8    14  12    5.6118   606.9    3.151      63.861
2015    3        8    14  18    5.6115   606.8    3.152      63.852
2015    3        8    14  23    5.6111   606.7    3.153      63.843
2015    3        8    14  28    5.6108   606.5    3.154      63.834
2015    3        8    14  33    5.6104   606.4    3.155      63.825
2015    3        8    14  39    5.6101   606.3    3.155      63.816
2015    3        8    14  44    5.6098   606.2    3.156      63.808
2015    3        8    14  49    5.6094   606.1    3.157      63.799
2015    3        8    14  54    5.6091   605.9    3.158      63.790
2015    3        8    15   0    5.6087   605.8    3.159      63.782
2015    3        8    15   5    5.6084   605.7    3.160      63.773
2015    3        8    15  10    5.6081   605.6    3.161      63.765
2015    3        8    15  15    5.6077   605.4    3.162      63.756
2015    3        8    15  21    5.6074   605.3    3.163      63.748
2015    3        8    15  26    5.6071   605.2    3.164      63.740
2015    3        8    15  31    5.6067   605.1    3.165      63.732
2015    3        8    15  36    5.6064   604.9    3.166      63.724
2015    3        8    15  42    5.6061   604.8    3.167      63.717
2015    3        8    15  47    5.6058   604.7    3.168      63.710
2015    3        8    15  52    5.6055   604.6    3.169      63.703
2015    3        8    15  57    5.6052   604.4    3.170      63.696
2015    3        8    16   3    5.6048   604.3    3.171      63.690
2015    3        8    16   8    5.6045   604.2    3.172      63.684
2015    3        8    16  13    5.6043   604.1    3.174      63.678
2015    3        8    16  18    5.6040   603.9    3.175      63.673
2015    3        8    16  24    5.6037   603.8    3.176      63.668
2015    3        8    16  29    5.6035   603.7    3.177      63.664
2015    3        8    16  34    5.6032   603.5    3.179      63.660
2015    3        8    16  39    5.6030   603.4    3.180      63.657
2015    3        8    16  45    5.6028   603.3    3.182      63.655
2015    3        8    16  50    5.6026   603.1    3.183      63.653
2015    3        8    16  55    5.6025   603.0    3.185      63.652
2015    3        8    17   0    5.6024   602.9    3.186      63.651
2015    3        8    17   6    5.6022   602.7    3.188      63.651
2015    3        8    17  11    5.6021   602.6    3.189      63.652
2015    3        8    17  16    5.6020   602.5    3.191      63.654
2015    3        8    17  21    5.6019   602.4    3.193      63.657
2015    3        8    17  27    5.6019   602.2    3.195      63.660
2015    3        8    17  32    5.6019   602.1    3.196      63.664
2015    3        8    17  37    5.6019   602.0    3.198      63.669
2015    3        8    17  42    5.6020   601.8    3.200      63.674
2015    3        8    17  48    5.6020   601.7    3.202      63.681
2015    3        8    17  53    5.6021   601.6    3.204      63.688
2015    3        8    17  58    5.6022   601.4    3.206      63.695
2015    3        8    18   3    5.6024   601.3    3.208      63.704
2015    3        8    18   8    5.6025   601.2    3.210      63.712
2015    3        8    18  14    5.6026   601.1    3.212      63.722
2015    3        8    18  19    5.6028   600.9    3.214      63.731
2015    3        8    18  24    5.6030   600.8    3.216      63.742
2015    3        8    18  29    5.6031   600.7    3.218      63.752
2015    3        8    18  35    5.6033   600.6    3.220      63.763
2015    3        8    18  40    5.6035   600.4    3.223      63.773
2015    3        8    18  45    5.6037   600.3    3.225      63.784
2015    3        8    18  50    5.6039   600.2    3.227      63.795
2015    3        8    18  56    5.6041   600.1    3.229      63.807
2015    3        8    19   1    5.6043   600.0    3.231      63.818
2015    3        8    19   6    5.6045   599.8    3.233      63.829
2015    3        8    19  11    5.6047   599.7    3.235      63.841
2015    3        8    19  17    5.6050   599.6    3.238      63.852
2015    3        8    19  22    5.6052   599.5    3.240      63.863
2015    3        8    19  27    5.6054   599.3    3.242      63.874
2015    3        8    19  32    5.6057   599.2    3.244      63.884
2015    3        8    19  38    5.6059   599.1    3.246      63.895
2015    3        8    19  43    5.6063   599.0    3.248      63.905
2015    3        8    19  48    5.6065   598.9    3.250      63.915
2015    3        8    19  53    5.6068   598.8    3.252      63.924
2015    3        8    19  59    5.6071   598.6    3.254      63.933
2015    3        8    20   4    5.6074   598.5    3.256      63.942
2015    3        8    20   9    5.6077   598.4    3.258      63.950
2015    3        8    20  14    5.6080   598.3    3.259      63.959
2015    3        8    20  20    5.6085   598.2    3.261      63.966
2015    3        8    20  25    5.6087   598.0    3.263      63.974
2015    3        8    20  30    5.6091   597.9    3.265      63.981
2015    3        8    20  35    5.6094   597.8    3.267      63.987
2015    3        8    20  41    5.6098   597.7    3.268      63.993
2015    3        8    20  46    5.6102   597.6    3.270      63.999
2015    3        8    20  51    5.6106   597.5    3.271      64.005
2015    3        8    20  57    5.6110   597.4    3.273      64.010
2015    3        8    21   2    5.6114   597.2    3.275      64.014
2015    3        8    21   7    5.6119   597.1    3.276      64.018
2015    3        8    21  12    5.6123   597.0    3.278      64.021
2015    3        8    21  18    5.6127   596.9    3.279      64.024
2015    3        8    21  23    5.6131   596.8    3.280      64.027
2015    3        8    21  28    5.6136   596.7    3.282      64.028
2015    3        8    21  33    5.6140   596.5    3.283      64.030
2015    3        8    21  39    5.6144   596.4    3.284      64.030
2015    3        8    21  44    5.6148   596.3    3.285      64.031
2015    3        8    21  49    5.6154   596.2    3.286      64.030
2015    3        8    21  54    5.6157   596.1    3.288      64.029
2015    3        8    22   0    5.6161   596.0    3.289      64.028
2015    3        8    22   5    5.6166   595.8    3.290      64.026
2015    3        8    22  10    5.6170   595.7    3.291      64.024
2015    3        8    22  15    5.6174   595.6    3.292      64.021
2015    3        8    22  21    5.6179   595.5    3.293      64.018
2015    3        8    22  26    5.6183   595.4    3.294      64.015
2015    3        8    22  31    5.6188   595.3    3.295      64.012
2015    3        8    22  36    5.6193   595.1    3.296      64.008
2015    3        8    22  42    5.6197   595.0    3.297      64.004
2015    3        8    22  47    5.6202   594.9    3.298      64.001
2015    3        8    22  52    5.6207   594.8    3.299      63.998
2015    3        8    22  57    5.6212   594.7    3.300      63.994
2015    3        8    23   3    5.6217   594.5    3.301      63.991
2015    3        8    23   8    5.6223   594.4    3.302      63.988
2015    3        8    23  13    5.6228   594.3    3.303      63.986
2015    3        8    23  18    5.6235   594.2    3.304      63.984
2015    3        8    23  24    5.6241   594.1    3.305      63.983
2015    3        8    23  29    5.6246   593.9    3.307      63.982
2015    3        8    23  34    5.6252   593.8    3.308      63.981
2015    3        8    23  39    5.6259   593.7    3.309      63.982
2015    3        8    23  45    5.6265   593.6    3.310      63.983
2015    3        8    23  50    5.6272   593.5    3.312      63.984
2015    3        8    23  55    5.6279   593.4    3.313      63.987
2015    3        9     0   0    5.6286   593.2    3.315      63.990
