year    month   day   hour  minute  B_enl V_enl   n_enl       T_enl
[year] [month] [day] [hour][minute] [nT]  [km/s]  [cm-3]      [kK]
2015    2       20     0   1    6.5985   471.8    6.937      53.476
2015    2       20     0   6    6.6016   471.9    6.938      53.521
2015    2       20     0  11    6.6047   472.0    6.938      53.565
2015    2       20     0  16    6.6078   472.1    6.939      53.607
2015    2       20     0  21    6.6108   472.3    6.939      53.648
2015    2       20     0  27    6.6138   472.4    6.939      53.688
2015    2       20     0  32    6.6167   472.5    6.939      53.727
2015    2       20     0  37    6.6197   472.7    6.938      53.765
2015    2       20     0  42    6.6226   472.8    6.938      53.802
2015    2       20     0  47    6.6254   472.9    6.937      53.837
2015    2       20     0  53    6.6283   473.1    6.936      53.872
2015    2       20     0  58    6.6311   473.2    6.935      53.906
2015    2       20     1   3    6.6338   473.3    6.934      53.939
2015    2       20     1   8    6.6366   473.5    6.933      53.971
2015    2       20     1  13    6.6394   473.6    6.932      54.003
2015    2       20     1  18    6.6421   473.7    6.930      54.034
2015    2       20     1  24    6.6448   473.9    6.929      54.064
2015    2       20     1  29    6.6475   474.0    6.928      54.094
2015    2       20     1  34    6.6502   474.1    6.926      54.123
2015    2       20     1  39    6.6529   474.3    6.925      54.152
2015    2       20     1  44    6.6556   474.4    6.923      54.180
2015    2       20     1  50    6.6583   474.5    6.921      54.208
2015    2       20     1  55    6.6609   474.7    6.920      54.236
2015    2       20     2   0    6.6635   474.8    6.918      54.263
2015    2       20     2   5    6.6662   474.9    6.917      54.290
2015    2       20     2  10    6.6688   475.1    6.915      54.318
2015    2       20     2  15    6.6715   475.2    6.914      54.345
2015    2       20     2  21    6.6741   475.3    6.912      54.372
2015    2       20     2  26    6.6768   475.5    6.911      54.399
2015    2       20     2  31    6.6793   475.6    6.909      54.426
2015    2       20     2  36    6.6820   475.8    6.908      54.454
2015    2       20     2  41    6.6845   475.9    6.907      54.481
2015    2       20     2  47    6.6871   476.0    6.906      54.509
2015    2       20     2  52    6.6898   476.2    6.904      54.537
2015    2       20     2  57    6.6923   476.3    6.903      54.566
2015    2       20     3   2    6.6949   476.4    6.902      54.594
2015    2       20     3   7    6.6974   476.6    6.901      54.623
2015    2       20     3  13    6.6998   476.7    6.901      54.652
2015    2       20     3  18    6.7023   476.9    6.900      54.682
2015    2       20     3  23    6.7047   477.0    6.899      54.712
2015    2       20     3  28    6.7073   477.1    6.899      54.742
2015    2       20     3  33    6.7098   477.3    6.898      54.773
2015    2       20     3  38    6.7122   477.4    6.898      54.804
2015    2       20     3  44    6.7144   477.5    6.898      54.835
2015    2       20     3  49    6.7168   477.7    6.898      54.868
2015    2       20     3  54    6.7192   477.8    6.898      54.901
2015    2       20     3  59    6.7215   477.9    6.898      54.934
2015    2       20     4   4    6.7238   478.1    6.898      54.969
2015    2       20     4  10    6.7262   478.2    6.899      55.004
2015    2       20     4  15    6.7287   478.3    6.900      55.040
2015    2       20     4  20    6.7310   478.5    6.900      55.076
2015    2       20     4  25    6.7332   478.6    6.901      55.114
2015    2       20     4  30    6.7355   478.7    6.903      55.153
2015    2       20     4  35    6.7380   478.9    6.904      55.193
2015    2       20     4  41    6.7404   479.0    6.905      55.234
2015    2       20     4  46    6.7427   479.1    6.907      55.276
2015    2       20     4  51    6.7449   479.3    6.909      55.319
2015    2       20     4  56    6.7475   479.4    6.910      55.363
2015    2       20     5   1    6.7497   479.5    6.912      55.408
2015    2       20     5   7    6.7521   479.7    6.914      55.454
2015    2       20     5  12    6.7547   479.8    6.917      55.500
2015    2       20     5  17    6.7572   480.0    6.919      55.547
2015    2       20     5  22    6.7595   480.1    6.921      55.596
2015    2       20     5  27    6.7622   480.2    6.924      55.644
2015    2       20     5  32    6.7647   480.4    6.927      55.694
2015    2       20     5  38    6.7672   480.5    6.930      55.744
2015    2       20     5  43    6.7696   480.6    6.933      55.795
2015    2       20     5  48    6.7725   480.8    6.936      55.848
2015    2       20     5  53    6.7749   480.9    6.939      55.902
2015    2       20     5  58    6.7776   481.1    6.942      55.957
2015    2       20     6   4    6.7805   481.2    6.946      56.014
2015    2       20     6   9    6.7832   481.4    6.949      56.072
2015    2       20     6  14    6.7858   481.5    6.953      56.131
2015    2       20     6  19    6.7886   481.7    6.956      56.191
2015    2       20     6  24    6.7914   481.8    6.960      56.252
2015    2       20     6  30    6.7943   482.0    6.964      56.314
2015    2       20     6  35    6.7971   482.1    6.968      56.376
2015    2       20     6  40    6.8000   482.3    6.971      56.439
2015    2       20     6  45    6.8029   482.4    6.975      56.504
2015    2       20     6  50    6.8058   482.6    6.979      56.570
2015    2       20     6  55    6.8086   482.8    6.982      56.637
2015    2       20     7   1    6.8115   482.9    6.986      56.703
2015    2       20     7   6    6.8142   483.1    6.989      56.769
2015    2       20     7  11    6.8170   483.3    6.992      56.834
2015    2       20     7  16    6.8197   483.5    6.995      56.899
2015    2       20     7  21    6.8224   483.6    6.997      56.963
2015    2       20     7  27    6.8251   483.8    6.999      57.025
2015    2       20     7  32    6.8278   484.0    7.001      57.087
2015    2       20     7  37    6.8303   484.2    7.003      57.147
2015    2       20     7  42    6.8328   484.4    7.004      57.206
2015    2       20     7  47    6.8353   484.6    7.005      57.264
2015    2       20     7  52    6.8377   484.7    7.005      57.320
2015    2       20     7  58    6.8400   484.9    7.005      57.374
2015    2       20     8   3    6.8422   485.1    7.005      57.427
2015    2       20     8   8    6.8445   485.3    7.005      57.477
2015    2       20     8  13    6.8466   485.5    7.004      57.526
2015    2       20     8  18    6.8487   485.7    7.002      57.573
2015    2       20     8  24    6.8508   485.9    7.001      57.619
2015    2       20     8  29    6.8528   486.1    6.999      57.663
2015    2       20     8  34    6.8548   486.3    6.997      57.705
2015    2       20     8  39    6.8567   486.5    6.994      57.745
2015    2       20     8  44    6.8585   486.8    6.992      57.785
2015    2       20     8  50    6.8604   487.0    6.989      57.822
2015    2       20     8  55    6.8622   487.2    6.985      57.859
2015    2       20     9   0    6.8639   487.4    6.982      57.894
2015    2       20     9   5    6.8656   487.6    6.978      57.928
2015    2       20     9  10    6.8673   487.8    6.975      57.960
2015    2       20     9  15    6.8690   488.0    6.971      57.992
2015    2       20     9  21    6.8706   488.2    6.967      58.022
2015    2       20     9  26    6.8722   488.4    6.962      58.052
2015    2       20     9  31    6.8737   488.6    6.958      58.080
2015    2       20     9  36    6.8752   488.8    6.954      58.108
2015    2       20     9  41    6.8767   489.1    6.949      58.135
2015    2       20     9  47    6.8781   489.3    6.944      58.160
2015    2       20     9  52    6.8795   489.5    6.939      58.185
2015    2       20     9  57    6.8809   489.7    6.935      58.210
2015    2       20    10   2    6.8822   489.9    6.930      58.233
2015    2       20    10   7    6.8835   490.1    6.925      58.257
2015    2       20    10  12    6.8848   490.3    6.920      58.279
2015    2       20    10  18    6.8860   490.5    6.915      58.301
2015    2       20    10  23    6.8872   490.7    6.910      58.322
2015    2       20    10  28    6.8884   490.9    6.904      58.343
2015    2       20    10  33    6.8895   491.1    6.899      58.364
2015    2       20    10  38    6.8906   491.4    6.894      58.384
2015    2       20    10  44    6.8917   491.6    6.889      58.404
2015    2       20    10  49    6.8928   491.8    6.884      58.423
2015    2       20    10  54    6.8938   492.0    6.879      58.443
2015    2       20    10  59    6.8949   492.2    6.874      58.462
2015    2       20    11   4    6.8959   492.4    6.869      58.480
2015    2       20    11   9    6.8969   492.5    6.865      58.499
2015    2       20    11  15    6.8978   492.7    6.860      58.518
2015    2       20    11  20    6.8988   492.9    6.855      58.537
2015    2       20    11  25    6.8998   493.1    6.851      58.557
2015    2       20    11  30    6.9009   493.3    6.847      58.576
2015    2       20    11  35    6.9018   493.5    6.843      58.596
2015    2       20    11  41    6.9028   493.7    6.839      58.616
2015    2       20    11  46    6.9038   493.9    6.835      58.638
2015    2       20    11  51    6.9049   494.1    6.831      58.661
2015    2       20    11  56    6.9060   494.2    6.828      58.684
2015    2       20    12   1    6.9070   494.4    6.825      58.709
2015    2       20    12   7    6.9082   494.6    6.822      58.736
2015    2       20    12  12    6.9093   494.8    6.819      58.763
2015    2       20    12  17    6.9106   495.0    6.817      58.793
2015    2       20    12  22    6.9117   495.2    6.815      58.823
2015    2       20    12  27    6.9129   495.4    6.812      58.855
2015    2       20    12  32    6.9142   495.6    6.811      58.889
2015    2       20    12  38    6.9156   495.7    6.809      58.923
2015    2       20    12  43    6.9169   495.9    6.807      58.959
2015    2       20    12  48    6.9183   496.1    6.806      58.997
2015    2       20    12  53    6.9196   496.3    6.805      59.036
2015    2       20    12  58    6.9211   496.5    6.804      59.076
2015    2       20    13   4    6.9225   496.7    6.803      59.117
2015    2       20    13   9    6.9240   496.9    6.802      59.159
2015    2       20    13  14    6.9256   497.1    6.802      59.204
2015    2       20    13  19    6.9270   497.3    6.801      59.250
2015    2       20    13  24    6.9287   497.5    6.801      59.298
2015    2       20    13  29    6.9301   497.7    6.801      59.348
2015    2       20    13  35    6.9316   497.9    6.801      59.399
2015    2       20    13  40    6.9332   498.1    6.801      59.450
2015    2       20    13  45    6.9348   498.3    6.802      59.503
2015    2       20    13  50    6.9363   498.5    6.802      59.556
2015    2       20    13  55    6.9378   498.7    6.803      59.611
2015    2       20    14   1    6.9393   498.9    6.803      59.667
2015    2       20    14   6    6.9408   499.1    6.803      59.723
2015    2       20    14  11    6.9424   499.3    6.803      59.780
2015    2       20    14  16    6.9438   499.5    6.803      59.838
2015    2       20    14  21    6.9451   499.7    6.803      59.894
2015    2       20    14  27    6.9461   499.9    6.803      59.950
2015    2       20    14  32    6.9473   500.2    6.802      60.005
2015    2       20    14  37    6.9485   500.4    6.801      60.059
2015    2       20    14  42    6.9497   500.6    6.800      60.112
2015    2       20    14  47    6.9505   500.8    6.799      60.163
2015    2       20    14  52    6.9514   501.0    6.797      60.214
2015    2       20    14  58    6.9523   501.3    6.795      60.263
2015    2       20    15   3    6.9530   501.5    6.793      60.311
2015    2       20    15   8    6.9537   501.7    6.790      60.357
2015    2       20    15  13    6.9543   501.9    6.787      60.401
2015    2       20    15  18    6.9548   502.2    6.784      60.444
2015    2       20    15  24    6.9555   502.4    6.780      60.485
2015    2       20    15  29    6.9559   502.6    6.776      60.525
2015    2       20    15  34    6.9562   502.9    6.772      60.563
2015    2       20    15  39    6.9565   503.1    6.767      60.599
2015    2       20    15  44    6.9567   503.4    6.762      60.634
2015    2       20    15  49    6.9568   503.6    6.757      60.668
2015    2       20    15  55    6.9566   503.8    6.752      60.700
2015    2       20    16   0    6.9569   504.1    6.747      60.731
2015    2       20    16   5    6.9566   504.3    6.741      60.761
2015    2       20    16  10    6.9568   504.6    6.735      60.790
2015    2       20    16  15    6.9566   504.8    6.729      60.817
2015    2       20    16  21    6.9564   505.1    6.723      60.844
2015    2       20    16  26    6.9559   505.3    6.716      60.869
2015    2       20    16  31    6.9558   505.6    6.710      60.894
2015    2       20    16  36    6.9555   505.8    6.703      60.917
2015    2       20    16  41    6.9548   506.1    6.696      60.940
2015    2       20    16  47    6.9546   506.3    6.689      60.961
2015    2       20    16  52    6.9538   506.6    6.682      60.982
2015    2       20    16  57    6.9534   506.8    6.674      61.002
2015    2       20    17   2    6.9526   507.1    6.667      61.021
2015    2       20    17   7    6.9519   507.3    6.659      61.039
2015    2       20    17  12    6.9513   507.6    6.652      61.056
2015    2       20    17  18    6.9502   507.8    6.644      61.073
2015    2       20    17  23    6.9494   508.1    6.636      61.089
2015    2       20    17  28    6.9484   508.3    6.629      61.104
2015    2       20    17  33    6.9477   508.6    6.621      61.118
2015    2       20    17  38    6.9466   508.8    6.613      61.132
2015    2       20    17  44    6.9453   509.1    6.605      61.145
2015    2       20    17  49    6.9444   509.3    6.597      61.158
2015    2       20    17  54    6.9432   509.5    6.589      61.170
2015    2       20    17  59    6.9420   509.8    6.581      61.182
2015    2       20    18   4    6.9407   510.0    6.573      61.194
2015    2       20    18   9    6.9394   510.3    6.565      61.205
2015    2       20    18  15    6.9380   510.5    6.557      61.216
2015    2       20    18  20    6.9364   510.8    6.549      61.226
2015    2       20    18  25    6.9349   511.0    6.541      61.237
2015    2       20    18  30    6.9335   511.2    6.534      61.247
2015    2       20    18  35    6.9323   511.5    6.526      61.256
2015    2       20    18  41    6.9305   511.7    6.518      61.265
2015    2       20    18  46    6.9292   512.0    6.510      61.274
2015    2       20    18  51    6.9276   512.2    6.502      61.283
2015    2       20    18  56    6.9260   512.4    6.494      61.291
2015    2       20    19   1    6.9240   512.7    6.486      61.299
2015    2       20    19   6    6.9223   512.9    6.478      61.306
2015    2       20    19  12    6.9206   513.1    6.470      61.313
2015    2       20    19  17    6.9192   513.4    6.462      61.320
2015    2       20    19  22    6.9174   513.6    6.454      61.327
2015    2       20    19  27    6.9156   513.8    6.446      61.333
2015    2       20    19  32    6.9135   514.1    6.439      61.340
2015    2       20    19  38    6.9120   514.3    6.431      61.347
2015    2       20    19  43    6.9098   514.5    6.424      61.354
2015    2       20    19  48    6.9080   514.7    6.416      61.361
2015    2       20    19  53    6.9062   515.0    6.409      61.369
2015    2       20    19  58    6.9047   515.2    6.401      61.377
2015    2       20    20   4    6.9025   515.4    6.394      61.385
2015    2       20    20   9    6.9007   515.6    6.387      61.393
2015    2       20    20  14    6.8988   515.8    6.380      61.402
2015    2       20    20  19    6.8970   516.1    6.373      61.410
2015    2       20    20  24    6.8952   516.3    6.366      61.420
2015    2       20    20  29    6.8937   516.5    6.360      61.432
2015    2       20    20  35    6.8918   516.7    6.353      61.444
2015    2       20    20  40    6.8896   516.9    6.346      61.458
2015    2       20    20  45    6.8876   517.1    6.340      61.472
2015    2       20    20  50    6.8857   517.4    6.333      61.487
2015    2       20    20  55    6.8841   517.6    6.327      61.503
2015    2       20    21   1    6.8816   517.8    6.320      61.518
2015    2       20    21   6    6.8795   518.0    6.313      61.534
2015    2       20    21  11    6.8778   518.3    6.307      61.549
2015    2       20    21  16    6.8751   518.5    6.300      61.565
2015    2       20    21  21    6.8729   518.7    6.293      61.580
2015    2       20    21  26    6.8705   518.9    6.286      61.594
2015    2       20    21  32    6.8681   519.1    6.278      61.609
2015    2       20    21  37    6.8655   519.4    6.271      61.622
2015    2       20    21  42    6.8634   519.6    6.263      61.634
2015    2       20    21  47    6.8603   519.8    6.255      61.645
2015    2       20    21  52    6.8576   520.0    6.248      61.654
2015    2       20    21  58    6.8552   520.3    6.239      61.663
2015    2       20    22   3    6.8524   520.5    6.231      61.670
2015    2       20    22   8    6.8495   520.7    6.223      61.676
2015    2       20    22  13    6.8466   520.9    6.215      61.681
2015    2       20    22  18    6.8431   521.1    6.206      61.684
2015    2       20    22  24    6.8400   521.4    6.198      61.687
2015    2       20    22  29    6.8369   521.6    6.189      61.688
2015    2       20    22  34    6.8342   521.8    6.180      61.689
2015    2       20    22  39    6.8305   522.0    6.171      61.689
2015    2       20    22  44    6.8273   522.2    6.162      61.688
2015    2       20    22  49    6.8244   522.4    6.153      61.685
2015    2       20    22  55    6.8211   522.6    6.144      61.682
2015    2       20    23   0    6.8177   522.9    6.135      61.678
2015    2       20    23   5    6.8138   523.1    6.126      61.674
2015    2       20    23  10    6.8103   523.3    6.117      61.668
2015    2       20    23  15    6.8069   523.5    6.108      61.662
2015    2       20    23  21    6.8038   523.7    6.098      61.655
2015    2       20    23  26    6.8003   523.9    6.089      61.648
2015    2       20    23  31    6.7962   524.1    6.080      61.640
2015    2       20    23  36    6.7931   524.3    6.070      61.631
2015    2       20    23  41    6.7890   524.5    6.061      61.622
2015    2       20    23  46    6.7853   524.7    6.052      61.612
2015    2       20    23  52    6.7821   524.9    6.042      61.602
2015    2       20    23  57    6.7779   525.1    6.033      61.591
2015    2       21     0   2    6.7746   525.3    6.024      61.580
2015    2       21     0   7    6.7709   525.5    6.014      61.569
2015    2       21     0  12    6.7671   525.7    6.005      61.557
2015    2       21     0  18    6.7632   525.9    5.996      61.545
2015    2       21     0  23    6.7590   526.1    5.986      61.532
2015    2       21     0  28    6.7555   526.3    5.977      61.519
2015    2       21     0  33    6.7516   526.5    5.968      61.506
2015    2       21     0  38    6.7477   526.7    5.958      61.492
2015    2       21     0  43    6.7437   526.9    5.949      61.478
2015    2       21     0  49    6.7397   527.0    5.940      61.464
2015    2       21     0  54    6.7353   527.2    5.931      61.449
2015    2       21     0  59    6.7317   527.4    5.922      61.434
2015    2       21     1   4    6.7273   527.6    5.913      61.419
2015    2       21     1   9    6.7232   527.8    5.904      61.404
2015    2       21     1  15    6.7191   528.0    5.895      61.389
2015    2       21     1  20    6.7150   528.1    5.887      61.374
2015    2       21     1  25    6.7108   528.3    5.878      61.358
2015    2       21     1  30    6.7067   528.5    5.869      61.343
2015    2       21     1  35    6.7025   528.7    5.861      61.327
2015    2       21     1  41    6.6987   528.9    5.852      61.311
2015    2       21     1  46    6.6944   529.0    5.843      61.295
2015    2       21     1  51    6.6902   529.2    5.835      61.278
2015    2       21     1  56    6.6859   529.4    5.826      61.261
2015    2       21     2   1    6.6812   529.6    5.818      61.244
2015    2       21     2   6    6.6769   529.8    5.809      61.227
2015    2       21     2  12    6.6725   529.9    5.801      61.208
2015    2       21     2  17    6.6681   530.1    5.792      61.190
2015    2       21     2  22    6.6637   530.3    5.784      61.170
2015    2       21     2  27    6.6593   530.5    5.775      61.151
2015    2       21     2  32    6.6548   530.6    5.767      61.130
2015    2       21     2  38    6.6506   530.8    5.758      61.109
2015    2       21     2  43    6.6458   531.0    5.750      61.087
2015    2       21     2  48    6.6413   531.1    5.741      61.065
2015    2       21     2  53    6.6371   531.3    5.733      61.043
2015    2       21     2  58    6.6322   531.5    5.724      61.019
2015    2       21     3   3    6.6276   531.6    5.715      60.996
2015    2       21     3   9    6.6230   531.8    5.707      60.971
2015    2       21     3  14    6.6183   532.0    5.698      60.947
2015    2       21     3  19    6.6137   532.1    5.690      60.921
2015    2       21     3  24    6.6093   532.3    5.681      60.895
2015    2       21     3  29    6.6043   532.5    5.672      60.869
2015    2       21     3  35    6.5996   532.6    5.663      60.842
2015    2       21     3  40    6.5949   532.8    5.655      60.815
2015    2       21     3  45    6.5902   532.9    5.646      60.788
2015    2       21     3  50    6.5854   533.1    5.637      60.760
2015    2       21     3  55    6.5807   533.2    5.628      60.731
2015    2       21     4   1    6.5758   533.4    5.620      60.702
2015    2       21     4   6    6.5710   533.5    5.611      60.673
2015    2       21     4  11    6.5662   533.7    5.602      60.643
2015    2       21     4  16    6.5616   533.8    5.593      60.613
2015    2       21     4  21    6.5565   534.0    5.585      60.583
2015    2       21     4  26    6.5516   534.1    5.576      60.552
2015    2       21     4  32    6.5467   534.2    5.567      60.520
2015    2       21     4  37    6.5420   534.4    5.558      60.489
2015    2       21     4  42    6.5368   534.5    5.549      60.457
2015    2       21     4  47    6.5319   534.6    5.541      60.424
2015    2       21     4  52    6.5271   534.8    5.532      60.392
2015    2       21     4  58    6.5219   534.9    5.523      60.358
2015    2       21     5   3    6.5169   535.0    5.515      60.325
2015    2       21     5   8    6.5119   535.2    5.506      60.291
2015    2       21     5  13    6.5069   535.3    5.498      60.256
2015    2       21     5  18    6.5019   535.4    5.489      60.222
2015    2       21     5  23    6.4969   535.5    5.481      60.187
2015    2       21     5  29    6.4918   535.6    5.472      60.151
2015    2       21     5  34    6.4868   535.8    5.464      60.116
2015    2       21     5  39    6.4818   535.9    5.456      60.080
2015    2       21     5  44    6.4767   536.0    5.447      60.044
2015    2       21     5  49    6.4719   536.1    5.439      60.008
2015    2       21     5  55    6.4668   536.2    5.431      59.972
2015    2       21     6   0    6.4618   536.3    5.423      59.936
2015    2       21     6   5    6.4566   536.4    5.415      59.900
2015    2       21     6  10    6.4516   536.5    5.407      59.864
2015    2       21     6  15    6.4466   536.6    5.400      59.827
2015    2       21     6  21    6.4417   536.7    5.392      59.791
2015    2       21     6  26    6.4367   536.8    5.385      59.755
2015    2       21     6  31    6.4316   536.9    5.377      59.719
2015    2       21     6  36    6.4266   537.0    5.370      59.682
2015    2       21     6  41    6.4217   537.1    5.363      59.647
2015    2       21     6  46    6.4166   537.2    5.355      59.611
2015    2       21     6  52    6.4117   537.3    5.348      59.576
2015    2       21     6  57    6.4067   537.4    5.341      59.541
2015    2       21     7   2    6.4018   537.5    5.334      59.506
2015    2       21     7   7    6.3968   537.6    5.328      59.472
2015    2       21     7  12    6.3918   537.7    5.321      59.437
2015    2       21     7  18    6.3869   537.8    5.314      59.403
2015    2       21     7  23    6.3820   537.9    5.307      59.368
2015    2       21     7  28    6.3770   538.0    5.301      59.334
2015    2       21     7  33    6.3722   538.0    5.294      59.299
2015    2       21     7  38    6.3673   538.1    5.287      59.264
2015    2       21     7  43    6.3624   538.2    5.281      59.230
2015    2       21     7  49    6.3575   538.3    5.274      59.195
2015    2       21     7  54    6.3526   538.4    5.268      59.160
2015    2       21     7  59    6.3477   538.5    5.261      59.125
2015    2       21     8   4    6.3428   538.5    5.255      59.090
2015    2       21     8   9    6.3380   538.6    5.248      59.055
2015    2       21     8  15    6.3331   538.7    5.242      59.020
2015    2       21     8  20    6.3282   538.8    5.235      58.984
2015    2       21     8  25    6.3233   538.9    5.229      58.948
2015    2       21     8  30    6.3184   538.9    5.222      58.912
2015    2       21     8  35    6.3136   539.0    5.216      58.876
2015    2       21     8  40    6.3087   539.1    5.210      58.840
2015    2       21     8  46    6.3038   539.2    5.204      58.803
2015    2       21     8  51    6.2990   539.2    5.197      58.766
2015    2       21     8  56    6.2941   539.3    5.191      58.729
2015    2       21     9   1    6.2893   539.4    5.185      58.692
2015    2       21     9   6    6.2844   539.4    5.179      58.655
2015    2       21     9  12    6.2796   539.5    5.173      58.618
2015    2       21     9  17    6.2747   539.6    5.167      58.581
2015    2       21     9  22    6.2699   539.6    5.161      58.543
2015    2       21     9  27    6.2651   539.7    5.155      58.506
2015    2       21     9  32    6.2602   539.8    5.149      58.468
2015    2       21     9  38    6.2554   539.8    5.143      58.430
2015    2       21     9  43    6.2506   539.9    5.137      58.392
2015    2       21     9  48    6.2458   539.9    5.131      58.354
2015    2       21     9  53    6.2410   540.0    5.125      58.316
2015    2       21     9  58    6.2362   540.0    5.119      58.277
2015    2       21    10   3    6.2314   540.1    5.113      58.239
2015    2       21    10   9    6.2267   540.2    5.108      58.200
2015    2       21    10  14    6.2219   540.2    5.102      58.161
2015    2       21    10  19    6.2172   540.3    5.096      58.123
2015    2       21    10  24    6.2124   540.3    5.090      58.084
2015    2       21    10  29    6.2077   540.4    5.085      58.045
2015    2       21    10  35    6.2030   540.4    5.079      58.006
2015    2       21    10  40    6.1983   540.4    5.073      57.967
2015    2       21    10  45    6.1936   540.5    5.068      57.927
2015    2       21    10  50    6.1890   540.5    5.062      57.888
2015    2       21    10  55    6.1844   540.6    5.057      57.849
2015    2       21    11   0    6.1797   540.6    5.051      57.809
2015    2       21    11   6    6.1751   540.6    5.046      57.770
2015    2       21    11  11    6.1705   540.7    5.040      57.730
2015    2       21    11  16    6.1660   540.7    5.035      57.691
2015    2       21    11  21    6.1615   540.7    5.029      57.652
2015    2       21    11  26    6.1570   540.8    5.024      57.613
2015    2       21    11  32    6.1525   540.8    5.019      57.573
2015    2       21    11  37    6.1479   540.8    5.013      57.534
2015    2       21    11  42    6.1436   540.9    5.008      57.495
2015    2       21    11  47    6.1391   540.9    5.003      57.455
2015    2       21    11  52    6.1347   540.9    4.998      57.416
2015    2       21    11  58    6.1302   541.0    4.993      57.377
2015    2       21    12   3    6.1258   541.0    4.987      57.337
2015    2       21    12   8    6.1215   541.0    4.982      57.297
2015    2       21    12  13    6.1171   541.0    4.977      57.258
2015    2       21    12  18    6.1128   541.1    4.972      57.218
2015    2       21    12  23    6.1084   541.1    4.967      57.179
2015    2       21    12  29    6.1039   541.1    4.962      57.139
2015    2       21    12  34    6.0997   541.1    4.957      57.099
2015    2       21    12  39    6.0952   541.2    4.952      57.060
2015    2       21    12  44    6.0908   541.2    4.947      57.020
2015    2       21    12  49    6.0866   541.2    4.943      56.981
2015    2       21    12  55    6.0823   541.2    4.938      56.941
2015    2       21    13   0    6.0780   541.2    4.933      56.901
2015    2       21    13   5    6.0736   541.3    4.929      56.862
2015    2       21    13  10    6.0691   541.3    4.924      56.823
2015    2       21    13  15    6.0648   541.3    4.919      56.784
2015    2       21    13  20    6.0605   541.3    4.915      56.745
2015    2       21    13  26    6.0564   541.3    4.911      56.707
2015    2       21    13  31    6.0519   541.3    4.906      56.669
2015    2       21    13  36    6.0478   541.3    4.902      56.631
2015    2       21    13  41    6.0434   541.4    4.898      56.593
2015    2       21    13  46    6.0393   541.4    4.894      56.556
2015    2       21    13  52    6.0348   541.4    4.890      56.519
2015    2       21    13  57    6.0308   541.4    4.886      56.483
2015    2       21    14   2    6.0266   541.4    4.882      56.447
2015    2       21    14   7    6.0221   541.4    4.879      56.412
2015    2       21    14  12    6.0181   541.4    4.875      56.377
2015    2       21    14  17    6.0139   541.4    4.872      56.343
2015    2       21    14  23    6.0097   541.4    4.868      56.309
2015    2       21    14  28    6.0056   541.4    4.865      56.276
2015    2       21    14  33    6.0012   541.4    4.861      56.242
2015    2       21    14  38    5.9972   541.4    4.858      56.209
2015    2       21    14  43    5.9931   541.4    4.855      56.176
2015    2       21    14  49    5.9888   541.4    4.851      56.143
2015    2       21    14  54    5.9848   541.5    4.848      56.110
2015    2       21    14  59    5.9807   541.5    4.845      56.077
2015    2       21    15   4    5.9766   541.5    4.841      56.044
2015    2       21    15   9    5.9724   541.5    4.838      56.011
2015    2       21    15  15    5.9683   541.5    4.835      55.977
2015    2       21    15  20    5.9642   541.5    4.831      55.944
2015    2       21    15  25    5.9601   541.5    4.828      55.910
2015    2       21    15  30    5.9560   541.5    4.825      55.877
2015    2       21    15  35    5.9519   541.5    4.821      55.842
2015    2       21    15  40    5.9478   541.5    4.818      55.808
2015    2       21    15  46    5.9437   541.5    4.815      55.773
2015    2       21    15  51    5.9396   541.5    4.811      55.738
2015    2       21    15  56    5.9355   541.5    4.808      55.703
2015    2       21    16   1    5.9314   541.5    4.804      55.668
2015    2       21    16   6    5.9273   541.5    4.801      55.632
2015    2       21    16  12    5.9231   541.5    4.798      55.596
2015    2       21    16  17    5.9192   541.5    4.794      55.560
2015    2       21    16  22    5.9152   541.5    4.791      55.525
2015    2       21    16  27    5.9110   541.5    4.787      55.488
2015    2       21    16  32    5.9071   541.4    4.784      55.452
2015    2       21    16  37    5.9030   541.4    4.780      55.415
2015    2       21    16  43    5.8991   541.4    4.777      55.379
2015    2       21    16  48    5.8952   541.4    4.773      55.342
2015    2       21    16  53    5.8912   541.4    4.770      55.305
2015    2       21    16  58    5.8873   541.4    4.767      55.268
2015    2       21    17   3    5.8834   541.4    4.763      55.231
2015    2       21    17   9    5.8795   541.4    4.760      55.194
2015    2       21    17  14    5.8756   541.3    4.756      55.157
2015    2       21    17  19    5.8717   541.3    4.753      55.120
2015    2       21    17  24    5.8678   541.3    4.749      55.082
2015    2       21    17  29    5.8640   541.3    4.746      55.045
2015    2       21    17  35    5.8600   541.3    4.742      55.008
2015    2       21    17  40    5.8563   541.2    4.739      54.970
2015    2       21    17  45    5.8526   541.2    4.736      54.933
2015    2       21    17  50    5.8487   541.2    4.732      54.895
2015    2       21    17  55    5.8452   541.1    4.729      54.858
2015    2       21    18   0    5.8415   541.1    4.725      54.821
2015    2       21    18   6    5.8378   541.1    4.722      54.784
2015    2       21    18  11    5.8342   541.0    4.719      54.747
2015    2       21    18  16    5.8304   541.0    4.716      54.710
2015    2       21    18  21    5.8269   541.0    4.712      54.674
2015    2       21    18  26    5.8234   540.9    4.709      54.637
2015    2       21    18  32    5.8198   540.9    4.706      54.601
2015    2       21    18  37    5.8163   540.9    4.703      54.565
2015    2       21    18  42    5.8127   540.8    4.700      54.529
2015    2       21    18  47    5.8093   540.8    4.697      54.493
2015    2       21    18  52    5.8060   540.7    4.694      54.458
2015    2       21    18  57    5.8025   540.7    4.691      54.422
2015    2       21    19   3    5.7991   540.7    4.688      54.386
2015    2       21    19   8    5.7957   540.6    4.685      54.351
2015    2       21    19  13    5.7923   540.6    4.682      54.315
2015    2       21    19  18    5.7890   540.5    4.679      54.280
2015    2       21    19  23    5.7855   540.5    4.676      54.244
2015    2       21    19  29    5.7822   540.5    4.674      54.209
2015    2       21    19  34    5.7787   540.4    4.671      54.173
2015    2       21    19  39    5.7754   540.4    4.668      54.138
2015    2       21    19  44    5.7721   540.3    4.665      54.103
2015    2       21    19  49    5.7686   540.3    4.662      54.067
2015    2       21    19  54    5.7653   540.3    4.660      54.032
2015    2       21    20   0    5.7620   540.2    4.657      53.997
2015    2       21    20   5    5.7586   540.2    4.654      53.961
2015    2       21    20  10    5.7552   540.1    4.652      53.926
2015    2       21    20  15    5.7517   540.1    4.649      53.890
2015    2       21    20  20    5.7485   540.1    4.646      53.855
2015    2       21    20  26    5.7451   540.0    4.644      53.819
2015    2       21    20  31    5.7417   540.0    4.641      53.784
2015    2       21    20  36    5.7383   539.9    4.638      53.749
2015    2       21    20  41    5.7348   539.9    4.636      53.713
2015    2       21    20  46    5.7314   539.9    4.633      53.678
2015    2       21    20  52    5.7280   539.8    4.631      53.643
2015    2       21    20  57    5.7247   539.8    4.628      53.608
2015    2       21    21   2    5.7213   539.7    4.626      53.572
2015    2       21    21   7    5.7178   539.7    4.623      53.538
2015    2       21    21  12    5.7144   539.6    4.621      53.503
2015    2       21    21  17    5.7111   539.6    4.619      53.468
2015    2       21    21  23    5.7078   539.6    4.616      53.433
2015    2       21    21  28    5.7044   539.5    4.614      53.399
2015    2       21    21  33    5.7010   539.5    4.612      53.365
2015    2       21    21  38    5.6977   539.4    4.610      53.330
2015    2       21    21  43    5.6943   539.4    4.608      53.296
2015    2       21    21  49    5.6908   539.3    4.606      53.262
2015    2       21    21  54    5.6875   539.3    4.603      53.228
2015    2       21    21  59    5.6843   539.3    4.602      53.195
2015    2       21    22   4    5.6808   539.2    4.600      53.161
2015    2       21    22   9    5.6776   539.2    4.598      53.128
2015    2       21    22  14    5.6743   539.1    4.596      53.094
2015    2       21    22  20    5.6710   539.1    4.594      53.061
2015    2       21    22  25    5.6677   539.0    4.592      53.028
2015    2       21    22  30    5.6644   539.0    4.590      52.995
2015    2       21    22  35    5.6611   538.9    4.589      52.961
2015    2       21    22  40    5.6577   538.9    4.587      52.928
2015    2       21    22  46    5.6546   538.8    4.585      52.895
2015    2       21    22  51    5.6513   538.8    4.584      52.862
2015    2       21    22  56    5.6480   538.7    4.582      52.829
2015    2       21    23   1    5.6447   538.7    4.581      52.796
2015    2       21    23   6    5.6415   538.6    4.579      52.763
2015    2       21    23  12    5.6384   538.6    4.577      52.730
2015    2       21    23  17    5.6352   538.5    4.576      52.697
2015    2       21    23  22    5.6320   538.5    4.574      52.664
2015    2       21    23  27    5.6289   538.4    4.573      52.631
2015    2       21    23  32    5.6256   538.4    4.572      52.598
2015    2       21    23  37    5.6225   538.3    4.570      52.565
2015    2       21    23  43    5.6195   538.3    4.569      52.532
2015    2       21    23  48    5.6164   538.2    4.567      52.499
2015    2       21    23  53    5.6133   538.2    4.566      52.466
2015    2       21    23  58    5.6102   538.1    4.564      52.432
2015    2       22     0   3    5.6070   538.1    4.563      52.399
2015    2       22     0   9    5.6040   538.0    4.561      52.365
2015    2       22     0  14    5.6011   537.9    4.560      52.332
2015    2       22     0  19    5.5981   537.9    4.558      52.298
2015    2       22     0  24    5.5952   537.8    4.557      52.264
2015    2       22     0  29    5.5922   537.8    4.555      52.230
2015    2       22     0  34    5.5892   537.7    4.554      52.196
2015    2       22     0  40    5.5863   537.6    4.552      52.162
2015    2       22     0  45    5.5834   537.6    4.551      52.127
2015    2       22     0  50    5.5805   537.5    4.549      52.093
2015    2       22     0  55    5.5775   537.4    4.548      52.058
2015    2       22     1   0    5.5747   537.4    4.546      52.024
2015    2       22     1   6    5.5720   537.3    4.544      51.989
2015    2       22     1  11    5.5691   537.2    4.543      51.954
2015    2       22     1  16    5.5664   537.2    4.541      51.919
2015    2       22     1  21    5.5637   537.1    4.539      51.884
2015    2       22     1  26    5.5609   537.0    4.538      51.849
2015    2       22     1  32    5.5582   536.9    4.536      51.814
2015    2       22     1  37    5.5555   536.9    4.534      51.778
2015    2       22     1  42    5.5528   536.8    4.533      51.743
2015    2       22     1  47    5.5501   536.7    4.531      51.708
2015    2       22     1  52    5.5474   536.6    4.529      51.672
2015    2       22     1  57    5.5448   536.6    4.527      51.637
2015    2       22     2   3    5.5422   536.5    4.526      51.601
2015    2       22     2   8    5.5394   536.4    4.524      51.566
2015    2       22     2  13    5.5370   536.3    4.522      51.530
2015    2       22     2  18    5.5343   536.3    4.520      51.494
2015    2       22     2  23    5.5318   536.2    4.519      51.459
2015    2       22     2  29    5.5292   536.1    4.517      51.423
2015    2       22     2  34    5.5265   536.0    4.515      51.387
2015    2       22     2  39    5.5239   535.9    4.514      51.352
2015    2       22     2  44    5.5215   535.9    4.512      51.316
2015    2       22     2  49    5.5189   535.8    4.510      51.280
2015    2       22     2  54    5.5164   535.7    4.509      51.245
2015    2       22     3   0    5.5137   535.6    4.507      51.209
2015    2       22     3   5    5.5113   535.5    4.505      51.173
2015    2       22     3  10    5.5087   535.5    4.504      51.138
2015    2       22     3  15    5.5061   535.4    4.502      51.102
2015    2       22     3  20    5.5037   535.3    4.500      51.066
2015    2       22     3  26    5.5011   535.2    4.499      51.031
2015    2       22     3  31    5.4986   535.1    4.497      50.995
2015    2       22     3  36    5.4961   535.0    4.495      50.960
2015    2       22     3  41    5.4935   535.0    4.494      50.924
2015    2       22     3  46    5.4912   534.9    4.492      50.889
2015    2       22     3  51    5.4887   534.8    4.491      50.853
2015    2       22     3  57    5.4862   534.7    4.489      50.818
2015    2       22     4   2    5.4836   534.6    4.488      50.782
2015    2       22     4   7    5.4812   534.5    4.486      50.747
2015    2       22     4  12    5.4786   534.4    4.485      50.712
2015    2       22     4  17    5.4761   534.3    4.483      50.676
2015    2       22     4  23    5.4738   534.3    4.482      50.641
2015    2       22     4  28    5.4713   534.2    4.480      50.606
2015    2       22     4  33    5.4689   534.1    4.479      50.571
2015    2       22     4  38    5.4663   534.0    4.478      50.536
2015    2       22     4  43    5.4640   533.9    4.476      50.501
2015    2       22     4  49    5.4616   533.8    4.475      50.466
2015    2       22     4  54    5.4591   533.7    4.474      50.431
2015    2       22     4  59    5.4566   533.6    4.473      50.397
2015    2       22     5   4    5.4543   533.5    4.471      50.362
2015    2       22     5   9    5.4518   533.5    4.470      50.328
2015    2       22     5  14    5.4494   533.4    4.469      50.293
2015    2       22     5  20    5.4471   533.3    4.468      50.259
2015    2       22     5  25    5.4447   533.2    4.467      50.224
2015    2       22     5  30    5.4424   533.1    4.466      50.190
2015    2       22     5  35    5.4400   533.0    4.465      50.156
2015    2       22     5  40    5.4376   532.9    4.464      50.122
2015    2       22     5  46    5.4353   532.8    4.463      50.088
2015    2       22     5  51    5.4330   532.7    4.462      50.054
2015    2       22     5  56    5.4307   532.6    4.461      50.021
2015    2       22     6   1    5.4284   532.5    4.460      49.987
2015    2       22     6   6    5.4260   532.4    4.459      49.953
2015    2       22     6  11    5.4238   532.3    4.459      49.920
2015    2       22     6  17    5.4215   532.3    4.458      49.886
2015    2       22     6  22    5.4193   532.2    4.457      49.853
2015    2       22     6  27    5.4170   532.1    4.456      49.820
2015    2       22     6  32    5.4148   532.0    4.456      49.786
2015    2       22     6  37    5.4125   531.9    4.455      49.753
2015    2       22     6  43    5.4103   531.8    4.455      49.720
2015    2       22     6  48    5.4081   531.7    4.454      49.687
2015    2       22     6  53    5.4059   531.6    4.454      49.654
2015    2       22     6  58    5.4037   531.5    4.453      49.621
2015    2       22     7   3    5.4015   531.4    4.453      49.588
2015    2       22     7   9    5.3993   531.3    4.452      49.555
2015    2       22     7  14    5.3971   531.2    4.452      49.522
2015    2       22     7  19    5.3951   531.1    4.452      49.489
2015    2       22     7  24    5.3930   531.0    4.451      49.456
2015    2       22     7  29    5.3909   530.9    4.451      49.423
2015    2       22     7  34    5.3887   530.8    4.451      49.391
2015    2       22     7  40    5.3867   530.7    4.451      49.358
2015    2       22     7  45    5.3847   530.6    4.450      49.325
2015    2       22     7  50    5.3826   530.5    4.450      49.293
2015    2       22     7  55    5.3806   530.4    4.450      49.260
2015    2       22     8   0    5.3786   530.3    4.450      49.227
2015    2       22     8   6    5.3766   530.2    4.450      49.195
2015    2       22     8  11    5.3746   530.1    4.450      49.162
2015    2       22     8  16    5.3726   530.0    4.450      49.130
2015    2       22     8  21    5.3707   529.9    4.450      49.097
2015    2       22     8  26    5.3688   529.8    4.450      49.065
2015    2       22     8  31    5.3669   529.7    4.450      49.032
2015    2       22     8  37    5.3650   529.6    4.450      49.000
2015    2       22     8  42    5.3631   529.5    4.450      48.968
2015    2       22     8  47    5.3612   529.4    4.450      48.935
2015    2       22     8  52    5.3594   529.3    4.450      48.903
2015    2       22     8  57    5.3575   529.1    4.450      48.871
2015    2       22     9   3    5.3557   529.0    4.450      48.839
2015    2       22     9   8    5.3539   528.9    4.450      48.807
2015    2       22     9  13    5.3521   528.8    4.450      48.775
2015    2       22     9  18    5.3503   528.7    4.450      48.743
2015    2       22     9  23    5.3485   528.6    4.450      48.712
2015    2       22     9  29    5.3467   528.5    4.450      48.680
2015    2       22     9  34    5.3450   528.4    4.451      48.648
2015    2       22     9  39    5.3432   528.3    4.451      48.617
2015    2       22     9  44    5.3414   528.2    4.451      48.585
2015    2       22     9  49    5.3397   528.1    4.451      48.554
2015    2       22     9  54    5.3380   528.0    4.451      48.523
2015    2       22    10   0    5.3362   527.9    4.451      48.491
2015    2       22    10   5    5.3346   527.8    4.451      48.460
2015    2       22    10  10    5.3330   527.7    4.451      48.429
2015    2       22    10  15    5.3313   527.5    4.451      48.398
2015    2       22    10  20    5.3296   527.4    4.451      48.367
2015    2       22    10  26    5.3278   527.3    4.451      48.337
2015    2       22    10  31    5.3262   527.2    4.451      48.306
2015    2       22    10  36    5.3245   527.1    4.451      48.275
2015    2       22    10  41    5.3228   527.0    4.451      48.245
2015    2       22    10  46    5.3212   526.9    4.451      48.214
2015    2       22    10  51    5.3196   526.8    4.451      48.184
2015    2       22    10  57    5.3181   526.7    4.451      48.153
2015    2       22    11   2    5.3164   526.6    4.451      48.123
2015    2       22    11   7    5.3148   526.5    4.451      48.093
2015    2       22    11  12    5.3132   526.4    4.451      48.062
2015    2       22    11  17    5.3116   526.2    4.451      48.032
2015    2       22    11  23    5.3100   526.1    4.451      48.002
2015    2       22    11  28    5.3085   526.0    4.451      47.972
2015    2       22    11  33    5.3068   525.9    4.451      47.942
2015    2       22    11  38    5.3054   525.8    4.450      47.912
2015    2       22    11  43    5.3038   525.7    4.450      47.881
2015    2       22    11  48    5.3023   525.6    4.450      47.851
2015    2       22    11  54    5.3008   525.5    4.450      47.821
2015    2       22    11  59    5.2992   525.4    4.450      47.791
2015    2       22    12   4    5.2977   525.2    4.449      47.761
2015    2       22    12   9    5.2962   525.1    4.449      47.731
2015    2       22    12  14    5.2946   525.0    4.449      47.700
2015    2       22    12  20    5.2932   524.9    4.449      47.670
2015    2       22    12  25    5.2917   524.8    4.449      47.640
2015    2       22    12  30    5.2901   524.7    4.448      47.610
2015    2       22    12  35    5.2887   524.6    4.448      47.579
2015    2       22    12  40    5.2873   524.5    4.448      47.549
2015    2       22    12  46    5.2859   524.4    4.447      47.518
2015    2       22    12  51    5.2843   524.2    4.447      47.488
2015    2       22    12  56    5.2829   524.1    4.447      47.457
2015    2       22    13   1    5.2815   524.0    4.446      47.426
2015    2       22    13   6    5.2801   523.9    4.446      47.395
2015    2       22    13  11    5.2786   523.8    4.446      47.364
2015    2       22    13  17    5.2772   523.7    4.445      47.333
2015    2       22    13  22    5.2758   523.6    4.445      47.302
2015    2       22    13  27    5.2743   523.4    4.445      47.270
2015    2       22    13  32    5.2729   523.3    4.444      47.239
2015    2       22    13  37    5.2715   523.2    4.444      47.207
2015    2       22    13  43    5.2701   523.1    4.443      47.175
2015    2       22    13  48    5.2688   523.0    4.443      47.143
2015    2       22    13  53    5.2673   522.9    4.443      47.111
2015    2       22    13  58    5.2661   522.7    4.442      47.078
2015    2       22    14   3    5.2646   522.6    4.442      47.046
2015    2       22    14   8    5.2633   522.5    4.441      47.013
2015    2       22    14  14    5.2620   522.4    4.441      46.980
2015    2       22    14  19    5.2606   522.3    4.440      46.947
2015    2       22    14  24    5.2592   522.1    4.440      46.914
2015    2       22    14  29    5.2579   522.0    4.439      46.881
2015    2       22    14  34    5.2565   521.9    4.439      46.848
2015    2       22    14  40    5.2553   521.8    4.439      46.814
2015    2       22    14  45    5.2539   521.6    4.438      46.781
2015    2       22    14  50    5.2527   521.5    4.438      46.747
2015    2       22    14  55    5.2513   521.4    4.437      46.714
2015    2       22    15   0    5.2500   521.3    4.437      46.680
2015    2       22    15   6    5.2488   521.1    4.437      46.646
2015    2       22    15  11    5.2475   521.0    4.436      46.613
2015    2       22    15  16    5.2463   520.9    4.436      46.579
2015    2       22    15  21    5.2450   520.8    4.436      46.545
2015    2       22    15  26    5.2437   520.6    4.435      46.512
2015    2       22    15  31    5.2426   520.5    4.435      46.478
2015    2       22    15  37    5.2413   520.4    4.435      46.445
2015    2       22    15  42    5.2401   520.2    4.435      46.412
2015    2       22    15  47    5.2389   520.1    4.434      46.379
2015    2       22    15  52    5.2377   520.0    4.434      46.346
2015    2       22    15  57    5.2365   519.8    4.434      46.313
2015    2       22    16   3    5.2354   519.7    4.434      46.280
2015    2       22    16   8    5.2341   519.6    4.434      46.248
2015    2       22    16  13    5.2330   519.5    4.434      46.215
2015    2       22    16  18    5.2318   519.3    4.434      46.183
2015    2       22    16  23    5.2308   519.2    4.435      46.151
2015    2       22    16  28    5.2296   519.0    4.435      46.120
2015    2       22    16  34    5.2285   518.9    4.435      46.089
2015    2       22    16  39    5.2274   518.8    4.436      46.058
2015    2       22    16  44    5.2264   518.6    4.436      46.027
2015    2       22    16  49    5.2253   518.5    4.436      45.997
2015    2       22    16  54    5.2242   518.4    4.437      45.967
2015    2       22    17   0    5.2232   518.2    4.438      45.937
2015    2       22    17   5    5.2221   518.1    4.438      45.907
2015    2       22    17  10    5.2211   518.0    4.439      45.878
2015    2       22    17  15    5.2201   517.8    4.440      45.849
2015    2       22    17  20    5.2191   517.7    4.440      45.821
2015    2       22    17  25    5.2181   517.6    4.441      45.793
2015    2       22    17  31    5.2171   517.4    4.442      45.765
2015    2       22    17  36    5.2162   517.3    4.443      45.737
2015    2       22    17  41    5.2152   517.2    4.444      45.710
2015    2       22    17  46    5.2143   517.0    4.445      45.683
2015    2       22    17  51    5.2134   516.9    4.446      45.656
2015    2       22    17  57    5.2125   516.7    4.448      45.629
2015    2       22    18   2    5.2116   516.6    4.449      45.603
2015    2       22    18   7    5.2107   516.5    4.450      45.576
2015    2       22    18  12    5.2098   516.3    4.451      45.550
2015    2       22    18  17    5.2089   516.2    4.452      45.524
2015    2       22    18  23    5.2081   516.1    4.454      45.498
2015    2       22    18  28    5.2072   515.9    4.455      45.472
2015    2       22    18  33    5.2064   515.8    4.456      45.446
2015    2       22    18  38    5.2055   515.7    4.458      45.421
2015    2       22    18  43    5.2047   515.5    4.459      45.395
2015    2       22    18  48    5.2039   515.4    4.460      45.369
2015    2       22    18  54    5.2031   515.2    4.462      45.344
2015    2       22    18  59    5.2023   515.1    4.463      45.318
2015    2       22    19   4    5.2015   515.0    4.464      45.293
2015    2       22    19   9    5.2007   514.8    4.466      45.267
2015    2       22    19  14    5.1999   514.7    4.467      45.242
2015    2       22    19  20    5.1991   514.5    4.468      45.216
2015    2       22    19  25    5.1983   514.4    4.470      45.191
2015    2       22    19  30    5.1976   514.3    4.471      45.165
2015    2       22    19  35    5.1969   514.1    4.472      45.139
2015    2       22    19  40    5.1961   514.0    4.474      45.114
2015    2       22    19  45    5.1953   513.8    4.475      45.088
2015    2       22    19  51    5.1946   513.7    4.476      45.062
2015    2       22    19  56    5.1939   513.6    4.477      45.037
2015    2       22    20   1    5.1932   513.4    4.479      45.011
2015    2       22    20   6    5.1925   513.3    4.480      44.985
2015    2       22    20  11    5.1918   513.1    4.481      44.959
2015    2       22    20  17    5.1910   513.0    4.482      44.933
2015    2       22    20  22    5.1904   512.9    4.484      44.907
2015    2       22    20  27    5.1897   512.7    4.485      44.881
2015    2       22    20  32    5.1890   512.6    4.486      44.855
2015    2       22    20  37    5.1884   512.4    4.487      44.829
2015    2       22    20  43    5.1877   512.3    4.488      44.803
2015    2       22    20  48    5.1871   512.2    4.489      44.776
2015    2       22    20  53    5.1864   512.0    4.490      44.750
2015    2       22    20  58    5.1858   511.9    4.492      44.724
2015    2       22    21   3    5.1852   511.7    4.493      44.697
2015    2       22    21   8    5.1846   511.6    4.494      44.671
2015    2       22    21  14    5.1841   511.4    4.495      44.645
2015    2       22    21  19    5.1835   511.3    4.496      44.618
2015    2       22    21  24    5.1829   511.2    4.497      44.592
2015    2       22    21  29    5.1824   511.0    4.498      44.566
2015    2       22    21  34    5.1818   510.9    4.499      44.539
2015    2       22    21  40    5.1813   510.7    4.500      44.513
2015    2       22    21  45    5.1807   510.6    4.501      44.487
2015    2       22    21  50    5.1803   510.4    4.502      44.460
2015    2       22    21  55    5.1798   510.3    4.503      44.434
2015    2       22    22   0    5.1793   510.1    4.504      44.408
2015    2       22    22   5    5.1788   510.0    4.505      44.381
2015    2       22    22  11    5.1784   509.8    4.506      44.355
2015    2       22    22  16    5.1779   509.7    4.507      44.329
2015    2       22    22  21    5.1775   509.5    4.508      44.303
2015    2       22    22  26    5.1771   509.4    4.509      44.276
2015    2       22    22  31    5.1766   509.2    4.510      44.250
2015    2       22    22  37    5.1761   509.1    4.511      44.224
2015    2       22    22  42    5.1757   508.9    4.512      44.198
2015    2       22    22  47    5.1754   508.8    4.513      44.171
2015    2       22    22  52    5.1750   508.6    4.514      44.145
2015    2       22    22  57    5.1746   508.5    4.515      44.119
2015    2       22    23   2    5.1742   508.3    4.516      44.092
2015    2       22    23   8    5.1738   508.2    4.517      44.066
2015    2       22    23  13    5.1734   508.0    4.518      44.040
2015    2       22    23  18    5.1731   507.9    4.519      44.014
2015    2       22    23  23    5.1726   507.7    4.520      43.987
2015    2       22    23  28    5.1724   507.6    4.521      43.961
2015    2       22    23  34    5.1720   507.4    4.522      43.935
2015    2       22    23  39    5.1717   507.2    4.523      43.908
2015    2       22    23  44    5.1714   507.1    4.524      43.882
2015    2       22    23  49    5.1710   506.9    4.525      43.856
2015    2       22    23  54    5.1708   506.8    4.526      43.830
2015    2       23     0   0    5.1705   506.6    4.528      43.804
2015    2       23     0   5    5.1703   506.4    4.529      43.779
2015    2       23     0  10    5.1700   506.3    4.530      43.753
2015    2       23     0  15    5.1698   506.1    4.531      43.728
2015    2       23     0  20    5.1695   505.9    4.533      43.703
2015    2       23     0  25    5.1694   505.8    4.534      43.678
2015    2       23     0  31    5.1692   505.6    4.536      43.653
2015    2       23     0  36    5.1691   505.4    4.538      43.628
2015    2       23     0  41    5.1689   505.3    4.539      43.604
2015    2       23     0  46    5.1689   505.1    4.541      43.580
2015    2       23     0  51    5.1688   504.9    4.543      43.557
2015    2       23     0  57    5.1688   504.7    4.545      43.533
2015    2       23     1   2    5.1688   504.6    4.547      43.510
2015    2       23     1   7    5.1687   504.4    4.549      43.487
2015    2       23     1  12    5.1689   504.2    4.551      43.465
2015    2       23     1  17    5.1688   504.1    4.554      43.443
2015    2       23     1  22    5.1690   503.9    4.556      43.421
2015    2       23     1  28    5.1692   503.7    4.559      43.400
2015    2       23     1  33    5.1693   503.6    4.562      43.379
2015    2       23     1  38    5.1694   503.4    4.564      43.358
2015    2       23     1  43    5.1697   503.2    4.567      43.338
2015    2       23     1  48    5.1700   503.0    4.570      43.317
2015    2       23     1  54    5.1702   502.9    4.573      43.297
2015    2       23     1  59    5.1705   502.7    4.576      43.278
2015    2       23     2   4    5.1709   502.5    4.580      43.258
2015    2       23     2   9    5.1712   502.3    4.583      43.239
2015    2       23     2  14    5.1715   502.2    4.586      43.220
2015    2       23     2  20    5.1720   502.0    4.590      43.201
2015    2       23     2  25    5.1725   501.8    4.593      43.182
2015    2       23     2  30    5.1728   501.7    4.597      43.164
2015    2       23     2  35    5.1734   501.5    4.601      43.145
2015    2       23     2  40    5.1739   501.3    4.605      43.127
2015    2       23     2  45    5.1743   501.1    4.608      43.109
2015    2       23     2  51    5.1750   501.0    4.612      43.091
2015    2       23     2  56    5.1756   500.8    4.616      43.074
2015    2       23     3   1    5.1762   500.6    4.620      43.056
2015    2       23     3   6    5.1769   500.4    4.624      43.038
2015    2       23     3  11    5.1776   500.3    4.628      43.021
2015    2       23     3  17    5.1781   500.1    4.633      43.003
2015    2       23     3  22    5.1790   499.9    4.637      42.986
2015    2       23     3  27    5.1796   499.7    4.641      42.969
2015    2       23     3  32    5.1804   499.6    4.645      42.952
2015    2       23     3  37    5.1814   499.4    4.650      42.936
2015    2       23     3  42    5.1822   499.2    4.654      42.919
2015    2       23     3  48    5.1831   499.0    4.658      42.903
2015    2       23     3  53    5.1840   498.9    4.663      42.887
2015    2       23     3  58    5.1848   498.7    4.667      42.871
2015    2       23     4   3    5.1859   498.5    4.672      42.855
2015    2       23     4   8    5.1868   498.3    4.676      42.840
2015    2       23     4  14    5.1880   498.2    4.681      42.825
2015    2       23     4  19    5.1890   498.0    4.685      42.810
2015    2       23     4  24    5.1902   497.8    4.690      42.795
2015    2       23     4  29    5.1913   497.7    4.694      42.781
2015    2       23     4  34    5.1925   497.5    4.699      42.767
2015    2       23     4  39    5.1937   497.3    4.704      42.753
2015    2       23     4  45    5.1947   497.1    4.708      42.739
2015    2       23     4  50    5.1960   497.0    4.713      42.726
2015    2       23     4  55    5.1974   496.8    4.718      42.713
2015    2       23     5   0    5.1988   496.6    4.723      42.700
2015    2       23     5   5    5.2001   496.5    4.727      42.688
2015    2       23     5  11    5.2015   496.3    4.732      42.676
2015    2       23     5  16    5.2029   496.2    4.737      42.664
2015    2       23     5  21    5.2043   496.0    4.742      42.653
2015    2       23     5  26    5.2058   495.8    4.746      42.641
2015    2       23     5  31    5.2073   495.7    4.751      42.630
2015    2       23     5  37    5.2088   495.5    4.756      42.620
2015    2       23     5  42    5.2103   495.4    4.760      42.609
2015    2       23     5  47    5.2117   495.2    4.765      42.599
2015    2       23     5  52    5.2135   495.0    4.770      42.588
2015    2       23     5  57    5.2151   494.9    4.775      42.578
2015    2       23     6   2    5.2165   494.7    4.779      42.568
2015    2       23     6   8    5.2181   494.6    4.784      42.559
2015    2       23     6  13    5.2200   494.4    4.789      42.549
2015    2       23     6  18    5.2217   494.3    4.793      42.540
2015    2       23     6  23    5.2234   494.1    4.798      42.530
2015    2       23     6  28    5.2251   494.0    4.803      42.521
2015    2       23     6  34    5.2269   493.8    4.807      42.512
2015    2       23     6  39    5.2287   493.7    4.812      42.503
2015    2       23     6  44    5.2305   493.5    4.817      42.494
2015    2       23     6  49    5.2323   493.4    4.821      42.486
2015    2       23     6  54    5.2341   493.2    4.826      42.477
2015    2       23     6  59    5.2360   493.1    4.831      42.468
2015    2       23     7   5    5.2379   492.9    4.835      42.460
2015    2       23     7  10    5.2398   492.8    4.840      42.451
2015    2       23     7  15    5.2417   492.6    4.845      42.443
2015    2       23     7  20    5.2437   492.5    4.850      42.434
2015    2       23     7  25    5.2457   492.3    4.854      42.426
2015    2       23     7  31    5.2477   492.2    4.859      42.418
2015    2       23     7  36    5.2497   492.0    4.864      42.410
2015    2       23     7  41    5.2517   491.9    4.869      42.402
2015    2       23     7  46    5.2538   491.8    4.874      42.394
2015    2       23     7  51    5.2558   491.6    4.878      42.387
2015    2       23     7  56    5.2579   491.5    4.883      42.379
2015    2       23     8   2    5.2600   491.3    4.888      42.372
2015    2       23     8   7    5.2622   491.2    4.893      42.365
2015    2       23     8  12    5.2643   491.0    4.899      42.358
2015    2       23     8  17    5.2665   490.9    4.904      42.351
2015    2       23     8  22    5.2684   490.8    4.909      42.344
2015    2       23     8  28    5.2709   490.6    4.914      42.338
2015    2       23     8  33    5.2732   490.5    4.919      42.332
2015    2       23     8  38    5.2754   490.3    4.925      42.326
2015    2       23     8  43    5.2777   490.2    4.930      42.320
2015    2       23     8  48    5.2797   490.1    4.936      42.315
2015    2       23     8  54    5.2824   489.9    4.941      42.309
2015    2       23     8  59    5.2847   489.8    4.947      42.305
2015    2       23     9   4    5.2871   489.7    4.952      42.300
2015    2       23     9   9    5.2895   489.5    4.958      42.296
2015    2       23     9  14    5.2920   489.4    4.964      42.291
2015    2       23     9  19    5.2945   489.3    4.969      42.288
2015    2       23     9  25    5.2967   489.1    4.975      42.284
2015    2       23     9  30    5.2995   489.0    4.981      42.281
2015    2       23     9  35    5.3020   488.9    4.987      42.278
2015    2       23     9  40    5.3046   488.7    4.993      42.275
2015    2       23     9  45    5.3069   488.6    4.999      42.272
2015    2       23     9  51    5.3098   488.5    5.005      42.269
2015    2       23     9  56    5.3124   488.3    5.011      42.267
2015    2       23    10   1    5.3151   488.2    5.017      42.265
2015    2       23    10   6    5.3178   488.1    5.023      42.263
2015    2       23    10  11    5.3203   488.0    5.030      42.262
2015    2       23    10  16    5.3233   487.8    5.036      42.260
2015    2       23    10  22    5.3261   487.7    5.042      42.259
2015    2       23    10  27    5.3289   487.6    5.048      42.258
2015    2       23    10  32    5.3317   487.5    5.054      42.258
2015    2       23    10  37    5.3346   487.3    5.061      42.257
2015    2       23    10  42    5.3375   487.2    5.067      42.257
2015    2       23    10  48    5.3404   487.1    5.073      42.257
2015    2       23    10  53    5.3434   487.0    5.080      42.257
2015    2       23    10  58    5.3464   486.8    5.086      42.257
2015    2       23    11   3    5.3494   486.7    5.093      42.258
2015    2       23    11   8    5.3524   486.6    5.099      42.258
2015    2       23    11  14    5.3555   486.5    5.106      42.259
2015    2       23    11  19    5.3584   486.4    5.112      42.261
2015    2       23    11  24    5.3618   486.2    5.119      42.262
2015    2       23    11  29    5.3647   486.1    5.125      42.264
2015    2       23    11  34    5.3679   486.0    5.132      42.267
2015    2       23    11  39    5.3712   485.9    5.138      42.269
2015    2       23    11  45    5.3747   485.8    5.145      42.272
2015    2       23    11  50    5.3781   485.7    5.152      42.275
2015    2       23    11  55    5.3814   485.5    5.158      42.279
2015    2       23    12   0    5.3846   485.4    5.165      42.282
2015    2       23    12   5    5.3882   485.3    5.172      42.286
2015    2       23    12  11    5.3917   485.2    5.178      42.291
2015    2       23    12  16    5.3952   485.1    5.185      42.296
2015    2       23    12  21    5.3985   485.0    5.192      42.301
2015    2       23    12  26    5.4023   484.9    5.199      42.307
2015    2       23    12  31    5.4057   484.8    5.205      42.313
2015    2       23    12  36    5.4096   484.7    5.212      42.319
2015    2       23    12  42    5.4131   484.6    5.219      42.326
2015    2       23    12  47    5.4170   484.5    5.226      42.333
2015    2       23    12  52    5.4208   484.4    5.233      42.341
2015    2       23    12  57    5.4244   484.3    5.240      42.349
2015    2       23    13   2    5.4283   484.2    5.247      42.358
2015    2       23    13   8    5.4324   484.1    5.254      42.368
2015    2       23    13  13    5.4364   484.0    5.261      42.377
2015    2       23    13  18    5.4403   483.9    5.268      42.388
2015    2       23    13  23    5.4441   483.8    5.275      42.398
2015    2       23    13  28    5.4484   483.7    5.282      42.409
2015    2       23    13  33    5.4525   483.6    5.288      42.421
2015    2       23    13  39    5.4566   483.5    5.295      42.432
2015    2       23    13  44    5.4607   483.5    5.302      42.444
2015    2       23    13  49    5.4646   483.4    5.309      42.457
2015    2       23    13  54    5.4690   483.3    5.316      42.469
2015    2       23    13  59    5.4732   483.2    5.323      42.482
2015    2       23    14   5    5.4771   483.1    5.330      42.495
2015    2       23    14  10    5.4814   483.1    5.337      42.508
2015    2       23    14  15    5.4858   483.0    5.344      42.521
2015    2       23    14  20    5.4898   482.9    5.350      42.534
2015    2       23    14  25    5.4943   482.8    5.357      42.547
2015    2       23    14  31    5.4983   482.8    5.364      42.560
2015    2       23    14  36    5.5028   482.7    5.371      42.574
2015    2       23    14  41    5.5071   482.6    5.377      42.587
2015    2       23    14  46    5.5114   482.6    5.384      42.601
2015    2       23    14  51    5.5154   482.5    5.391      42.614
2015    2       23    14  56    5.5197   482.4    5.398      42.628
2015    2       23    15   2    5.5240   482.4    5.405      42.642
2015    2       23    15   7    5.5285   482.3    5.411      42.656
2015    2       23    15  12    5.5327   482.3    5.418      42.671
2015    2       23    15  17    5.5370   482.2    5.425      42.685
2015    2       23    15  22    5.5412   482.1    5.431      42.700
2015    2       23    15  28    5.5455   482.1    5.438      42.716
2015    2       23    15  33    5.5497   482.0    5.445      42.731
2015    2       23    15  38    5.5539   482.0    5.451      42.746
2015    2       23    15  43    5.5581   481.9    5.458      42.762
2015    2       23    15  48    5.5623   481.9    5.464      42.777
2015    2       23    15  53    5.5665   481.8    5.471      42.793
2015    2       23    15  59    5.5707   481.8    5.477      42.808
2015    2       23    16   4    5.5748   481.8    5.483      42.823
2015    2       23    16   9    5.5790   481.7    5.490      42.838
2015    2       23    16  14    5.5831   481.7    5.496      42.852
2015    2       23    16  19    5.5873   481.6    5.502      42.866
2015    2       23    16  25    5.5914   481.6    5.508      42.880
2015    2       23    16  30    5.5955   481.6    5.514      42.894
2015    2       23    16  35    5.5996   481.5    5.520      42.907
2015    2       23    16  40    5.6037   481.5    5.526      42.920
2015    2       23    16  45    5.6078   481.4    5.532      42.932
2015    2       23    16  51    5.6119   481.4    5.538      42.945
2015    2       23    16  56    5.6160   481.4    5.543      42.957
2015    2       23    17   1    5.6201   481.3    5.549      42.969
2015    2       23    17   6    5.6242   481.3    5.555      42.981
2015    2       23    17  11    5.6282   481.3    5.560      42.992
2015    2       23    17  16    5.6324   481.2    5.566      43.003
2015    2       23    17  22    5.6365   481.2    5.571      43.015
2015    2       23    17  27    5.6406   481.2    5.577      43.026
2015    2       23    17  32    5.6447   481.1    5.582      43.037
2015    2       23    17  37    5.6489   481.1    5.588      43.047
2015    2       23    17  42    5.6530   481.1    5.593      43.058
2015    2       23    17  48    5.6572   481.0    5.598      43.069
2015    2       23    17  53    5.6612   481.0    5.604      43.080
2015    2       23    17  58    5.6654   481.0    5.609      43.091
2015    2       23    18   3    5.6697   480.9    5.614      43.102
2015    2       23    18   8    5.6737   480.9    5.619      43.112
2015    2       23    18  13    5.6780   480.9    5.625      43.123
2015    2       23    18  19    5.6822   480.8    5.630      43.135
2015    2       23    18  24    5.6865   480.8    5.635      43.146
2015    2       23    18  29    5.6906   480.8    5.641      43.157
2015    2       23    18  34    5.6950   480.7    5.646      43.169
2015    2       23    18  39    5.6993   480.7    5.651      43.180
2015    2       23    18  45    5.7035   480.7    5.657      43.193
2015    2       23    18  50    5.7080   480.7    5.662      43.205
2015    2       23    18  55    5.7123   480.6    5.668      43.218
2015    2       23    19   0    5.7167   480.6    5.673      43.232
2015    2       23    19   5    5.7211   480.6    5.679      43.246
2015    2       23    19  10    5.7255   480.6    5.684      43.260
2015    2       23    19  16    5.7300   480.5    5.690      43.275
2015    2       23    19  21    5.7345   480.5    5.695      43.290
2015    2       23    19  26    5.7392   480.5    5.701      43.305
2015    2       23    19  31    5.7437   480.4    5.707      43.322
2015    2       23    19  36    5.7484   480.4    5.713      43.338
2015    2       23    19  42    5.7531   480.4    5.719      43.356
2015    2       23    19  47    5.7577   480.4    5.725      43.373
2015    2       23    19  52    5.7625   480.4    5.731      43.392
2015    2       23    19  57    5.7673   480.3    5.737      43.411
2015    2       23    20   2    5.7721   480.3    5.743      43.431
2015    2       23    20   8    5.7770   480.3    5.750      43.452
2015    2       23    20  13    5.7820   480.3    5.756      43.475
2015    2       23    20  18    5.7870   480.3    5.762      43.499
2015    2       23    20  23    5.7920   480.3    5.769      43.524
2015    2       23    20  28    5.7970   480.3    5.775      43.550
2015    2       23    20  33    5.8022   480.3    5.782      43.577
2015    2       23    20  39    5.8073   480.3    5.788      43.604
2015    2       23    20  44    5.8124   480.3    5.795      43.632
2015    2       23    20  49    5.8174   480.3    5.801      43.660
2015    2       23    20  54    5.8226   480.3    5.807      43.689
2015    2       23    20  59    5.8277   480.3    5.813      43.719
2015    2       23    21   5    5.8328   480.3    5.819      43.748
2015    2       23    21  10    5.8379   480.3    5.825      43.778
2015    2       23    21  15    5.8429   480.4    5.831      43.807
2015    2       23    21  20    5.8480   480.4    5.837      43.836
2015    2       23    21  25    5.8530   480.4    5.842      43.865
2015    2       23    21  30    5.8580   480.4    5.848      43.893
2015    2       23    21  36    5.8630   480.4    5.853      43.921
2015    2       23    21  41    5.8681   480.5    5.858      43.948
2015    2       23    21  46    5.8730   480.5    5.863      43.975
2015    2       23    21  51    5.8780   480.5    5.868      44.001
2015    2       23    21  56    5.8829   480.5    5.873      44.028
2015    2       23    22   2    5.8878   480.6    5.878      44.054
2015    2       23    22   7    5.8928   480.6    5.883      44.080
2015    2       23    22  12    5.8976   480.6    5.888      44.105
2015    2       23    22  17    5.9025   480.6    5.893      44.131
2015    2       23    22  22    5.9074   480.7    5.897      44.157
2015    2       23    22  28    5.9122   480.7    5.902      44.183
2015    2       23    22  33    5.9171   480.7    5.906      44.208
2015    2       23    22  38    5.9219   480.8    5.911      44.234
2015    2       23    22  43    5.9267   480.8    5.915      44.259
2015    2       23    22  48    5.9314   480.8    5.920      44.284
2015    2       23    22  53    5.9362   480.9    5.924      44.309
2015    2       23    22  59    5.9409   480.9    5.928      44.333
2015    2       23    23   4    5.9456   480.9    5.932      44.357
2015    2       23    23   9    5.9503   481.0    5.936      44.381
2015    2       23    23  14    5.9550   481.0    5.940      44.405
2015    2       23    23  19    5.9596   481.0    5.943      44.428
2015    2       23    23  25    5.9643   481.1    5.947      44.450
2015    2       23    23  30    5.9689   481.1    5.951      44.472
2015    2       23    23  35    5.9735   481.1    5.954      44.494
2015    2       23    23  40    5.9781   481.2    5.958      44.516
2015    2       23    23  45    5.9827   481.2    5.962      44.537
2015    2       23    23  50    5.9873   481.2    5.965      44.558
2015    2       23    23  56    5.9919   481.3    5.968      44.578
2015    2       24     0   1    5.9965   481.3    5.972      44.599
2015    2       24     0   6    6.0011   481.4    5.975      44.619
2015    2       24     0  11    6.0056   481.4    5.979      44.639
2015    2       24     0  16    6.0102   481.4    5.982      44.659
2015    2       24     0  22    6.0148   481.5    5.985      44.679
2015    2       24     0  27    6.0193   481.5    5.989      44.700
2015    2       24     0  32    6.0239   481.5    5.992      44.720
2015    2       24     0  37    6.0284   481.6    5.996      44.740
2015    2       24     0  42    6.0329   481.6    5.999      44.760
2015    2       24     0  47    6.0374   481.6    6.003      44.780
2015    2       24     0  53    6.0420   481.7    6.006      44.801
2015    2       24     0  58    6.0465   481.7    6.010      44.822
2015    2       24     1   3    6.0510   481.7    6.013      44.844
2015    2       24     1   8    6.0555   481.8    6.017      44.865
2015    2       24     1  13    6.0600   481.8    6.021      44.887
2015    2       24     1  19    6.0644   481.9    6.025      44.910
2015    2       24     1  24    6.0689   481.9    6.029      44.932
2015    2       24     1  29    6.0735   481.9    6.032      44.955
2015    2       24     1  34    6.0779   482.0    6.036      44.978
2015    2       24     1  39    6.0823   482.0    6.040      45.002
2015    2       24     1  45    6.0868   482.1    6.044      45.025
2015    2       24     1  50    6.0913   482.1    6.049      45.049
2015    2       24     1  55    6.0957   482.2    6.053      45.073
2015    2       24     2   0    6.1003   482.2    6.057      45.098
2015    2       24     2   5    6.1048   482.2    6.061      45.123
2015    2       24     2  10    6.1091   482.3    6.065      45.149
2015    2       24     2  16    6.1136   482.3    6.070      45.175
2015    2       24     2  21    6.1182   482.4    6.074      45.201
2015    2       24     2  26    6.1227   482.4    6.079      45.227
2015    2       24     2  31    6.1273   482.5    6.083      45.254
2015    2       24     2  36    6.1317   482.5    6.088      45.282
2015    2       24     2  42    6.1362   482.6    6.093      45.312
2015    2       24     2  47    6.1408   482.6    6.098      45.342
2015    2       24     2  52    6.1454   482.7    6.103      45.373
2015    2       24     2  57    6.1500   482.7    6.108      45.406
2015    2       24     3   2    6.1546   482.8    6.113      45.438
2015    2       24     3   7    6.1592   482.8    6.118      45.472
2015    2       24     3  13    6.1640   482.9    6.123      45.507
2015    2       24     3  18    6.1685   483.0    6.128      45.543
2015    2       24     3  23    6.1731   483.0    6.133      45.579
2015    2       24     3  28    6.1779   483.1    6.138      45.617
2015    2       24     3  33    6.1824   483.2    6.143      45.655
2015    2       24     3  39    6.1869   483.3    6.148      45.695
2015    2       24     3  44    6.1914   483.4    6.153      45.734
2015    2       24     3  49    6.1960   483.4    6.157      45.774
2015    2       24     3  54    6.2005   483.5    6.161      45.814
2015    2       24     3  59    6.2050   483.6    6.166      45.853
2015    2       24     4   5    6.2094   483.7    6.170      45.892
2015    2       24     4  10    6.2138   483.8    6.173      45.931
2015    2       24     4  15    6.2184   483.9    6.177      45.969
2015    2       24     4  20    6.2226   484.0    6.180      46.008
2015    2       24     4  25    6.2269   484.1    6.183      46.045
2015    2       24     4  30    6.2312   484.2    6.186      46.083
2015    2       24     4  36    6.2354   484.3    6.189      46.119
2015    2       24     4  41    6.2396   484.4    6.192      46.154
2015    2       24     4  46    6.2440   484.5    6.194      46.189
2015    2       24     4  51    6.2480   484.6    6.197      46.223
2015    2       24     4  56    6.2523   484.7    6.199      46.256
2015    2       24     5   2    6.2563   484.8    6.201      46.289
2015    2       24     5   7    6.2605   484.9    6.203      46.321
2015    2       24     5  12    6.2648   485.0    6.205      46.353
2015    2       24     5  17    6.2689   485.1    6.207      46.384
2015    2       24     5  22    6.2730   485.2    6.209      46.415
2015    2       24     5  27    6.2771   485.3    6.211      46.445
2015    2       24     5  33    6.2813   485.4    6.213      46.475
2015    2       24     5  38    6.2854   485.5    6.214      46.505
2015    2       24     5  43    6.2897   485.6    6.216      46.535
2015    2       24     5  48    6.2939   485.7    6.218      46.565
2015    2       24     5  53    6.2982   485.8    6.220      46.594
2015    2       24     5  59    6.3026   485.9    6.222      46.624
2015    2       24     6   4    6.3069   486.0    6.224      46.654
2015    2       24     6   9    6.3113   486.1    6.226      46.685
2015    2       24     6  14    6.3158   486.2    6.228      46.715
2015    2       24     6  19    6.3205   486.3    6.231      46.747
2015    2       24     6  24    6.3250   486.4    6.233      46.780
2015    2       24     6  30    6.3298   486.5    6.236      46.815
2015    2       24     6  35    6.3345   486.7    6.238      46.851
2015    2       24     6  40    6.3392   486.8    6.241      46.888
2015    2       24     6  45    6.3440   486.9    6.243      46.927
2015    2       24     6  50    6.3489   487.0    6.246      46.967
2015    2       24     6  56    6.3537   487.2    6.249      47.008
2015    2       24     7   1    6.3586   487.3    6.251      47.049
2015    2       24     7   6    6.3634   487.4    6.254      47.091
2015    2       24     7  11    6.3683   487.6    6.256      47.133
2015    2       24     7  16    6.3731   487.7    6.258      47.176
2015    2       24     7  22    6.3779   487.9    6.260      47.220
2015    2       24     7  27    6.3827   488.0    6.262      47.264
2015    2       24     7  32    6.3874   488.1    6.264      47.307
2015    2       24     7  37    6.3922   488.3    6.265      47.350
2015    2       24     7  42    6.3968   488.4    6.267      47.392
2015    2       24     7  47    6.4016   488.6    6.268      47.434
2015    2       24     7  53    6.4063   488.7    6.269      47.475
2015    2       24     7  58    6.4108   488.9    6.271      47.516
2015    2       24     8   3    6.4155   489.0    6.272      47.556
2015    2       24     8   8    6.4200   489.2    6.273      47.596
2015    2       24     8  13    6.4245   489.3    6.273      47.635
2015    2       24     8  19    6.4290   489.4    6.274      47.674
2015    2       24     8  24    6.4335   489.6    6.275      47.713
2015    2       24     8  29    6.4381   489.7    6.276      47.751
2015    2       24     8  34    6.4425   489.9    6.277      47.789
2015    2       24     8  39    6.4471   490.0    6.278      47.827
2015    2       24     8  44    6.4515   490.1    6.278      47.865
2015    2       24     8  50    6.4560   490.3    6.279      47.902
2015    2       24     8  55    6.4604   490.4    6.280      47.939
2015    2       24     9   0    6.4649   490.6    6.281      47.977
2015    2       24     9   5    6.4692   490.7    6.282      48.014
2015    2       24     9  10    6.4737   490.8    6.283      48.051
2015    2       24     9  16    6.4781   491.0    6.284      48.087
2015    2       24     9  21    6.4826   491.1    6.285      48.124
2015    2       24     9  26    6.4870   491.3    6.286      48.162
2015    2       24     9  31    6.4914   491.4    6.287      48.199
2015    2       24     9  36    6.4958   491.5    6.288      48.236
2015    2       24     9  42    6.5002   491.7    6.289      48.273
2015    2       24     9  47    6.5046   491.8    6.291      48.311
2015    2       24     9  52    6.5091   492.0    6.292      48.349
2015    2       24     9  57    6.5135   492.1    6.293      48.388
2015    2       24    10   2    6.5179   492.2    6.294      48.426
2015    2       24    10   7    6.5223   492.4    6.296      48.466
2015    2       24    10  13    6.5267   492.5    6.297      48.505
2015    2       24    10  18    6.5311   492.7    6.298      48.545
2015    2       24    10  23    6.5355   492.8    6.299      48.584
2015    2       24    10  28    6.5398   493.0    6.300      48.624
2015    2       24    10  33    6.5441   493.1    6.301      48.663
2015    2       24    10  39    6.5484   493.3    6.301      48.702
2015    2       24    10  44    6.5526   493.4    6.302      48.740
2015    2       24    10  49    6.5568   493.6    6.302      48.778
2015    2       24    10  54    6.5611   493.7    6.303      48.816
2015    2       24    10  59    6.5653   493.9    6.303      48.854
2015    2       24    11   4    6.5693   494.0    6.303      48.891
2015    2       24    11  10    6.5734   494.2    6.303      48.927
2015    2       24    11  15    6.5776   494.3    6.303      48.962
2015    2       24    11  20    6.5815   494.5    6.302      48.997
2015    2       24    11  25    6.5856   494.6    6.302      49.031
2015    2       24    11  30    6.5894   494.8    6.301      49.065
2015    2       24    11  36    6.5934   494.9    6.301      49.099
2015    2       24    11  41    6.5973   495.1    6.300      49.132
2015    2       24    11  46    6.6013   495.2    6.300      49.165
2015    2       24    11  51    6.6051   495.4    6.299      49.198
2015    2       24    11  56    6.6088   495.5    6.298      49.230
2015    2       24    12   2    6.6127   495.7    6.297      49.262
2015    2       24    12   7    6.6163   495.8    6.296      49.294
2015    2       24    12  12    6.6201   496.0    6.295      49.327
2015    2       24    12  17    6.6238   496.1    6.294      49.359
2015    2       24    12  22    6.6277   496.3    6.293      49.391
2015    2       24    12  27    6.6312   496.5    6.292      49.423
2015    2       24    12  33    6.6348   496.6    6.292      49.455
2015    2       24    12  38    6.6385   496.8    6.291      49.488
2015    2       24    12  43    6.6423   496.9    6.290      49.520
2015    2       24    12  48    6.6457   497.1    6.289      49.553
2015    2       24    12  53    6.6495   497.3    6.288      49.586
2015    2       24    12  59    6.6529   497.4    6.287      49.620
2015    2       24    13   4    6.6567   497.6    6.286      49.654
2015    2       24    13   9    6.6601   497.7    6.285      49.688
2015    2       24    13  14    6.6639   497.9    6.284      49.723
2015    2       24    13  19    6.6673   498.1    6.284      49.759
2015    2       24    13  24    6.6710   498.2    6.283      49.795
2015    2       24    13  30    6.6749   498.4    6.283      49.832
2015    2       24    13  35    6.6783   498.6    6.282      49.870
2015    2       24    13  40    6.6820   498.8    6.282      49.908
2015    2       24    13  45    6.6857   498.9    6.282      49.948
2015    2       24    13  50    6.6894   499.1    6.282      49.989
2015    2       24    13  56    6.6934   499.3    6.283      50.030
2015    2       24    14   1    6.6970   499.5    6.283      50.073
2015    2       24    14   6    6.7008   499.6    6.284      50.118
2015    2       24    14  11    6.7046   499.8    6.285      50.164
2015    2       24    14  16    6.7085   500.0    6.286      50.212
2015    2       24    14  21    6.7126   500.2    6.287      50.263
2015    2       24    14  27    6.7165   500.4    6.288      50.316
2015    2       24    14  32    6.7202   500.6    6.290      50.371
2015    2       24    14  37    6.7241   500.8    6.292      50.428
2015    2       24    14  42    6.7282   501.0    6.294      50.487
2015    2       24    14  47    6.7322   501.3    6.296      50.548
2015    2       24    14  53    6.7361   501.5    6.298      50.611
2015    2       24    14  58    6.7398   501.7    6.300      50.675
2015    2       24    15   3    6.7439   501.9    6.302      50.742
2015    2       24    15   8    6.7477   502.1    6.305      50.811
2015    2       24    15  13    6.7516   502.4    6.307      50.881
2015    2       24    15  19    6.7552   502.6    6.310      50.953
2015    2       24    15  24    6.7590   502.8    6.312      51.026
2015    2       24    15  29    6.7627   503.1    6.314      51.100
2015    2       24    15  34    6.7664   503.3    6.317      51.175
2015    2       24    15  39    6.7700   503.6    6.319      51.250
2015    2       24    15  44    6.7735   503.8    6.321      51.325
2015    2       24    15  50    6.7771   504.1    6.324      51.400
2015    2       24    15  55    6.7806   504.3    6.326      51.475
2015    2       24    16   0    6.7841   504.6    6.328      51.551
2015    2       24    16   5    6.7875   504.9    6.330      51.626
2015    2       24    16  10    6.7908   505.1    6.332      51.700
2015    2       24    16  16    6.7942   505.4    6.334      51.775
2015    2       24    16  21    6.7976   505.6    6.336      51.849
2015    2       24    16  26    6.8008   505.9    6.337      51.922
2015    2       24    16  31    6.8041   506.2    6.339      51.994
2015    2       24    16  36    6.8074   506.4    6.341      52.066
2015    2       24    16  41    6.8108   506.7    6.342      52.138
2015    2       24    16  47    6.8140   507.0    6.344      52.210
2015    2       24    16  52    6.8173   507.2    6.345      52.284
2015    2       24    16  57    6.8206   507.5    6.346      52.358
2015    2       24    17   2    6.8239   507.8    6.347      52.432
2015    2       24    17   7    6.8271   508.1    6.348      52.506
2015    2       24    17  13    6.8302   508.4    6.349      52.581
2015    2       24    17  18    6.8334   508.6    6.349      52.655
2015    2       24    17  23    6.8364   508.9    6.349      52.729
2015    2       24    17  28    6.8394   509.2    6.349      52.802
2015    2       24    17  33    6.8424   509.5    6.348      52.874
2015    2       24    17  39    6.8453   509.8    6.347      52.945
2015    2       24    17  44    6.8481   510.1    6.346      53.015
2015    2       24    17  49    6.8508   510.4    6.345      53.084
2015    2       24    17  54    6.8535   510.7    6.343      53.151
2015    2       24    17  59    6.8562   511.0    6.341      53.217
2015    2       24    18   4    6.8587   511.3    6.339      53.282
2015    2       24    18  10    6.8613   511.5    6.337      53.346
2015    2       24    18  15    6.8637   511.8    6.334      53.408
2015    2       24    18  20    6.8661   512.1    6.332      53.468
2015    2       24    18  25    6.8685   512.4    6.329      53.528
2015    2       24    18  30    6.8708   512.7    6.326      53.586
2015    2       24    18  36    6.8731   513.0    6.322      53.643
2015    2       24    18  41    6.8754   513.3    6.319      53.699
2015    2       24    18  46    6.8776   513.6    6.315      53.754
2015    2       24    18  51    6.8798   513.9    6.311      53.807
2015    2       24    18  56    6.8820   514.2    6.307      53.859
2015    2       24    19   1    6.8841   514.4    6.303      53.911
2015    2       24    19   7    6.8862   514.7    6.298      53.962
2015    2       24    19  12    6.8883   515.0    6.294      54.011
2015    2       24    19  17    6.8903   515.3    6.289      54.060
2015    2       24    19  22    6.8924   515.6    6.284      54.108
2015    2       24    19  27    6.8944   515.9    6.279      54.155
2015    2       24    19  33    6.8965   516.2    6.275      54.201
2015    2       24    19  38    6.8985   516.5    6.270      54.247
2015    2       24    19  43    6.9005   516.8    6.265      54.292
2015    2       24    19  48    6.9026   517.0    6.260      54.337
2015    2       24    19  53    6.9046   517.3    6.255      54.381
2015    2       24    19  58    6.9067   517.6    6.250      54.426
2015    2       24    20   4    6.9088   517.9    6.245      54.471
2015    2       24    20   9    6.9109   518.2    6.241      54.517
2015    2       24    20  14    6.9131   518.5    6.236      54.563
2015    2       24    20  19    6.9154   518.8    6.232      54.610
2015    2       24    20  24    6.9177   519.0    6.228      54.658
2015    2       24    20  30    6.9201   519.3    6.224      54.707
2015    2       24    20  35    6.9225   519.6    6.220      54.757
2015    2       24    20  40    6.9249   520.0    6.217      54.809
2015    2       24    20  45    6.9274   520.3    6.214      54.864
2015    2       24    20  50    6.9299   520.6    6.211      54.920
2015    2       24    20  56    6.9324   520.9    6.208      54.979
2015    2       24    21   1    6.9350   521.2    6.205      55.040
2015    2       24    21   6    6.9375   521.5    6.203      55.103
2015    2       24    21  11    6.9400   521.9    6.201      55.168
2015    2       24    21  16    6.9425   522.2    6.198      55.235
2015    2       24    21  21    6.9448   522.5    6.196      55.302
2015    2       24    21  27    6.9473   522.9    6.194      55.371
2015    2       24    21  32    6.9495   523.2    6.192      55.441
2015    2       24    21  37    6.9517   523.6    6.190      55.512
2015    2       24    21  42    6.9537   523.9    6.187      55.583
2015    2       24    21  47    6.9557   524.2    6.185      55.654
2015    2       24    21  53    6.9576   524.6    6.183      55.725
2015    2       24    21  58    6.9595   524.9    6.181      55.796
2015    2       24    22   3    6.9613   525.2    6.179      55.868
2015    2       24    22   8    6.9634   525.5    6.177      55.938
2015    2       24    22  13    6.9651   525.8    6.176      56.008
2015    2       24    22  18    6.9665   526.1    6.175      56.079
2015    2       24    22  24    6.9685   526.4    6.173      56.151
2015    2       24    22  29    6.9698   526.7    6.172      56.226
2015    2       24    22  34    6.9714   527.0    6.172      56.303
2015    2       24    22  39    6.9729   527.4    6.171      56.382
2015    2       24    22  44    6.9743   527.7    6.170      56.463
2015    2       24    22  50    6.9757   528.0    6.169      56.546
2015    2       24    22  55    6.9770   528.3    6.168      56.631
2015    2       24    23   0    6.9787   528.6    6.167      56.718
2015    2       24    23   5    6.9799   529.0    6.166      56.805
2015    2       24    23  10    6.9805   529.3    6.164      56.892
2015    2       24    23  16    6.9815   529.6    6.163      56.980
2015    2       24    23  21    6.9824   530.0    6.161      57.069
2015    2       24    23  26    6.9836   530.3    6.158      57.158
2015    2       24    23  31    6.9842   530.7    6.156      57.247
2015    2       24    23  36    6.9847   531.1    6.152      57.337
2015    2       24    23  41    6.9851   531.4    6.149      57.424
2015    2       24    23  47    6.9848   531.8    6.145      57.510
2015    2       24    23  52    6.9850   532.1    6.141      57.594
2015    2       24    23  57    6.9850   532.5    6.136      57.677
2015    2       25     0   2    6.9850   532.9    6.131      57.758
2015    2       25     0   7    6.9848   533.2    6.126      57.838
2015    2       25     0  13    6.9846   533.6    6.120      57.916
2015    2       25     0  18    6.9843   534.0    6.114      57.992
2015    2       25     0  23    6.9839   534.3    6.107      58.066
2015    2       25     0  28    6.9834   534.7    6.100      58.139
2015    2       25     0  33    6.9828   535.1    6.093      58.209
2015    2       25     0  38    6.9827   535.5    6.086      58.278
2015    2       25     0  44    6.9814   535.8    6.078      58.344
2015    2       25     0  49    6.9806   536.2    6.070      58.409
2015    2       25     0  54    6.9803   536.6    6.062      58.471
2015    2       25     0  59    6.9788   537.0    6.053      58.531
2015    2       25     1   4    6.9779   537.3    6.044      58.589
2015    2       25     1  10    6.9768   537.7    6.035      58.645
2015    2       25     1  15    6.9756   538.1    6.025      58.698
2015    2       25     1  20    6.9749   538.5    6.015      58.749
2015    2       25     1  25    6.9736   538.9    6.005      58.797
2015    2       25     1  30    6.9717   539.2    5.994      58.843
2015    2       25     1  36    6.9708   539.6    5.983      58.887
2015    2       25     1  41    6.9693   540.0    5.972      58.928
2015    2       25     1  46    6.9673   540.4    5.960      58.967
2015    2       25     1  51    6.9657   540.8    5.948      59.004
2015    2       25     1  56    6.9640   541.2    5.936      59.039
2015    2       25     2   1    6.9628   541.6    5.923      59.071
2015    2       25     2   7    6.9606   542.0    5.911      59.101
2015    2       25     2  12    6.9592   542.4    5.897      59.129
2015    2       25     2  17    6.9573   542.8    5.884      59.153
2015    2       25     2  22    6.9549   543.1    5.871      59.173
2015    2       25     2  27    6.9533   543.5    5.857      59.192
2015    2       25     2  33    6.9508   543.9    5.843      59.207
2015    2       25     2  38    6.9492   544.3    5.829      59.220
2015    2       25     2  43    6.9466   544.6    5.815      59.231
2015    2       25     2  48    6.9449   545.0    5.802      59.242
2015    2       25     2  53    6.9423   545.3    5.788      59.252
2015    2       25     2  58    6.9406   545.7    5.774      59.262
2015    2       25     3   4    6.9380   546.0    5.761      59.272
2015    2       25     3   9    6.9364   546.4    5.747      59.284
2015    2       25     3  14    6.9344   546.8    5.734      59.298
2015    2       25     3  19    6.9324   547.2    5.721      59.314
2015    2       25     3  24    6.9299   547.6    5.708      59.333
2015    2       25     3  30    6.9279   548.0    5.695      59.353
2015    2       25     3  35    6.9264   548.4    5.682      59.375
2015    2       25     3  40    6.9238   548.8    5.669      59.398
2015    2       25     3  45    6.9217   549.2    5.656      59.423
2015    2       25     3  50    6.9195   549.6    5.643      59.449
2015    2       25     3  55    6.9178   550.1    5.630      59.473
2015    2       25     4   1    6.9150   550.5    5.616      59.496
2015    2       25     4   6    6.9125   550.9    5.603      59.519
2015    2       25     4  11    6.9099   551.3    5.589      59.542
2015    2       25     4  16    6.9072   551.8    5.576      59.564
2015    2       25     4  21    6.9044   552.2    5.562      59.585
2015    2       25     4  27    6.9015   552.6    5.549      59.608
2015    2       25     4  32    6.8985   553.1    5.535      59.631
2015    2       25     4  37    6.8953   553.5    5.522      59.656
2015    2       25     4  42    6.8921   553.9    5.508      59.682
2015    2       25     4  47    6.8887   554.4    5.495      59.709
2015    2       25     4  53    6.8851   554.8    5.482      59.735
2015    2       25     4  58    6.8820   555.3    5.468      59.761
2015    2       25     5   3    6.8776   555.7    5.455      59.786
2015    2       25     5   8    6.8741   556.1    5.441      59.811
2015    2       25     5  13    6.8694   556.5    5.428      59.836
2015    2       25     5  18    6.8651   557.0    5.414      59.860
2015    2       25     5  24    6.8607   557.4    5.401      59.883
2015    2       25     5  29    6.8562   557.8    5.387      59.904
2015    2       25     5  34    6.8516   558.2    5.374      59.924
2015    2       25     5  39    6.8474   558.6    5.360      59.943
2015    2       25     5  44    6.8419   559.0    5.347      59.960
2015    2       25     5  50    6.8368   559.3    5.333      59.976
2015    2       25     5  55    6.8317   559.7    5.320      59.992
2015    2       25     6   0    6.8264   560.1    5.306      60.006
2015    2       25     6   5    6.8211   560.5    5.292      60.020
2015    2       25     6  10    6.8156   560.9    5.279      60.032
2015    2       25     6  15    6.8101   561.2    5.265      60.042
2015    2       25     6  21    6.8044   561.6    5.251      60.052
2015    2       25     6  26    6.7993   561.9    5.238      60.061
2015    2       25     6  31    6.7928   562.3    5.224      60.068
2015    2       25     6  36    6.7877   562.6    5.211      60.075
2015    2       25     6  41    6.7810   563.0    5.197      60.081
2015    2       25     6  47    6.7758   563.3    5.184      60.085
2015    2       25     6  52    6.7691   563.6    5.171      60.090
2015    2       25     6  57    6.7631   564.0    5.158      60.093
2015    2       25     7   2    6.7570   564.3    5.145      60.096
2015    2       25     7   7    6.7510   564.6    5.132      60.099
2015    2       25     7  13    6.7450   564.9    5.120      60.101
2015    2       25     7  18    6.7389   565.2    5.107      60.104
2015    2       25     7  23    6.7329   565.5    5.095      60.106
2015    2       25     7  28    6.7268   565.9    5.082      60.109
2015    2       25     7  33    6.7207   566.2    5.070      60.111
2015    2       25     7  38    6.7147   566.5    5.058      60.112
2015    2       25     7  44    6.7092   566.8    5.045      60.113
2015    2       25     7  49    6.7024   567.1    5.033      60.113
2015    2       25     7  54    6.6962   567.4    5.021      60.112
2015    2       25     7  59    6.6901   567.7    5.008      60.109
2015    2       25     8   4    6.6838   568.0    4.996      60.105
2015    2       25     8  10    6.6782   568.3    4.984      60.100
2015    2       25     8  15    6.6712   568.6    4.972      60.093
2015    2       25     8  20    6.6656   568.9    4.959      60.085
2015    2       25     8  25    6.6586   569.2    4.947      60.075
2015    2       25     8  30    6.6522   569.5    4.935      60.064
2015    2       25     8  35    6.6458   569.8    4.922      60.051
2015    2       25     8  41    6.6401   570.0    4.910      60.037
2015    2       25     8  46    6.6336   570.3    4.898      60.021
2015    2       25     8  51    6.6266   570.6    4.886      60.004
2015    2       25     8  56    6.6208   570.9    4.874      59.986
2015    2       25     9   1    6.6138   571.1    4.862      59.967
2015    2       25     9   7    6.6074   571.4    4.850      59.947
2015    2       25     9  12    6.6010   571.7    4.838      59.926
2015    2       25     9  17    6.5945   571.9    4.826      59.904
2015    2       25     9  22    6.5881   572.2    4.814      59.882
2015    2       25     9  27    6.5817   572.4    4.802      59.859
2015    2       25     9  33    6.5753   572.7    4.790      59.834
2015    2       25     9  38    6.5693   573.0    4.778      59.808
2015    2       25     9  43    6.5623   573.2    4.766      59.779
2015    2       25     9  48    6.5558   573.4    4.754      59.750
2015    2       25     9  53    6.5492   573.7    4.742      59.719
2015    2       25     9  58    6.5427   573.9    4.731      59.688
2015    2       25    10   4    6.5362   574.2    4.719      59.656
2015    2       25    10   9    6.5297   574.4    4.707      59.623
2015    2       25    10  14    6.5232   574.6    4.696      59.591
2015    2       25    10  19    6.5166   574.9    4.685      59.558
2015    2       25    10  24    6.5101   575.1    4.673      59.526
2015    2       25    10  30    6.5041   575.4    4.662      59.494
2015    2       25    10  35    6.4971   575.6    4.651      59.461
2015    2       25    10  40    6.4911   575.8    4.639      59.429
2015    2       25    10  45    6.4840   576.1    4.628      59.397
2015    2       25    10  50    6.4775   576.3    4.617      59.364
2015    2       25    10  55    6.4708   576.6    4.605      59.331
2015    2       25    11   1    6.4646   576.9    4.593      59.297
2015    2       25    11   6    6.4574   577.1    4.581      59.260
2015    2       25    11  11    6.4509   577.4    4.569      59.219
2015    2       25    11  16    6.4436   577.6    4.556      59.175
2015    2       25    11  21    6.4369   577.8    4.544      59.128
2015    2       25    11  27    6.4295   578.1    4.532      59.080
2015    2       25    11  32    6.4227   578.3    4.520      59.029
2015    2       25    11  37    6.4152   578.5    4.507      58.977
2015    2       25    11  42    6.4080   578.7    4.496      58.926
2015    2       25    11  47    6.4009   578.9    4.484      58.874
2015    2       25    11  53    6.3941   579.1    4.472      58.824
2015    2       25    11  58    6.3867   579.3    4.461      58.774
2015    2       25    12   3    6.3796   579.4    4.450      58.725
2015    2       25    12   8    6.3726   579.6    4.440      58.677
2015    2       25    12  13    6.3656   579.8    4.430      58.630
2015    2       25    12  18    6.3586   579.9    4.421      58.587
2015    2       25    12  24    6.3517   580.1    4.411      58.546
2015    2       25    12  29    6.3452   580.2    4.402      58.509
2015    2       25    12  34    6.3381   580.4    4.393      58.474
2015    2       25    12  39    6.3315   580.6    4.385      58.440
2015    2       25    12  44    6.3245   580.8    4.376      58.408
2015    2       25    12  50    6.3177   580.9    4.368      58.377
2015    2       25    12  55    6.3109   581.1    4.360      58.347
2015    2       25    13   0    6.3041   581.3    4.351      58.318
2015    2       25    13   5    6.2973   581.4    4.343      58.290
2015    2       25    13  10    6.2905   581.6    4.335      58.261
2015    2       25    13  15    6.2836   581.8    4.326      58.232
2015    2       25    13  21    6.2768   582.0    4.318      58.202
2015    2       25    13  26    6.2698   582.1    4.310      58.171
2015    2       25    13  31    6.2629   582.3    4.301      58.139
2015    2       25    13  36    6.2559   582.5    4.293      58.107
2015    2       25    13  41    6.2489   582.6    4.284      58.073
2015    2       25    13  47    6.2420   582.8    4.276      58.038
2015    2       25    13  52    6.2350   582.9    4.268      58.001
2015    2       25    13  57    6.2281   583.1    4.259      57.963
2015    2       25    14   2    6.2211   583.2    4.251      57.923
2015    2       25    14   7    6.2143   583.3    4.243      57.883
2015    2       25    14  12    6.2074   583.4    4.235      57.841
2015    2       25    14  18    6.2006   583.5    4.227      57.799
2015    2       25    14  23    6.1940   583.6    4.219      57.757
2015    2       25    14  28    6.1874   583.7    4.211      57.714
2015    2       25    14  33    6.1807   583.8    4.203      57.672
2015    2       25    14  38    6.1743   583.9    4.196      57.630
2015    2       25    14  44    6.1679   584.0    4.189      57.589
2015    2       25    14  49    6.1616   584.1    4.181      57.548
2015    2       25    14  54    6.1553   584.2    4.174      57.508
2015    2       25    14  59    6.1491   584.2    4.167      57.468
2015    2       25    15   4    6.1429   584.3    4.160      57.429
2015    2       25    15  10    6.1367   584.4    4.154      57.389
2015    2       25    15  15    6.1307   584.5    4.147      57.349
2015    2       25    15  20    6.1247   584.6    4.140      57.309
2015    2       25    15  25    6.1184   584.7    4.133      57.269
2015    2       25    15  30    6.1124   584.7    4.127      57.229
2015    2       25    15  35    6.1064   584.8    4.120      57.187
2015    2       25    15  41    6.1006   584.9    4.113      57.145
2015    2       25    15  46    6.0947   585.0    4.107      57.101
2015    2       25    15  51    6.0888   585.0    4.100      57.057
2015    2       25    15  56    6.0827   585.1    4.093      57.011
2015    2       25    16   1    6.0768   585.2    4.087      56.965
2015    2       25    16   7    6.0713   585.2    4.080      56.917
2015    2       25    16  12    6.0655   585.2    4.074      56.869
2015    2       25    16  17    6.0595   585.3    4.067      56.819
2015    2       25    16  22    6.0542   585.3    4.061      56.770
2015    2       25    16  27    6.0486   585.4    4.055      56.720
2015    2       25    16  32    6.0431   585.4    4.048      56.670
2015    2       25    16  38    6.0376   585.4    4.042      56.619
2015    2       25    16  43    6.0322   585.4    4.036      56.569
2015    2       25    16  48    6.0269   585.4    4.030      56.518
2015    2       25    16  53    6.0216   585.4    4.024      56.468
2015    2       25    16  58    6.0164   585.4    4.019      56.417
2015    2       25    17   4    6.0110   585.4    4.013      56.367
2015    2       25    17   9    6.0058   585.4    4.007      56.317
2015    2       25    17  14    6.0008   585.4    4.002      56.268
2015    2       25    17  19    5.9962   585.4    3.997      56.220
2015    2       25    17  24    5.9913   585.3    3.991      56.172
2015    2       25    17  30    5.9861   585.3    3.986      56.124
2015    2       25    17  35    5.9817   585.3    3.981      56.076
2015    2       25    17  40    5.9769   585.3    3.976      56.029
2015    2       25    17  45    5.9719   585.3    3.971      55.982
2015    2       25    17  50    5.9672   585.3    3.967      55.935
2015    2       25    17  55    5.9630   585.2    3.962      55.888
2015    2       25    18   1    5.9585   585.2    3.957      55.842
2015    2       25    18   6    5.9536   585.2    3.953      55.795
2015    2       25    18  11    5.9492   585.2    3.948      55.749
2015    2       25    18  16    5.9451   585.1    3.944      55.703
2015    2       25    18  21    5.9408   585.1    3.940      55.657
2015    2       25    18  27    5.9364   585.1    3.936      55.611
2015    2       25    18  32    5.9321   585.0    3.932      55.564
2015    2       25    18  37    5.9275   585.0    3.928      55.517
2015    2       25    18  42    5.9236   585.0    3.924      55.471
2015    2       25    18  47    5.9190   584.9    3.920      55.424
2015    2       25    18  52    5.9153   584.9    3.917      55.377
2015    2       25    18  58    5.9111   584.9    3.913      55.331
2015    2       25    19   3    5.9066   584.8    3.910      55.285
2015    2       25    19   8    5.9029   584.8    3.906      55.239
2015    2       25    19  13    5.8989   584.7    3.903      55.195
2015    2       25    19  18    5.8949   584.7    3.901      55.151
2015    2       25    19  24    5.8905   584.6    3.898      55.108
2015    2       25    19  29    5.8869   584.6    3.895      55.066
2015    2       25    19  34    5.8830   584.5    3.893      55.026
2015    2       25    19  39    5.8791   584.4    3.891      54.989
2015    2       25    19  44    5.8749   584.4    3.889      54.954
2015    2       25    19  50    5.8711   584.4    3.887      54.921
2015    2       25    19  55    5.8677   584.3    3.885      54.890
2015    2       25    20   0    5.8639   584.3    3.884      54.860
2015    2       25    20   5    5.8598   584.2    3.882      54.831
2015    2       25    20  10    5.8564   584.2    3.880      54.804
2015    2       25    20  15    5.8527   584.2    3.879      54.778
2015    2       25    20  21    5.8490   584.2    3.877      54.753
2015    2       25    20  26    5.8452   584.1    3.876      54.728
2015    2       25    20  31    5.8412   584.1    3.874      54.704
2015    2       25    20  36    5.8378   584.1    3.873      54.680
2015    2       25    20  41    5.8337   584.1    3.871      54.656
2015    2       25    20  47    5.8303   584.1    3.869      54.632
2015    2       25    20  52    5.8262   584.1    3.867      54.608
2015    2       25    20  57    5.8228   584.0    3.865      54.582
2015    2       25    21   2    5.8190   584.0    3.863      54.556
2015    2       25    21   7    5.8149   584.0    3.861      54.529
2015    2       25    21  12    5.8114   584.0    3.859      54.501
2015    2       25    21  18    5.8077   584.0    3.857      54.473
2015    2       25    21  23    5.8039   584.0    3.855      54.444
2015    2       25    21  28    5.8001   583.9    3.853      54.415
2015    2       25    21  33    5.7960   583.9    3.851      54.385
2015    2       25    21  38    5.7923   583.9    3.849      54.355
2015    2       25    21  44    5.7889   583.9    3.847      54.325
2015    2       25    21  49    5.7852   583.9    3.844      54.294
2015    2       25    21  54    5.7815   583.8    3.842      54.263
2015    2       25    21  59    5.7778   583.8    3.840      54.233
2015    2       25    22   4    5.7742   583.8    3.838      54.201
2015    2       25    22  10    5.7706   583.7    3.836      54.170
2015    2       25    22  15    5.7670   583.7    3.834      54.139
2015    2       25    22  20    5.7635   583.7    3.832      54.108
2015    2       25    22  25    5.7600   583.6    3.830      54.077
2015    2       25    22  30    5.7562   583.6    3.829      54.047
2015    2       25    22  35    5.7531   583.6    3.827      54.016
2015    2       25    22  41    5.7494   583.5    3.825      53.986
2015    2       25    22  46    5.7463   583.5    3.823      53.955
2015    2       25    22  51    5.7427   583.4    3.822      53.925
2015    2       25    22  56    5.7397   583.4    3.820      53.895
2015    2       25    23   1    5.7362   583.4    3.819      53.866
2015    2       25    23   7    5.7333   583.3    3.817      53.836
2015    2       25    23  12    5.7298   583.3    3.816      53.807
2015    2       25    23  17    5.7271   583.2    3.815      53.778
2015    2       25    23  22    5.7240   583.2    3.814      53.749
2015    2       25    23  27    5.7207   583.1    3.812      53.721
2015    2       25    23  32    5.7177   583.1    3.811      53.693
2015    2       25    23  38    5.7148   583.0    3.810      53.665
2015    2       25    23  43    5.7122   583.0    3.809      53.638
2015    2       25    23  48    5.7094   582.9    3.808      53.610
2015    2       25    23  53    5.7063   582.9    3.808      53.583
2015    2       25    23  58    5.7038   582.8    3.807      53.556
2015    2       26     0   4    5.7008   582.8    3.806      53.529
2015    2       26     0   9    5.6983   582.7    3.805      53.501
2015    2       26     0  14    5.6957   582.6    3.805      53.474
2015    2       26     0  19    5.6930   582.6    3.804      53.448
2015    2       26     0  24    5.6904   582.5    3.803      53.422
2015    2       26     0  29    5.6878   582.5    3.802      53.396
2015    2       26     0  35    5.6849   582.4    3.802      53.371
2015    2       26     0  40    5.6824   582.3    3.801      53.346
2015    2       26     0  45    5.6801   582.3    3.800      53.320
2015    2       26     0  50    5.6773   582.2    3.799      53.295
2015    2       26     0  55    5.6751   582.1    3.798      53.270
2015    2       26     1   1    5.6723   582.1    3.797      53.244
2015    2       26     1   6    5.6699   582.0    3.796      53.218
2015    2       26     1  11    5.6677   581.9    3.795      53.193
2015    2       26     1  16    5.6651   581.8    3.794      53.167
2015    2       26     1  21    5.6630   581.8    3.793      53.141
2015    2       26     1  27    5.6604   581.7    3.792      53.114
2015    2       26     1  32    5.6583   581.6    3.791      53.087
2015    2       26     1  37    5.6560   581.5    3.790      53.059
2015    2       26     1  42    5.6535   581.4    3.788      53.031
2015    2       26     1  47    5.6515   581.4    3.787      53.003
2015    2       26     1  52    5.6491   581.3    3.786      52.974
2015    2       26     1  58    5.6471   581.2    3.785      52.945
2015    2       26     2   3    5.6450   581.1    3.783      52.916
2015    2       26     2   8    5.6429   581.0    3.782      52.886
2015    2       26     2  13    5.6405   581.0    3.781      52.855
2015    2       26     2  18    5.6386   580.9    3.780      52.825
2015    2       26     2  24    5.6363   580.8    3.778      52.794
2015    2       26     2  29    5.6344   580.7    3.777      52.763
2015    2       26     2  34    5.6324   580.6    3.776      52.731
2015    2       26     2  39    5.6301   580.6    3.774      52.699
2015    2       26     2  44    5.6283   580.5    3.773      52.666
2015    2       26     2  49    5.6260   580.4    3.771      52.634
2015    2       26     2  55    5.6239   580.3    3.770      52.601
2015    2       26     3   0    5.6221   580.3    3.769      52.568
2015    2       26     3   5    5.6199   580.2    3.767      52.534
2015    2       26     3  10    5.6178   580.1    3.766      52.500
2015    2       26     3  15    5.6158   580.0    3.764      52.466
2015    2       26     3  21    5.6138   580.0    3.763      52.431
2015    2       26     3  26    5.6118   579.9    3.761      52.396
2015    2       26     3  31    5.6100   579.8    3.760      52.361
2015    2       26     3  36    5.6080   579.8    3.758      52.326
2015    2       26     3  41    5.6060   579.7    3.757      52.290
2015    2       26     3  47    5.6038   579.6    3.755      52.255
2015    2       26     3  52    5.6020   579.5    3.754      52.219
2015    2       26     3  57    5.6000   579.5    3.752      52.183
2015    2       26     4   2    5.5978   579.4    3.751      52.147
2015    2       26     4   7    5.5961   579.3    3.749      52.110
2015    2       26     4  12    5.5939   579.3    3.748      52.074
2015    2       26     4  18    5.5920   579.2    3.746      52.037
2015    2       26     4  23    5.5901   579.1    3.744      52.000
2015    2       26     4  28    5.5884   579.0    3.743      51.964
2015    2       26     4  33    5.5862   579.0    3.741      51.927
2015    2       26     4  38    5.5846   578.9    3.740      51.890
2015    2       26     4  44    5.5827   578.8    3.738      51.853
2015    2       26     4  49    5.5806   578.8    3.737      51.816
2015    2       26     4  54    5.5789   578.7    3.735      51.779
2015    2       26     4  59    5.5769   578.6    3.734      51.742
2015    2       26     5   4    5.5753   578.5    3.732      51.705
2015    2       26     5  10    5.5735   578.5    3.731      51.668
2015    2       26     5  15    5.5717   578.4    3.729      51.631
2015    2       26     5  20    5.5697   578.3    3.728      51.594
2015    2       26     5  25    5.5680   578.2    3.726      51.558
2015    2       26     5  30    5.5664   578.1    3.725      51.522
2015    2       26     5  35    5.5645   578.1    3.724      51.486
2015    2       26     5  41    5.5628   578.0    3.723      51.451
2015    2       26     5  46    5.5611   577.9    3.721      51.416
2015    2       26     5  51    5.5596   577.8    3.720      51.381
2015    2       26     5  56    5.5579   577.8    3.719      51.347
2015    2       26     6   1    5.5562   577.7    3.718      51.313
2015    2       26     6   7    5.5547   577.6    3.718      51.280
2015    2       26     6  12    5.5530   577.5    3.717      51.248
2015    2       26     6  17    5.5515   577.4    3.716      51.216
2015    2       26     6  22    5.5500   577.4    3.716      51.185
2015    2       26     6  27    5.5484   577.3    3.715      51.155
2015    2       26     6  32    5.5468   577.2    3.715      51.125
2015    2       26     6  38    5.5454   577.1    3.715      51.096
2015    2       26     6  43    5.5439   577.0    3.714      51.068
2015    2       26     6  48    5.5425   577.0    3.714      51.041
2015    2       26     6  53    5.5409   576.9    3.714      51.014
2015    2       26     6  58    5.5396   576.8    3.715      50.989
2015    2       26     7   4    5.5381   576.7    3.715      50.964
2015    2       26     7   9    5.5367   576.7    3.715      50.939
2015    2       26     7  14    5.5353   576.6    3.716      50.916
2015    2       26     7  19    5.5339   576.5    3.716      50.892
2015    2       26     7  24    5.5325   576.4    3.717      50.870
2015    2       26     7  29    5.5311   576.3    3.718      50.849
2015    2       26     7  35    5.5296   576.3    3.719      50.829
2015    2       26     7  40    5.5282   576.2    3.719      50.810
2015    2       26     7  45    5.5269   576.1    3.720      50.792
2015    2       26     7  50    5.5255   576.0    3.721      50.774
2015    2       26     7  55    5.5242   575.9    3.722      50.758
2015    2       26     8   1    5.5228   575.8    3.723      50.742
2015    2       26     8   6    5.5216   575.8    3.724      50.726
2015    2       26     8  11    5.5202   575.7    3.725      50.711
2015    2       26     8  16    5.5190   575.6    3.726      50.697
2015    2       26     8  21    5.5176   575.5    3.727      50.683
2015    2       26     8  27    5.5163   575.4    3.728      50.669
2015    2       26     8  32    5.5150   575.3    3.729      50.656
2015    2       26     8  37    5.5137   575.2    3.730      50.642
2015    2       26     8  42    5.5126   575.1    3.730      50.628
2015    2       26     8  47    5.5114   575.0    3.731      50.614
2015    2       26     8  52    5.5101   574.9    3.732      50.600
2015    2       26     8  58    5.5090   574.8    3.733      50.585
2015    2       26     9   3    5.5079   574.7    3.734      50.570
2015    2       26     9   8    5.5067   574.6    3.734      50.555
2015    2       26     9  13    5.5055   574.6    3.735      50.540
2015    2       26     9  18    5.5045   574.5    3.736      50.523
2015    2       26     9  24    5.5034   574.4    3.737      50.507
2015    2       26     9  29    5.5024   574.3    3.737      50.490
2015    2       26     9  34    5.5013   574.2    3.738      50.472
2015    2       26     9  39    5.5003   574.1    3.739      50.455
2015    2       26     9  44    5.4992   574.0    3.739      50.436
2015    2       26     9  49    5.4982   573.9    3.740      50.418
2015    2       26     9  55    5.4972   573.8    3.740      50.399
2015    2       26    10   0    5.4963   573.7    3.741      50.380
2015    2       26    10   5    5.4955   573.6    3.741      50.361
2015    2       26    10  10    5.4946   573.5    3.742      50.341
2015    2       26    10  15    5.4937   573.4    3.742      50.321
2015    2       26    10  21    5.4928   573.3    3.742      50.301
2015    2       26    10  26    5.4918   573.2    3.742      50.281
2015    2       26    10  31    5.4911   573.1    3.743      50.260
2015    2       26    10  36    5.4902   573.0    3.743      50.239
2015    2       26    10  41    5.4894   572.9    3.743      50.218
2015    2       26    10  47    5.4886   572.8    3.743      50.196
2015    2       26    10  52    5.4879   572.7    3.743      50.174
2015    2       26    10  57    5.4872   572.6    3.743      50.152
2015    2       26    11   2    5.4864   572.5    3.743      50.129
2015    2       26    11   7    5.4857   572.4    3.742      50.106
2015    2       26    11  12    5.4851   572.3    3.742      50.083
2015    2       26    11  18    5.4844   572.2    3.742      50.059
2015    2       26    11  23    5.4836   572.1    3.742      50.035
2015    2       26    11  28    5.4831   572.0    3.741      50.011
2015    2       26    11  33    5.4825   571.9    3.741      49.986
2015    2       26    11  38    5.4817   571.8    3.741      49.961
2015    2       26    11  44    5.4811   571.7    3.740      49.936
2015    2       26    11  49    5.4806   571.6    3.740      49.911
2015    2       26    11  54    5.4799   571.5    3.739      49.885
2015    2       26    11  59    5.4792   571.4    3.739      49.859
2015    2       26    12   4    5.4787   571.3    3.738      49.833
2015    2       26    12   9    5.4780   571.2    3.738      49.807
2015    2       26    12  15    5.4774   571.1    3.737      49.780
2015    2       26    12  20    5.4769   571.0    3.736      49.753
2015    2       26    12  25    5.4762   570.9    3.736      49.726
2015    2       26    12  30    5.4758   570.8    3.735      49.699
2015    2       26    12  35    5.4751   570.7    3.734      49.672
2015    2       26    12  41    5.4746   570.6    3.734      49.644
2015    2       26    12  46    5.4740   570.5    3.733      49.617
2015    2       26    12  51    5.4735   570.4    3.732      49.589
2015    2       26    12  56    5.4729   570.3    3.732      49.561
2015    2       26    13   1    5.4724   570.2    3.731      49.533
2015    2       26    13   7    5.4718   570.1    3.731      49.505
2015    2       26    13  12    5.4713   570.0    3.730      49.477
2015    2       26    13  17    5.4707   569.9    3.729      49.449
2015    2       26    13  22    5.4701   569.8    3.729      49.421
2015    2       26    13  27    5.4696   569.7    3.728      49.392
2015    2       26    13  32    5.4691   569.6    3.728      49.364
2015    2       26    13  38    5.4684   569.5    3.727      49.336
2015    2       26    13  43    5.4679   569.4    3.727      49.307
2015    2       26    13  48    5.4674   569.3    3.726      49.279
2015    2       26    13  53    5.4668   569.2    3.726      49.250
2015    2       26    13  58    5.4662   569.1    3.725      49.222
2015    2       26    14   4    5.4657   569.0    3.725      49.194
2015    2       26    14   9    5.4651   568.9    3.725      49.166
2015    2       26    14  14    5.4646   568.8    3.724      49.138
2015    2       26    14  19    5.4640   568.7    3.724      49.109
2015    2       26    14  24    5.4635   568.6    3.724      49.082
2015    2       26    14  29    5.4630   568.5    3.724      49.054
2015    2       26    14  35    5.4623   568.4    3.723      49.026
2015    2       26    14  40    5.4618   568.3    3.723      48.999
2015    2       26    14  45    5.4613   568.2    3.723      48.972
2015    2       26    14  50    5.4608   568.1    3.723      48.945
2015    2       26    14  55    5.4602   568.0    3.723      48.918
2015    2       26    15   1    5.4597   567.9    3.724      48.891
2015    2       26    15   6    5.4591   567.8    3.724      48.865
2015    2       26    15  11    5.4586   567.7    3.724      48.839
2015    2       26    15  16    5.4581   567.6    3.724      48.813
2015    2       26    15  21    5.4575   567.5    3.725      48.788
2015    2       26    15  27    5.4570   567.4    3.725      48.763
2015    2       26    15  32    5.4565   567.2    3.726      48.738
2015    2       26    15  37    5.4560   567.1    3.726      48.714
2015    2       26    15  42    5.4556   567.0    3.727      48.690
2015    2       26    15  47    5.4551   566.9    3.727      48.666
2015    2       26    15  52    5.4546   566.8    3.728      48.643
2015    2       26    15  58    5.4542   566.7    3.729      48.621
2015    2       26    16   3    5.4538   566.5    3.730      48.599
2015    2       26    16   8    5.4534   566.4    3.730      48.578
2015    2       26    16  13    5.4530   566.3    3.731      48.557
2015    2       26    16  18    5.4527   566.2    3.732      48.536
2015    2       26    16  24    5.4523   566.0    3.733      48.516
2015    2       26    16  29    5.4520   565.9    3.734      48.496
2015    2       26    16  34    5.4517   565.8    3.736      48.477
2015    2       26    16  39    5.4514   565.7    3.737      48.458
2015    2       26    16  44    5.4511   565.5    3.738      48.439
2015    2       26    16  49    5.4508   565.4    3.739      48.420
2015    2       26    16  55    5.4506   565.3    3.741      48.402
2015    2       26    17   0    5.4504   565.1    3.742      48.384
2015    2       26    17   5    5.4502   565.0    3.743      48.367
2015    2       26    17  10    5.4501   564.9    3.745      48.349
2015    2       26    17  15    5.4500   564.7    3.746      48.332
2015    2       26    17  21    5.4498   564.6    3.748      48.316
2015    2       26    17  26    5.4498   564.5    3.749      48.299
2015    2       26    17  31    5.4498   564.3    3.751      48.283
2015    2       26    17  36    5.4497   564.2    3.752      48.267
2015    2       26    17  41    5.4497   564.1    3.754      48.251
2015    2       26    17  47    5.4497   563.9    3.755      48.236
2015    2       26    17  52    5.4497   563.8    3.757      48.221
2015    2       26    17  57    5.4498   563.7    3.759      48.206
2015    2       26    18   2    5.4499   563.5    3.760      48.192
2015    2       26    18   7    5.4500   563.4    3.762      48.178
2015    2       26    18  12    5.4501   563.3    3.763      48.165
2015    2       26    18  18    5.4503   563.1    3.765      48.151
2015    2       26    18  23    5.4505   563.0    3.766      48.138
2015    2       26    18  28    5.4506   562.9    3.768      48.126
2015    2       26    18  33    5.4508   562.7    3.770      48.113
2015    2       26    18  38    5.4511   562.6    3.771      48.100
2015    2       26    18  44    5.4513   562.4    3.773      48.088
2015    2       26    18  49    5.4516   562.3    3.774      48.076
2015    2       26    18  54    5.4518   562.2    3.776      48.064
2015    2       26    18  59    5.4521   562.0    3.777      48.052
2015    2       26    19   4    5.4524   561.9    3.779      48.040
2015    2       26    19   9    5.4527   561.8    3.780      48.028
2015    2       26    19  15    5.4531   561.6    3.782      48.016
2015    2       26    19  20    5.4533   561.5    3.783      48.004
2015    2       26    19  25    5.4537   561.4    3.785      47.992
2015    2       26    19  30    5.4540   561.2    3.786      47.980
2015    2       26    19  35    5.4544   561.1    3.787      47.968
2015    2       26    19  41    5.4547   561.0    3.789      47.956
2015    2       26    19  46    5.4551   560.8    3.790      47.945
2015    2       26    19  51    5.4554   560.7    3.792      47.933
2015    2       26    19  56    5.4558   560.6    3.793      47.921
2015    2       26    20   1    5.4562   560.4    3.795      47.910
2015    2       26    20   7    5.4566   560.3    3.796      47.898
2015    2       26    20  12    5.4570   560.2    3.798      47.886
2015    2       26    20  17    5.4574   560.0    3.799      47.875
2015    2       26    20  22    5.4579   559.9    3.801      47.863
2015    2       26    20  27    5.4584   559.7    3.803      47.852
2015    2       26    20  32    5.4588   559.6    3.804      47.840
2015    2       26    20  38    5.4592   559.5    3.806      47.829
2015    2       26    20  43    5.4598   559.3    3.807      47.817
2015    2       26    20  48    5.4603   559.2    3.809      47.806
2015    2       26    20  53    5.4607   559.1    3.811      47.794
2015    2       26    20  58    5.4612   558.9    3.813      47.783
2015    2       26    21   4    5.4619   558.8    3.814      47.771
2015    2       26    21   9    5.4623   558.7    3.816      47.760
2015    2       26    21  14    5.4630   558.5    3.818      47.748
2015    2       26    21  19    5.4634   558.4    3.820      47.737
2015    2       26    21  24    5.4640   558.3    3.821      47.725
2015    2       26    21  29    5.4647   558.1    3.823      47.713
2015    2       26    21  35    5.4652   558.0    3.825      47.702
2015    2       26    21  40    5.4660   557.8    3.827      47.690
2015    2       26    21  45    5.4665   557.7    3.829      47.678
2015    2       26    21  50    5.4672   557.6    3.831      47.666
2015    2       26    21  55    5.4677   557.4    3.833      47.653
2015    2       26    22   1    5.4684   557.3    3.835      47.641
2015    2       26    22   6    5.4692   557.2    3.837      47.628
2015    2       26    22  11    5.4699   557.0    3.839      47.616
2015    2       26    22  16    5.4706   556.9    3.841      47.603
2015    2       26    22  21    5.4713   556.7    3.843      47.590
2015    2       26    22  27    5.4719   556.6    3.845      47.576
2015    2       26    22  32    5.4727   556.5    3.847      47.563
2015    2       26    22  37    5.4733   556.3    3.849      47.549
2015    2       26    22  42    5.4741   556.2    3.851      47.535
2015    2       26    22  47    5.4750   556.0    3.853      47.520
2015    2       26    22  52    5.4758   555.9    3.855      47.505
2015    2       26    22  58    5.4765   555.8    3.857      47.491
2015    2       26    23   3    5.4773   555.6    3.859      47.476
2015    2       26    23   8    5.4783   555.5    3.861      47.460
2015    2       26    23  13    5.4791   555.3    3.863      47.445
2015    2       26    23  18    5.4799   555.2    3.865      47.429
2015    2       26    23  24    5.4809   555.0    3.867      47.414
2015    2       26    23  29    5.4817   554.9    3.869      47.398
2015    2       26    23  34    5.4826   554.7    3.871      47.382
2015    2       26    23  39    5.4838   554.6    3.873      47.366
2015    2       26    23  44    5.4848   554.5    3.875      47.350
2015    2       26    23  49    5.4858   554.3    3.877      47.334
2015    2       26    23  55    5.4867   554.1    3.880      47.318
2015    2       27     0   0    5.4878   554.0    3.882      47.303
2015    2       27     0   5    5.4888   553.8    3.884      47.287
2015    2       27     0  10    5.4900   553.7    3.886      47.272
2015    2       27     0  15    5.4912   553.5    3.888      47.257
2015    2       27     0  21    5.4923   553.4    3.891      47.242
2015    2       27     0  26    5.4936   553.2    3.893      47.227
2015    2       27     0  31    5.4947   553.1    3.895      47.213
2015    2       27     0  36    5.4960   552.9    3.898      47.199
2015    2       27     0  41    5.4973   552.8    3.900      47.185
2015    2       27     0  47    5.4986   552.6    3.903      47.172
2015    2       27     0  52    5.5001   552.5    3.905      47.158
2015    2       27     0  57    5.5015   552.3    3.908      47.146
2015    2       27     1   2    5.5029   552.2    3.910      47.134
2015    2       27     1   7    5.5042   552.0    3.913      47.122
2015    2       27     1  12    5.5058   551.9    3.916      47.111
2015    2       27     1  18    5.5073   551.7    3.919      47.100
2015    2       27     1  23    5.5088   551.6    3.921      47.089
2015    2       27     1  28    5.5102   551.4    3.924      47.079
2015    2       27     1  33    5.5117   551.3    3.927      47.069
2015    2       27     1  38    5.5134   551.1    3.930      47.059
2015    2       27     1  44    5.5151   551.0    3.933      47.050
2015    2       27     1  49    5.5167   550.8    3.936      47.041
2015    2       27     1  54    5.5182   550.7    3.939      47.032
2015    2       27     1  59    5.5200   550.5    3.942      47.024
2015    2       27     2   4    5.5215   550.4    3.945      47.016
2015    2       27     2   9    5.5234   550.2    3.948      47.008
2015    2       27     2  15    5.5250   550.1    3.951      47.000
2015    2       27     2  20    5.5269   549.9    3.955      46.993
2015    2       27     2  25    5.5285   549.8    3.958      46.986
2015    2       27     2  30    5.5303   549.6    3.961      46.979
2015    2       27     2  35    5.5321   549.5    3.964      46.972
2015    2       27     2  41    5.5339   549.4    3.967      46.966
2015    2       27     2  46    5.5359   549.2    3.971      46.960
2015    2       27     2  51    5.5378   549.1    3.974      46.954
2015    2       27     2  56    5.5395   548.9    3.977      46.949
2015    2       27     3   1    5.5416   548.8    3.981      46.944
2015    2       27     3   7    5.5435   548.6    3.984      46.939
2015    2       27     3  12    5.5455   548.5    3.987      46.934
2015    2       27     3  17    5.5473   548.4    3.991      46.930
2015    2       27     3  22    5.5495   548.2    3.994      46.926
2015    2       27     3  27    5.5516   548.1    3.998      46.923
2015    2       27     3  32    5.5537   547.9    4.001      46.920
2015    2       27     3  38    5.5556   547.8    4.005      46.917
2015    2       27     3  43    5.5580   547.7    4.009      46.915
2015    2       27     3  48    5.5600   547.5    4.012      46.913
2015    2       27     3  53    5.5624   547.4    4.016      46.912
2015    2       27     3  58    5.5646   547.2    4.020      46.911
2015    2       27     4   4    5.5669   547.1    4.024      46.910
2015    2       27     4   9    5.5691   547.0    4.028      46.910
2015    2       27     4  14    5.5712   546.8    4.032      46.911
2015    2       27     4  19    5.5738   546.7    4.036      46.912
2015    2       27     4  24    5.5761   546.6    4.040      46.913
2015    2       27     4  29    5.5784   546.4    4.045      46.915
2015    2       27     4  35    5.5808   546.3    4.049      46.917
2015    2       27     4  40    5.5831   546.2    4.054      46.920
2015    2       27     4  45    5.5852   546.1    4.058      46.923
2015    2       27     4  50    5.5878   545.9    4.063      46.926
2015    2       27     4  55    5.5902   545.8    4.067      46.929
2015    2       27     5   1    5.5926   545.7    4.072      46.933
2015    2       27     5   6    5.5949   545.6    4.077      46.937
2015    2       27     5  11    5.5973   545.5    4.082      46.942
2015    2       27     5  16    5.5997   545.3    4.086      46.947
2015    2       27     5  21    5.6021   545.2    4.091      46.952
2015    2       27     5  27    5.6043   545.1    4.096      46.957
2015    2       27     5  32    5.6067   545.0    4.101      46.963
2015    2       27     5  37    5.6093   544.9    4.105      46.969
2015    2       27     5  42    5.6117   544.8    4.110      46.976
2015    2       27     5  47    5.6142   544.7    4.115      46.982
2015    2       27     5  52    5.6164   544.5    4.119      46.989
2015    2       27     5  58    5.6188   544.4    4.124      46.996
2015    2       27     6   3    5.6212   544.3    4.128      47.002
2015    2       27     6   8    5.6239   544.2    4.133      47.009
2015    2       27     6  13    5.6262   544.1    4.137      47.016
2015    2       27     6  18    5.6289   544.0    4.141      47.023
2015    2       27     6  24    5.6314   543.9    4.146      47.029
2015    2       27     6  29    5.6336   543.8    4.150      47.035
2015    2       27     6  34    5.6364   543.7    4.154      47.040
2015    2       27     6  39    5.6389   543.6    4.158      47.046
2015    2       27     6  44    5.6415   543.5    4.162      47.051
2015    2       27     6  49    5.6440   543.4    4.166      47.055
2015    2       27     6  55    5.6466   543.2    4.170      47.059
2015    2       27     7   0    5.6490   543.1    4.174      47.063
2015    2       27     7   5    5.6518   543.0    4.178      47.067
2015    2       27     7  10    5.6544   542.9    4.182      47.071
2015    2       27     7  15    5.6569   542.8    4.186      47.074
2015    2       27     7  21    5.6595   542.7    4.189      47.077
2015    2       27     7  26    5.6624   542.6    4.193      47.080
2015    2       27     7  31    5.6649   542.5    4.197      47.083
2015    2       27     7  36    5.6678   542.4    4.201      47.086
2015    2       27     7  41    5.6706   542.3    4.205      47.088
2015    2       27     7  47    5.6731   542.2    4.208      47.091
2015    2       27     7  52    5.6761   542.1    4.212      47.093
2015    2       27     7  57    5.6787   542.0    4.216      47.096
2015    2       27     8   2    5.6817   541.9    4.220      47.099
2015    2       27     8   7    5.6845   541.8    4.223      47.101
2015    2       27     8  12    5.6874   541.7    4.227      47.104
2015    2       27     8  18    5.6902   541.6    4.231      47.107
2015    2       27     8  23    5.6931   541.5    4.235      47.110
2015    2       27     8  28    5.6960   541.4    4.238      47.113
2015    2       27     8  33    5.6988   541.3    4.242      47.116
2015    2       27     8  38    5.7019   541.2    4.246      47.119
2015    2       27     8  44    5.7047   541.1    4.250      47.123
2015    2       27     8  49    5.7077   541.0    4.254      47.126
2015    2       27     8  54    5.7107   540.9    4.258      47.130
2015    2       27     8  59    5.7137   540.8    4.262      47.134
2015    2       27     9   4    5.7169   540.7    4.266      47.138
2015    2       27     9   9    5.7198   540.6    4.269      47.142
2015    2       27     9  15    5.7229   540.5    4.273      47.146
2015    2       27     9  20    5.7261   540.4    4.277      47.151
2015    2       27     9  25    5.7292   540.3    4.281      47.155
2015    2       27     9  30    5.7321   540.2    4.285      47.160
2015    2       27     9  35    5.7352   540.1    4.289      47.165
2015    2       27     9  41    5.7384   540.0    4.293      47.170
2015    2       27     9  46    5.7417   539.9    4.297      47.176
2015    2       27     9  51    5.7447   539.9    4.301      47.182
2015    2       27     9  56    5.7480   539.8    4.305      47.188
2015    2       27    10   1    5.7511   539.7    4.310      47.194
2015    2       27    10   7    5.7543   539.6    4.314      47.200
2015    2       27    10  12    5.7575   539.5    4.318      47.207
2015    2       27    10  17    5.7607   539.4    4.322      47.214
2015    2       27    10  22    5.7639   539.3    4.326      47.220
2015    2       27    10  27    5.7670   539.3    4.330      47.227
2015    2       27    10  32    5.7703   539.2    4.334      47.234
2015    2       27    10  38    5.7735   539.1    4.338      47.241
2015    2       27    10  43    5.7767   539.0    4.342      47.248
2015    2       27    10  48    5.7801   538.9    4.347      47.255
2015    2       27    10  53    5.7834   538.8    4.351      47.263
2015    2       27    10  58    5.7866   538.8    4.355      47.270
2015    2       27    11   4    5.7899   538.7    4.360      47.278
2015    2       27    11   9    5.7933   538.6    4.364      47.286
2015    2       27    11  14    5.7967   538.5    4.369      47.294
2015    2       27    11  19    5.8000   538.4    4.373      47.302
2015    2       27    11  24    5.8033   538.4    4.378      47.311
2015    2       27    11  29    5.8067   538.3    4.383      47.320
2015    2       27    11  35    5.8101   538.2    4.388      47.330
2015    2       27    11  40    5.8134   538.1    4.393      47.340
2015    2       27    11  45    5.8168   538.1    4.398      47.351
2015    2       27    11  50    5.8201   538.0    4.403      47.363
2015    2       27    11  55    5.8234   537.9    4.408      47.376
2015    2       27    12   1    5.8266   537.9    4.413      47.389
2015    2       27    12   6    5.8299   537.8    4.419      47.403
2015    2       27    12  11    5.8331   537.7    4.424      47.418
2015    2       27    12  16    5.8363   537.7    4.429      47.433
2015    2       27    12  21    5.8395   537.6    4.434      47.449
2015    2       27    12  27    5.8427   537.6    4.440      47.465
2015    2       27    12  32    5.8458   537.5    4.445      47.481
2015    2       27    12  37    5.8489   537.5    4.450      47.498
2015    2       27    12  42    5.8520   537.4    4.455      47.516
2015    2       27    12  47    5.8551   537.4    4.460      47.534
2015    2       27    12  52    5.8581   537.3    4.465      47.553
2015    2       27    12  58    5.8611   537.3    4.469      47.571
2015    2       27    13   3    5.8641   537.2    4.474      47.589
2015    2       27    13   8    5.8671   537.2    4.479      47.607
2015    2       27    13  13    5.8701   537.2    4.483      47.626
2015    2       27    13  18    5.8730   537.1    4.488      47.644
2015    2       27    13  24    5.8759   537.1    4.492      47.662
2015    2       27    13  29    5.8788   537.0    4.496      47.680
2015    2       27    13  34    5.8817   537.0    4.500      47.698
2015    2       27    13  39    5.8846   537.0    4.504      47.716
2015    2       27    13  44    5.8875   536.9    4.508      47.733
2015    2       27    13  49    5.8903   536.9    4.512      47.750
2015    2       27    13  55    5.8932   536.9    4.516      47.767
2015    2       27    14   0    5.8960   536.8    4.519      47.783
2015    2       27    14   5    5.8988   536.8    4.523      47.799
2015    2       27    14  10    5.9016   536.8    4.526      47.814
2015    2       27    14  15    5.9044   536.7    4.530      47.829
2015    2       27    14  21    5.9072   536.7    4.533      47.844
2015    2       27    14  26    5.9100   536.7    4.536      47.859
2015    2       27    14  31    5.9128   536.7    4.540      47.873
2015    2       27    14  36    5.9156   536.6    4.543      47.887
2015    2       27    14  41    5.9183   536.6    4.546      47.900
2015    2       27    14  47    5.9211   536.6    4.549      47.914
2015    2       27    14  52    5.9238   536.5    4.552      47.927
2015    2       27    14  57    5.9266   536.5    4.555      47.940
2015    2       27    15   2    5.9293   536.5    4.558      47.952
2015    2       27    15   7    5.9321   536.5    4.561      47.965
2015    2       27    15  12    5.9349   536.4    4.563      47.977
2015    2       27    15  18    5.9376   536.4    4.566      47.989
2015    2       27    15  23    5.9404   536.4    4.569      48.001
2015    2       27    15  28    5.9431   536.4    4.572      48.012
2015    2       27    15  33    5.9458   536.3    4.574      48.024
2015    2       27    15  38    5.9486   536.3    4.577      48.035
2015    2       27    15  44    5.9514   536.3    4.580      48.046
2015    2       27    15  49    5.9542   536.3    4.582      48.057
2015    2       27    15  54    5.9569   536.3    4.585      48.069
2015    2       27    15  59    5.9597   536.2    4.588      48.080
2015    2       27    16   4    5.9625   536.2    4.590      48.090
2015    2       27    16   9    5.9653   536.2    4.593      48.101
2015    2       27    16  15    5.9680   536.2    4.595      48.112
2015    2       27    16  20    5.9708   536.1    4.598      48.123
2015    2       27    16  25    5.9736   536.1    4.600      48.135
2015    2       27    16  30    5.9764   536.1    4.603      48.146
2015    2       27    16  35    5.9791   536.1    4.606      48.157
2015    2       27    16  41    5.9819   536.1    4.608      48.168
2015    2       27    16  46    5.9848   536.1    4.611      48.179
2015    2       27    16  51    5.9876   536.0    4.613      48.191
2015    2       27    16  56    5.9904   536.0    4.616      48.203
2015    2       27    17   1    5.9931   536.0    4.618      48.215
2015    2       27    17   7    5.9960   536.0    4.621      48.227
2015    2       27    17  12    5.9987   536.0    4.623      48.239
2015    2       27    17  17    6.0015   536.0    4.626      48.252
2015    2       27    17  22    6.0044   535.9    4.628      48.264
2015    2       27    17  27    6.0072   535.9    4.631      48.277
2015    2       27    17  32    6.0100   535.9    4.633      48.290
2015    2       27    17  38    6.0128   535.9    4.636      48.303
2015    2       27    17  43    6.0156   535.9    4.639      48.317
2015    2       27    17  48    6.0184   535.9    4.641      48.330
2015    2       27    17  53    6.0212   535.8    4.644      48.344
2015    2       27    17  58    6.0240   535.8    4.647      48.357
2015    2       27    18   4    6.0267   535.8    4.649      48.371
2015    2       27    18   9    6.0296   535.8    4.652      48.385
2015    2       27    18  14    6.0324   535.8    4.655      48.399
2015    2       27    18  19    6.0352   535.8    4.658      48.413
2015    2       27    18  24    6.0381   535.8    4.661      48.427
2015    2       27    18  29    6.0408   535.8    4.664      48.441
2015    2       27    18  35    6.0437   535.7    4.667      48.456
2015    2       27    18  40    6.0465   535.7    4.670      48.471
2015    2       27    18  45    6.0493   535.7    4.673      48.486
2015    2       27    18  50    6.0520   535.7    4.677      48.501
2015    2       27    18  55    6.0549   535.7    4.680      48.516
2015    2       27    19   1    6.0576   535.7    4.683      48.532
2015    2       27    19   6    6.0604   535.7    4.687      48.549
2015    2       27    19  11    6.0630   535.7    4.690      48.567
2015    2       27    19  16    6.0659   535.7    4.694      48.585
2015    2       27    19  21    6.0685   535.7    4.698      48.603
2015    2       27    19  27    6.0712   535.7    4.701      48.622
2015    2       27    19  32    6.0738   535.7    4.705      48.642
2015    2       27    19  37    6.0763   535.7    4.708      48.662
2015    2       27    19  42    6.0788   535.7    4.711      48.682
2015    2       27    19  47    6.0813   535.7    4.715      48.702
2015    2       27    19  52    6.0838   535.7    4.718      48.723
2015    2       27    19  58    6.0863   535.7    4.721      48.744
2015    2       27    20   3    6.0887   535.7    4.724      48.765
2015    2       27    20   8    6.0910   535.7    4.727      48.786
2015    2       27    20  13    6.0933   535.7    4.730      48.806
2015    2       27    20  18    6.0958   535.7    4.733      48.827
2015    2       27    20  24    6.0981   535.7    4.735      48.847
2015    2       27    20  29    6.1003   535.7    4.738      48.866
2015    2       27    20  34    6.1026   535.8    4.740      48.885
2015    2       27    20  39    6.1047   535.8    4.742      48.904
2015    2       27    20  44    6.1069   535.8    4.744      48.922
2015    2       27    20  49    6.1092   535.8    4.747      48.940
2015    2       27    20  55    6.1113   535.8    4.749      48.957
2015    2       27    21   0    6.1135   535.8    4.750      48.974
2015    2       27    21   5    6.1155   535.8    4.752      48.991
2015    2       27    21  10    6.1177   535.8    4.754      49.007
2015    2       27    21  15    6.1198   535.8    4.756      49.023
2015    2       27    21  21    6.1220   535.8    4.757      49.038
2015    2       27    21  26    6.1241   535.8    4.759      49.054
2015    2       27    21  31    6.1261   535.8    4.760      49.069
2015    2       27    21  36    6.1281   535.9    4.762      49.083
2015    2       27    21  41    6.1303   535.9    4.763      49.098
2015    2       27    21  47    6.1323   535.9    4.765      49.112
2015    2       27    21  52    6.1342   535.9    4.766      49.126
2015    2       27    21  57    6.1363   535.9    4.767      49.139
2015    2       27    22   2    6.1383   535.9    4.768      49.153
2015    2       27    22   7    6.1403   535.9    4.769      49.166
2015    2       27    22  12    6.1424   535.9    4.770      49.180
2015    2       27    22  18    6.1445   535.9    4.771      49.193
2015    2       27    22  23    6.1465   535.9    4.772      49.206
2015    2       27    22  28    6.1486   536.0    4.773      49.219
2015    2       27    22  33    6.1506   536.0    4.774      49.231
2015    2       27    22  38    6.1526   536.0    4.775      49.244
2015    2       27    22  44    6.1547   536.0    4.776      49.257
2015    2       27    22  49    6.1567   536.0    4.777      49.270
2015    2       27    22  54    6.1586   536.0    4.778      49.282
2015    2       27    22  59    6.1608   536.0    4.779      49.295
2015    2       27    23   4    6.1627   536.1    4.780      49.307
2015    2       27    23   9    6.1649   536.1    4.780      49.320
2015    2       27    23  15    6.1668   536.1    4.781      49.332
2015    2       27    23  20    6.1689   536.1    4.782      49.344
2015    2       27    23  25    6.1710   536.1    4.782      49.356
2015    2       27    23  30    6.1729   536.1    4.783      49.367
2015    2       27    23  35    6.1749   536.2    4.783      49.379
2015    2       27    23  41    6.1769   536.2    4.784      49.390
2015    2       27    23  46    6.1790   536.2    4.784      49.402
2015    2       27    23  51    6.1810   536.2    4.785      49.413
2015    2       27    23  56    6.1830   536.2    4.785      49.423
2015    2       28     0   1    6.1850   536.3    4.785      49.434
2015    2       28     0   7    6.1870   536.3    4.786      49.445
2015    2       28     0  12    6.1890   536.3    4.786      49.455
2015    2       28     0  17    6.1910   536.3    4.786      49.465
2015    2       28     0  22    6.1929   536.3    4.787      49.475
2015    2       28     0  27    6.1950   536.3    4.787      49.486
2015    2       28     0  32    6.1970   536.4    4.787      49.496
2015    2       28     0  38    6.1990   536.4    4.787      49.506
2015    2       28     0  43    6.2010   536.4    4.788      49.516
2015    2       28     0  48    6.2028   536.4    4.788      49.526
2015    2       28     0  53    6.2048   536.5    4.788      49.536
2015    2       28     0  58    6.2069   536.5    4.788      49.546
2015    2       28     1   4    6.2087   536.5    4.788      49.557
2015    2       28     1   9    6.2108   536.5    4.789      49.567
2015    2       28     1  14    6.2126   536.5    4.789      49.578
2015    2       28     1  19    6.2146   536.6    4.789      49.588
2015    2       28     1  24    6.2166   536.6    4.789      49.599
2015    2       28     1  29    6.2185   536.6    4.789      49.610
2015    2       28     1  35    6.2203   536.6    4.790      49.621
2015    2       28     1  40    6.2224   536.7    4.790      49.633
2015    2       28     1  45    6.2242   536.7    4.790      49.645
2015    2       28     1  50    6.2261   536.7    4.791      49.656
2015    2       28     1  55    6.2280   536.7    4.791      49.669
2015    2       28     2   1    6.2300   536.8    4.791      49.681
2015    2       28     2   6    6.2317   536.8    4.792      49.694
2015    2       28     2  11    6.2336   536.8    4.792      49.707
2015    2       28     2  16    6.2356   536.9    4.793      49.720
2015    2       28     2  21    6.2374   536.9    4.793      49.733
2015    2       28     2  27    6.2392   536.9    4.794      49.747
2015    2       28     2  32    6.2410   536.9    4.794      49.762
2015    2       28     2  37    6.2429   537.0    4.795      49.776
2015    2       28     2  42    6.2448   537.0    4.796      49.791
2015    2       28     2  47    6.2466   537.0    4.797      49.806
2015    2       28     2  52    6.2483   537.1    4.797      49.822
2015    2       28     2  58    6.2502   537.1    4.798      49.838
2015    2       28     3   3    6.2520   537.1    4.799      49.854
2015    2       28     3   8    6.2537   537.2    4.800      49.871
2015    2       28     3  13    6.2555   537.2    4.801      49.888
2015    2       28     3  18    6.2572   537.2    4.803      49.905
2015    2       28     3  24    6.2589   537.3    4.804      49.923
2015    2       28     3  29    6.2607   537.3    4.805      49.941
2015    2       28     3  34    6.2623   537.3    4.806      49.960
2015    2       28     3  39    6.2640   537.4    4.808      49.980
2015    2       28     3  44    6.2656   537.4    4.809      49.999
2015    2       28     3  49    6.2673   537.5    4.810      50.020
2015    2       28     3  55    6.2689   537.5    4.812      50.041
2015    2       28     4   0    6.2706   537.5    4.813      50.062
2015    2       28     4   5    6.2723   537.6    4.815      50.084
2015    2       28     4  10    6.2739   537.6    4.816      50.106
2015    2       28     4  15    6.2755   537.7    4.817      50.128
2015    2       28     4  21    6.2770   537.7    4.819      50.150
2015    2       28     4  26    6.2786   537.7    4.820      50.173
2015    2       28     4  31    6.2802   537.8    4.821      50.195
2015    2       28     4  36    6.2818   537.8    4.823      50.218
2015    2       28     4  41    6.2834   537.8    4.824      50.240
2015    2       28     4  47    6.2849   537.9    4.826      50.262
2015    2       28     4  52    6.2865   537.9    4.827      50.284
2015    2       28     4  57    6.2880   537.9    4.828      50.307
2015    2       28     5   2    6.2896   538.0    4.829      50.330
2015    2       28     5   7    6.2912   538.0    4.831      50.352
2015    2       28     5  12    6.2927   538.0    4.832      50.375
2015    2       28     5  18    6.2943   538.1    4.833      50.398
2015    2       28     5  23    6.2959   538.1    4.834      50.422
2015    2       28     5  28    6.2975   538.1    4.836      50.445
2015    2       28     5  33    6.2991   538.1    4.837      50.468
2015    2       28     5  38    6.3008   538.2    4.838      50.491
2015    2       28     5  44    6.3024   538.2    4.839      50.514
2015    2       28     5  49    6.3041   538.2    4.839      50.536
2015    2       28     5  54    6.3058   538.3    4.840      50.558
2015    2       28     5  59    6.3075   538.3    4.841      50.580
2015    2       28     6   4    6.3092   538.3    4.842      50.602
2015    2       28     6   9    6.3108   538.4    4.842      50.623
2015    2       28     6  15    6.3126   538.4    4.843      50.644
2015    2       28     6  20    6.3143   538.4    4.843      50.664
2015    2       28     6  25    6.3160   538.5    4.844      50.683
2015    2       28     6  30    6.3177   538.5    4.844      50.702
2015    2       28     6  35    6.3194   538.5    4.844      50.720
2015    2       28     6  41    6.3212   538.6    4.844      50.738
2015    2       28     6  46    6.3229   538.6    4.844      50.755
2015    2       28     6  51    6.3246   538.6    4.844      50.772
2015    2       28     6  56    6.3263   538.7    4.844      50.788
2015    2       28     7   1    6.3280   538.7    4.844      50.803
2015    2       28     7   7    6.3297   538.7    4.844      50.818
2015    2       28     7  12    6.3314   538.8    4.844      50.832
2015    2       28     7  17    6.3331   538.8    4.843      50.846
2015    2       28     7  22    6.3348   538.9    4.843      50.860
2015    2       28     7  27    6.3364   538.9    4.843      50.873
2015    2       28     7  32    6.3381   538.9    4.842      50.885
2015    2       28     7  38    6.3397   539.0    4.842      50.897
2015    2       28     7  43    6.3414   539.0    4.841      50.909
2015    2       28     7  48    6.3430   539.0    4.841      50.920
2015    2       28     7  53    6.3447   539.1    4.840      50.931
2015    2       28     7  58    6.3463   539.1    4.839      50.942
2015    2       28     8   4    6.3479   539.2    4.838      50.953
2015    2       28     8   9    6.3495   539.2    4.838      50.963
2015    2       28     8  14    6.3510   539.2    4.837      50.973
2015    2       28     8  19    6.3526   539.3    4.836      50.983
2015    2       28     8  24    6.3542   539.3    4.835      50.992
2015    2       28     8  29    6.3558   539.4    4.834      51.002
2015    2       28     8  35    6.3573   539.4    4.833      51.011
2015    2       28     8  40    6.3589   539.4    4.833      51.021
2015    2       28     8  45    6.3604   539.5    4.832      51.030
2015    2       28     8  50    6.3619   539.5    4.831      51.040
2015    2       28     8  55    6.3634   539.6    4.830      51.049
2015    2       28     9   1    6.3650   539.6    4.829      51.059
2015    2       28     9   6    6.3664   539.6    4.828      51.069
2015    2       28     9  11    6.3679   539.7    4.827      51.079
2015    2       28     9  16    6.3694   539.7    4.826      51.089
2015    2       28     9  21    6.3709   539.8    4.825      51.099
2015    2       28     9  27    6.3724   539.8    4.824      51.109
2015    2       28     9  32    6.3739   539.9    4.823      51.120
2015    2       28     9  37    6.3753   539.9    4.822      51.130
2015    2       28     9  42    6.3768   540.0    4.821      51.141
2015    2       28     9  47    6.3782   540.0    4.821      51.152
2015    2       28     9  52    6.3796   540.1    4.820      51.163
2015    2       28     9  58    6.3811   540.1    4.819      51.174
2015    2       28    10   3    6.3825   540.1    4.818      51.186
2015    2       28    10   8    6.3839   540.2    4.817      51.198
2015    2       28    10  13    6.3853   540.2    4.817      51.210
2015    2       28    10  18    6.3868   540.3    4.816      51.222
2015    2       28    10  24    6.3881   540.3    4.815      51.235
2015    2       28    10  29    6.3895   540.4    4.814      51.248
2015    2       28    10  34    6.3909   540.4    4.814      51.261
2015    2       28    10  39    6.3923   540.5    4.813      51.274
2015    2       28    10  44    6.3936   540.6    4.813      51.288
2015    2       28    10  49    6.3950   540.6    4.812      51.302
2015    2       28    10  55    6.3964   540.7    4.812      51.316
2015    2       28    11   0    6.3978   540.7    4.811      51.331
2015    2       28    11   5    6.3991   540.8    4.811      51.346
2015    2       28    11  10    6.4005   540.8    4.811      51.362
2015    2       28    11  15    6.4019   540.9    4.811      51.378
2015    2       28    11  21    6.4032   540.9    4.811      51.395
2015    2       28    11  26    6.4046   541.0    4.811      51.411
2015    2       28    11  31    6.4060   541.0    4.811      51.429
2015    2       28    11  36    6.4074   541.1    4.811      51.447
2015    2       28    11  41    6.4087   541.2    4.812      51.466
2015    2       28    11  47    6.4101   541.2    4.812      51.485
2015    2       28    11  52    6.4115   541.3    4.813      51.506
2015    2       28    11  57    6.4129   541.3    4.813      51.527
2015    2       28    12   2    6.4142   541.4    4.814      51.549
2015    2       28    12   7    6.4157   541.4    4.815      51.572
2015    2       28    12  12    6.4170   541.5    4.816      51.596
2015    2       28    12  18    6.4184   541.6    4.817      51.620
2015    2       28    12  23    6.4198   541.6    4.818      51.646
2015    2       28    12  28    6.4212   541.7    4.820      51.672
2015    2       28    12  33    6.4226   541.7    4.821      51.699
2015    2       28    12  38    6.4240   541.8    4.823      51.727
2015    2       28    12  44    6.4254   541.8    4.824      51.757
2015    2       28    12  49    6.4269   541.9    4.826      51.787
2015    2       28    12  54    6.4284   542.0    4.828      51.819
2015    2       28    12  59    6.4298   542.0    4.830      51.852
2015    2       28    13   4    6.4313   542.1    4.832      51.885
2015    2       28    13   9    6.4328   542.1    4.834      51.919
2015    2       28    13  15    6.4344   542.2    4.836      51.955
2015    2       28    13  20    6.4359   542.2    4.838      51.992
2015    2       28    13  25    6.4375   542.3    4.840      52.030
2015    2       28    13  30    6.4391   542.4    4.842      52.069
2015    2       28    13  35    6.4408   542.4    4.844      52.108
2015    2       28    13  41    6.4424   542.5    4.846      52.149
2015    2       28    13  46    6.4441   542.5    4.848      52.189
2015    2       28    13  51    6.4457   542.6    4.850      52.230
2015    2       28    13  56    6.4474   542.7    4.852      52.271
2015    2       28    14   1    6.4490   542.7    4.853      52.311
2015    2       28    14   7    6.4507   542.8    4.854      52.350
2015    2       28    14  12    6.4523   542.9    4.856      52.389
2015    2       28    14  17    6.4539   542.9    4.857      52.427
2015    2       28    14  22    6.4555   543.0    4.857      52.464
2015    2       28    14  27    6.4571   543.0    4.858      52.500
2015    2       28    14  32    6.4587   543.1    4.859      52.535
2015    2       28    14  38    6.4603   543.2    4.859      52.569
2015    2       28    14  43    6.4618   543.2    4.859      52.601
2015    2       28    14  48    6.4633   543.3    4.859      52.632
2015    2       28    14  53    6.4648   543.4    4.859      52.662
2015    2       28    14  58    6.4663   543.4    4.859      52.691
2015    2       28    15   4    6.4677   543.5    4.859      52.719
2015    2       28    15   9    6.4692   543.6    4.858      52.746
2015    2       28    15  14    6.4706   543.6    4.858      52.772
2015    2       28    15  19    6.4720   543.7    4.857      52.797
2015    2       28    15  24    6.4734   543.8    4.857      52.821
2015    2       28    15  30    6.4748   543.9    4.856      52.844
2015    2       28    15  35    6.4762   543.9    4.855      52.867
2015    2       28    15  40    6.4775   544.0    4.854      52.888
2015    2       28    15  45    6.4789   544.1    4.853      52.909
2015    2       28    15  50    6.4802   544.1    4.852      52.929
2015    2       28    15  55    6.4816   544.2    4.851      52.949
2015    2       28    16   1    6.4829   544.3    4.850      52.968
2015    2       28    16   6    6.4842   544.4    4.849      52.986
2015    2       28    16  11    6.4855   544.4    4.847      53.004
2015    2       28    16  16    6.4868   544.5    4.846      53.021
2015    2       28    16  21    6.4881   544.6    4.844      53.038
2015    2       28    16  27    6.4894   544.6    4.843      53.055
2015    2       28    16  32    6.4907   544.7    4.842      53.071
2015    2       28    16  37    6.4920   544.8    4.840      53.087
2015    2       28    16  42    6.4933   544.9    4.839      53.102
2015    2       28    16  47    6.4946   544.9    4.837      53.118
2015    2       28    16  52    6.4959   545.0    4.836      53.133
2015    2       28    16  58    6.4972   545.1    4.834      53.148
2015    2       28    17   3    6.4985   545.2    4.833      53.163
2015    2       28    17   8    6.4998   545.2    4.831      53.177
2015    2       28    17  13    6.5011   545.3    4.829      53.192
2015    2       28    17  18    6.5024   545.4    4.828      53.206
2015    2       28    17  24    6.5038   545.5    4.826      53.221
2015    2       28    17  29    6.5051   545.6    4.825      53.236
2015    2       28    17  34    6.5064   545.6    4.823      53.250
2015    2       28    17  39    6.5078   545.7    4.822      53.265
2015    2       28    17  44    6.5091   545.8    4.821      53.279
2015    2       28    17  50    6.5105   545.9    4.819      53.294
2015    2       28    17  55    6.5118   546.0    4.818      53.309
2015    2       28    18   0    6.5132   546.0    4.816      53.325
2015    2       28    18   5    6.5146   546.1    4.815      53.340
2015    2       28    18  10    6.5160   546.2    4.814      53.356
2015    2       28    18  15    6.5174   546.3    4.813      53.372
2015    2       28    18  21    6.5187   546.4    4.811      53.388
2015    2       28    18  26    6.5201   546.5    4.810      53.405
2015    2       28    18  31    6.5215   546.5    4.809      53.422
2015    2       28    18  36    6.5229   546.6    4.808      53.440
2015    2       28    18  41    6.5243   546.7    4.807      53.459
2015    2       28    18  47    6.5256   546.8    4.806      53.477
2015    2       28    18  52    6.5270   546.9    4.806      53.497
2015    2       28    18  57    6.5284   547.0    4.805      53.516
2015    2       28    19   2    6.5298   547.1    4.804      53.537
2015    2       28    19   7    6.5311   547.2    4.804      53.558
2015    2       28    19  12    6.5325   547.3    4.803      53.580
2015    2       28    19  18    6.5339   547.4    4.803      53.602
2015    2       28    19  23    6.5353   547.5    4.802      53.625
2015    2       28    19  28    6.5367   547.6    4.802      53.649
2015    2       28    19  33    6.5381   547.7    4.802      53.673
2015    2       28    19  38    6.5395   547.8    4.802      53.699
2015    2       28    19  44    6.5409   547.9    4.802      53.725
2015    2       28    19  49    6.5423   548.0    4.803      53.754
2015    2       28    19  54    6.5437   548.1    4.803      53.783
2015    2       28    19  59    6.5451   548.2    4.804      53.814
2015    2       28    20   4    6.5465   548.3    4.804      53.846
2015    2       28    20  10    6.5479   548.4    4.805      53.879
2015    2       28    20  15    6.5493   548.5    4.805      53.914
2015    2       28    20  20    6.5507   548.6    4.806      53.949
2015    2       28    20  25    6.5521   548.7    4.807      53.985
2015    2       28    20  30    6.5534   548.8    4.808      54.022
2015    2       28    20  35    6.5548   548.9    4.809      54.060
2015    2       28    20  41    6.5561   549.0    4.810      54.099
2015    2       28    20  46    6.5575   549.1    4.811      54.139
2015    2       28    20  51    6.5587   549.2    4.812      54.178
2015    2       28    20  56    6.5601   549.3    4.813      54.217
2015    2       28    21   1    6.5614   549.4    4.815      54.257
2015    2       28    21   7    6.5627   549.5    4.816      54.299
2015    2       28    21  12    6.5641   549.7    4.817      54.342
2015    2       28    21  17    6.5654   549.8    4.819      54.386
2015    2       28    21  22    6.5667   549.9    4.820      54.431
2015    2       28    21  27    6.5680   550.0    4.821      54.478
2015    2       28    21  32    6.5693   550.1    4.822      54.526
2015    2       28    21  38    6.5706   550.2    4.823      54.575
2015    2       28    21  43    6.5719   550.3    4.824      54.624
2015    2       28    21  48    6.5732   550.4    4.825      54.674
2015    2       28    21  53    6.5745   550.6    4.826      54.723
2015    2       28    21  58    6.5758   550.7    4.826      54.773
2015    2       28    22   4    6.5770   550.8    4.827      54.823
2015    2       28    22   9    6.5782   550.9    4.827      54.873
2015    2       28    22  14    6.5793   551.0    4.827      54.922
2015    2       28    22  19    6.5806   551.2    4.826      54.970
2015    2       28    22  24    6.5817   551.3    4.826      55.017
2015    2       28    22  30    6.5828   551.4    4.826      55.062
2015    2       28    22  35    6.5840   551.5    4.825      55.106
2015    2       28    22  40    6.5850   551.7    4.824      55.149
2015    2       28    22  45    6.5861   551.8    4.823      55.191
2015    2       28    22  50    6.5872   551.9    4.822      55.231
2015    2       28    22  55    6.5882   552.0    4.821      55.270
2015    2       28    23   1    6.5892   552.2    4.819      55.309
2015    2       28    23   6    6.5902   552.3    4.818      55.346
2015    2       28    23  11    6.5912   552.4    4.816      55.382
2015    2       28    23  16    6.5922   552.5    4.814      55.416
2015    2       28    23  21    6.5932   552.7    4.813      55.450
2015    2       28    23  27    6.5941   552.8    4.811      55.483
2015    2       28    23  32    6.5951   552.9    4.809      55.516
2015    2       28    23  37    6.5960   553.1    4.807      55.547
2015    2       28    23  42    6.5969   553.2    4.805      55.577
2015    2       28    23  47    6.5978   553.3    4.802      55.607
2015    2       28    23  52    6.5987   553.5    4.800      55.636
2015    2       28    23  58    6.5996   553.6    4.798      55.664
2015    3        1     0   3    6.6005   553.7    4.795      55.692
2015    3        1     0   8    6.6014   553.9    4.793      55.719
2015    3        1     0  13    6.6023   554.0    4.791      55.746
2015    3        1     0  18    6.6032   554.1    4.788      55.772
2015    3        1     0  24    6.6040   554.3    4.786      55.797
2015    3        1     0  29    6.6049   554.4    4.783      55.823
2015    3        1     0  34    6.6058   554.5    4.781      55.848
2015    3        1     0  39    6.6067   554.6    4.778      55.873
2015    3        1     0  44    6.6076   554.8    4.776      55.897
2015    3        1     0  50    6.6085   554.9    4.774      55.922
2015    3        1     0  55    6.6094   555.0    4.771      55.946
2015    3        1     1   0    6.6104   555.2    4.769      55.971
2015    3        1     1   5    6.6113   555.3    4.767      55.996
2015    3        1     1  10    6.6124   555.4    4.764      56.021
2015    3        1     1  15    6.6134   555.6    4.762      56.047
2015    3        1     1  21    6.6145   555.7    4.761      56.073
2015    3        1     1  26    6.6156   555.8    4.759      56.101
2015    3        1     1  31    6.6168   556.0    4.757      56.130
2015    3        1     1  36    6.6180   556.1    4.755      56.161
2015    3        1     1  41    6.6191   556.3    4.754      56.193
2015    3        1     1  47    6.6203   556.4    4.752      56.227
2015    3        1     1  52    6.6215   556.6    4.751      56.262
2015    3        1     1  57    6.6226   556.7    4.749      56.299
2015    3        1     2   2    6.6238   556.9    4.748      56.336
2015    3        1     2   7    6.6249   557.1    4.746      56.374
2015    3        1     2  12    6.6260   557.2    4.745      56.413
2015    3        1     2  18    6.6270   557.4    4.743      56.453
2015    3        1     2  23    6.6280   557.6    4.742      56.493
2015    3        1     2  28    6.6290   557.8    4.740      56.534
2015    3        1     2  33    6.6299   557.9    4.738      56.575
2015    3        1     2  38    6.6308   558.1    4.737      56.615
2015    3        1     2  44    6.6316   558.3    4.735      56.656
2015    3        1     2  49    6.6324   558.5    4.733      56.697
2015    3        1     2  54    6.6332   558.7    4.732      56.738
2015    3        1     2  59    6.6339   558.8    4.730      56.779
2015    3        1     3   4    6.6346   559.0    4.728      56.819
2015    3        1     3  10    6.6353   559.2    4.727      56.861
2015    3        1     3  15    6.6359   559.4    4.725      56.904
2015    3        1     3  20    6.6366   559.6    4.723      56.946
2015    3        1     3  25    6.6372   559.8    4.721      56.989
2015    3        1     3  30    6.6378   560.0    4.719      57.033
2015    3        1     3  35    6.6383   560.2    4.718      57.078
2015    3        1     3  41    6.6389   560.4    4.716      57.122
2015    3        1     3  46    6.6394   560.6    4.714      57.167
2015    3        1     3  51    6.6398   560.8    4.712      57.211
2015    3        1     3  56    6.6403   561.0    4.710      57.256
2015    3        1     4   1    6.6407   561.2    4.707      57.300
2015    3        1     4   7    6.6411   561.4    4.705      57.344
2015    3        1     4  12    6.6415   561.6    4.703      57.387
2015    3        1     4  17    6.6418   561.8    4.701      57.430
2015    3        1     4  22    6.6421   562.0    4.698      57.471
2015    3        1     4  27    6.6423   562.2    4.696      57.513
2015    3        1     4  32    6.6424   562.4    4.693      57.553
2015    3        1     4  38    6.6426   562.6    4.690      57.593
2015    3        1     4  43    6.6428   562.8    4.688      57.632
2015    3        1     4  48    6.6429   563.0    4.685      57.671
2015    3        1     4  53    6.6430   563.2    4.682      57.709
2015    3        1     4  58    6.6431   563.4    4.679      57.747
2015    3        1     5   4    6.6431   563.6    4.676      57.785
2015    3        1     5   9    6.6431   563.8    4.673      57.822
2015    3        1     5  14    6.6430   564.0    4.670      57.859
2015    3        1     5  19    6.6429   564.2    4.667      57.896
2015    3        1     5  24    6.6428   564.4    4.663      57.933
2015    3        1     5  30    6.6427   564.6    4.660      57.970
2015    3        1     5  35    6.6424   564.8    4.657      58.006
2015    3        1     5  40    6.6423   565.0    4.653      58.043
2015    3        1     5  45    6.6421   565.2    4.649      58.079
2015    3        1     5  50    6.6418   565.4    4.646      58.115
2015    3        1     5  55    6.6415   565.6    4.642      58.151
2015    3        1     6   1    6.6410   565.8    4.638      58.187
2015    3        1     6   6    6.6408   566.0    4.634      58.222
2015    3        1     6  11    6.6405   566.2    4.631      58.258
2015    3        1     6  16    6.6399   566.4    4.627      58.293
2015    3        1     6  21    6.6395   566.6    4.623      58.328
2015    3        1     6  27    6.6392   566.8    4.619      58.362
2015    3        1     6  32    6.6388   567.0    4.615      58.397
2015    3        1     6  37    6.6383   567.2    4.611      58.431
2015    3        1     6  42    6.6378   567.4    4.607      58.465
2015    3        1     6  47    6.6371   567.6    4.602      58.500
2015    3        1     6  53    6.6368   567.8    4.598      58.534
2015    3        1     6  58    6.6363   568.0    4.594      58.568
2015    3        1     7   3    6.6357   568.2    4.590      58.602
2015    3        1     7   8    6.6350   568.4    4.586      58.636
2015    3        1     7  13    6.6346   568.6    4.582      58.670
2015    3        1     7  18    6.6341   568.8    4.578      58.704
2015    3        1     7  24    6.6334   569.0    4.574      58.738
2015    3        1     7  29    6.6330   569.2    4.570      58.773
2015    3        1     7  34    6.6322   569.4    4.566      58.808
2015    3        1     7  39    6.6316   569.6    4.562      58.843
2015    3        1     7  44    6.6313   569.8    4.558      58.878
2015    3        1     7  50    6.6305   570.0    4.554      58.914
2015    3        1     7  55    6.6301   570.2    4.550      58.950
2015    3        1     8   0    6.6295   570.4    4.546      58.986
2015    3        1     8   5    6.6287   570.6    4.542      59.023
2015    3        1     8  10    6.6282   570.8    4.538      59.060
2015    3        1     8  15    6.6275   571.0    4.534      59.097
2015    3        1     8  21    6.6268   571.2    4.530      59.135
2015    3        1     8  26    6.6259   571.4    4.526      59.172
2015    3        1     8  31    6.6251   571.6    4.522      59.211
2015    3        1     8  36    6.6243   571.8    4.518      59.249
2015    3        1     8  41    6.6237   572.0    4.513      59.287
2015    3        1     8  47    6.6228   572.2    4.509      59.325
2015    3        1     8  52    6.6219   572.4    4.505      59.363
2015    3        1     8  57    6.6209   572.7    4.501      59.401
2015    3        1     9   2    6.6199   572.9    4.497      59.439
2015    3        1     9   7    6.6186   573.1    4.493      59.477
2015    3        1     9  13    6.6177   573.3    4.488      59.514
2015    3        1     9  18    6.6163   573.5    4.484      59.552
2015    3        1     9  23    6.6151   573.7    4.480      59.590
2015    3        1     9  28    6.6141   574.0    4.475      59.627
2015    3        1     9  33    6.6125   574.2    4.471      59.665
2015    3        1     9  38    6.6114   574.4    4.467      59.702
2015    3        1     9  44    6.6100   574.6    4.462      59.740
2015    3        1     9  49    6.6086   574.9    4.458      59.777
2015    3        1     9  54    6.6071   575.1    4.453      59.814
2015    3        1     9  59    6.6056   575.3    4.449      59.852
2015    3        1    10   4    6.6037   575.6    4.444      59.889
2015    3        1    10  10    6.6024   575.8    4.440      59.926
2015    3        1    10  15    6.6007   576.0    4.435      59.963
2015    3        1    10  20    6.5991   576.3    4.431      60.000
2015    3        1    10  25    6.5973   576.5    4.426      60.036
2015    3        1    10  30    6.5955   576.7    4.421      60.073
2015    3        1    10  35    6.5937   577.0    4.417      60.110
2015    3        1    10  41    6.5918   577.2    4.412      60.147
2015    3        1    10  46    6.5899   577.5    4.407      60.183
2015    3        1    10  51    6.5879   577.7    4.402      60.220
2015    3        1    10  56    6.5856   577.9    4.397      60.256
2015    3        1    11   1    6.5838   578.2    4.392      60.291
2015    3        1    11   7    6.5814   578.4    4.387      60.326
2015    3        1    11  12    6.5796   578.7    4.382      60.361
2015    3        1    11  17    6.5774   578.9    4.377      60.395
2015    3        1    11  22    6.5752   579.1    4.372      60.429
2015    3        1    11  27    6.5730   579.4    4.366      60.462
2015    3        1    11  33    6.5707   579.6    4.361      60.495
2015    3        1    11  38    6.5683   579.8    4.356      60.527
2015    3        1    11  43    6.5660   580.1    4.350      60.558
2015    3        1    11  48    6.5635   580.3    4.345      60.589
2015    3        1    11  53    6.5611   580.6    4.339      60.619
2015    3        1    11  58    6.5583   580.8    4.333      60.648
2015    3        1    12   4    6.5561   581.0    4.328      60.677
2015    3        1    12   9    6.5532   581.3    4.322      60.705
2015    3        1    12  14    6.5510   581.5    4.316      60.733
2015    3        1    12  19    6.5480   581.7    4.311      60.760
2015    3        1    12  24    6.5457   582.0    4.305      60.786
2015    3        1    12  30    6.5427   582.2    4.299      60.812
2015    3        1    12  35    6.5403   582.4    4.293      60.838
2015    3        1    12  40    6.5372   582.6    4.288      60.863
2015    3        1    12  45    6.5345   582.9    4.282      60.887
2015    3        1    12  50    6.5316   583.1    4.276      60.910
2015    3        1    12  55    6.5291   583.3    4.270      60.934
2015    3        1    13   1    6.5259   583.5    4.264      60.956
2015    3        1    13   6    6.5230   583.7    4.258      60.979
2015    3        1    13  11    6.5204   584.0    4.253      61.001
2015    3        1    13  16    6.5172   584.2    4.247      61.022
2015    3        1    13  21    6.5145   584.4    4.241      61.043
2015    3        1    13  27    6.5115   584.6    4.235      61.063
2015    3        1    13  32    6.5085   584.8    4.229      61.083
2015    3        1    13  37    6.5054   585.0    4.224      61.103
2015    3        1    13  42    6.5024   585.2    4.218      61.122
2015    3        1    13  47    6.4993   585.4    4.212      61.142
2015    3        1    13  53    6.4958   585.6    4.207      61.160
2015    3        1    13  58    6.4930   585.8    4.201      61.179
2015    3        1    14   3    6.4895   586.0    4.195      61.197
2015    3        1    14   8    6.4863   586.2    4.190      61.215
2015    3        1    14  13    6.4831   586.4    4.184      61.233
2015    3        1    14  18    6.4799   586.6    4.179      61.251
2015    3        1    14  24    6.4770   586.8    4.173      61.268
2015    3        1    14  29    6.4737   587.0    4.168      61.285
2015    3        1    14  34    6.4701   587.2    4.163      61.302
2015    3        1    14  39    6.4671   587.4    4.157      61.318
2015    3        1    14  44    6.4638   587.5    4.152      61.334
2015    3        1    14  50    6.4601   587.7    4.147      61.349
2015    3        1    14  55    6.4568   587.9    4.141      61.364
2015    3        1    15   0    6.4534   588.1    4.136      61.378
2015    3        1    15   5    6.4503   588.3    4.131      61.392
2015    3        1    15  10    6.4469   588.4    4.126      61.405
2015    3        1    15  15    6.4430   588.6    4.120      61.418
2015    3        1    15  21    6.4399   588.8    4.115      61.430
2015    3        1    15  26    6.4364   589.0    4.110      61.442
2015    3        1    15  31    6.4328   589.2    4.105      61.453
2015    3        1    15  36    6.4292   589.3    4.099      61.464
2015    3        1    15  41    6.4253   589.5    4.094      61.475
2015    3        1    15  47    6.4220   589.7    4.089      61.484
2015    3        1    15  52    6.4183   589.8    4.084      61.493
2015    3        1    15  57    6.4146   590.0    4.078      61.502
2015    3        1    16   2    6.4105   590.2    4.073      61.511
2015    3        1    16   7    6.4070   590.4    4.068      61.519
2015    3        1    16  13    6.4029   590.5    4.062      61.526
2015    3        1    16  18    6.3990   590.7    4.057      61.533
2015    3        1    16  23    6.3952   590.9    4.051      61.540
2015    3        1    16  28    6.3913   591.0    4.046      61.546
2015    3        1    16  33    6.3876   591.2    4.041      61.552
2015    3        1    16  38    6.3837   591.4    4.035      61.558
2015    3        1    16  44    6.3793   591.5    4.030      61.563
2015    3        1    16  49    6.3753   591.7    4.025      61.569
2015    3        1    16  54    6.3712   591.9    4.019      61.574
2015    3        1    16  59    6.3674   592.0    4.014      61.578
2015    3        1    17   4    6.3630   592.2    4.009      61.583
2015    3        1    17  10    6.3591   592.4    4.003      61.587
2015    3        1    17  15    6.3550   592.5    3.998      61.590
2015    3        1    17  20    6.3507   592.7    3.993      61.594
2015    3        1    17  25    6.3465   592.8    3.987      61.597
2015    3        1    17  30    6.3419   593.0    3.982      61.600
2015    3        1    17  35    6.3380   593.2    3.977      61.602
2015    3        1    17  41    6.3336   593.3    3.972      61.605
2015    3        1    17  46    6.3290   593.5    3.966      61.607
2015    3        1    17  51    6.3247   593.6    3.961      61.608
2015    3        1    17  56    6.3206   593.8    3.956      61.610
2015    3        1    18   1    6.3160   593.9    3.951      61.611
2015    3        1    18   7    6.3119   594.1    3.946      61.612
2015    3        1    18  12    6.3075   594.2    3.941      61.613
2015    3        1    18  17    6.3031   594.4    3.936      61.614
2015    3        1    18  22    6.2987   594.5    3.931      61.614
2015    3        1    18  27    6.2940   594.6    3.927      61.614
2015    3        1    18  33    6.2899   594.8    3.922      61.614
2015    3        1    18  38    6.2855   594.9    3.917      61.614
2015    3        1    18  43    6.2808   595.1    3.913      61.614
2015    3        1    18  48    6.2764   595.2    3.908      61.615
2015    3        1    18  53    6.2722   595.3    3.903      61.615
2015    3        1    18  58    6.2678   595.5    3.899      61.615
2015    3        1    19   4    6.2631   595.6    3.894      61.616
2015    3        1    19   9    6.2587   595.7    3.889      61.616
2015    3        1    19  14    6.2546   595.9    3.885      61.616
2015    3        1    19  19    6.2499   596.0    3.880      61.615
2015    3        1    19  24    6.2455   596.1    3.875      61.614
2015    3        1    19  30    6.2411   596.3    3.871      61.613
2015    3        1    19  35    6.2366   596.4    3.866      61.611
2015    3        1    19  40    6.2321   596.5    3.861      61.608
2015    3        1    19  45    6.2277   596.7    3.856      61.605
2015    3        1    19  50    6.2232   596.8    3.851      61.602
2015    3        1    19  56    6.2189   596.9    3.846      61.597
2015    3        1    20   1    6.2142   597.0    3.842      61.592
2015    3        1    20   6    6.2098   597.1    3.837      61.587
2015    3        1    20  11    6.2051   597.3    3.832      61.580
2015    3        1    20  16    6.2007   597.4    3.827      61.572
2015    3        1    20  21    6.1961   597.5    3.822      61.564
2015    3        1    20  27    6.1913   597.6    3.817      61.556
2015    3        1    20  32    6.1869   597.7    3.812      61.546
2015    3        1    20  37    6.1822   597.8    3.807      61.536
2015    3        1    20  42    6.1776   597.9    3.802      61.526
2015    3        1    20  47    6.1728   598.0    3.797      61.514
2015    3        1    20  53    6.1681   598.1    3.792      61.502
2015    3        1    20  58    6.1636   598.2    3.787      61.490
2015    3        1    21   3    6.1589   598.3    3.782      61.477
2015    3        1    21   8    6.1541   598.4    3.778      61.463
2015    3        1    21  13    6.1496   598.5    3.773      61.449
2015    3        1    21  18    6.1449   598.6    3.768      61.434
2015    3        1    21  24    6.1402   598.7    3.763      61.419
2015    3        1    21  29    6.1354   598.8    3.759      61.403
2015    3        1    21  34    6.1307   598.8    3.754      61.386
2015    3        1    21  39    6.1261   598.9    3.750      61.368
2015    3        1    21  44    6.1214   599.0    3.745      61.350
2015    3        1    21  50    6.1167   599.1    3.741      61.330
2015    3        1    21  55    6.1119   599.1    3.736      61.310
2015    3        1    22   0    6.1073   599.2    3.732      61.289
2015    3        1    22   5    6.1025   599.3    3.727      61.267
2015    3        1    22  10    6.0977   599.3    3.723      61.244
2015    3        1    22  16    6.0931   599.4    3.719      61.220
2015    3        1    22  21    6.0884   599.5    3.714      61.195
2015    3        1    22  26    6.0836   599.5    3.710      61.170
2015    3        1    22  31    6.0789   599.6    3.706      61.144
2015    3        1    22  36    6.0741   599.6    3.702      61.117
2015    3        1    22  41    6.0693   599.7    3.697      61.089
2015    3        1    22  47    6.0646   599.8    3.693      61.060
2015    3        1    22  52    6.0599   599.8    3.689      61.031
2015    3        1    22  57    6.0551   599.9    3.685      61.000
2015    3        1    23   2    6.0503   599.9    3.681      60.969
2015    3        1    23   7    6.0455   600.0    3.677      60.938
2015    3        1    23  13    6.0408   600.0    3.673      60.906
2015    3        1    23  18    6.0360   600.1    3.669      60.873
2015    3        1    23  23    6.0312   600.1    3.665      60.840
2015    3        1    23  28    6.0265   600.1    3.661      60.806
2015    3        1    23  33    6.0217   600.2    3.657      60.772
2015    3        1    23  38    6.0170   600.2    3.653      60.737
2015    3        1    23  44    6.0122   600.3    3.650      60.702
2015    3        1    23  49    6.0075   600.3    3.646      60.666
2015    3        1    23  54    6.0028   600.3    3.642      60.631
2015    3        1    23  59    5.9981   600.4    3.639      60.595
2015    3        2     0   4    5.9934   600.4    3.635      60.559
