year    month   day   hour  minute  B_enl V_enl   n_enl       T_enl
[year] [month] [day] [hour][minute] [nT]  [km/s]  [cm-3]      [kK]
2015    2       23     0   4    5.0168   478.6    5.063      40.789
2015    2       23     0   9    5.0162   478.4    5.066      40.764
2015    2       23     0  14    5.0156   478.2    5.068      40.738
2015    2       23     0  20    5.0150   478.1    5.071      40.713
2015    2       23     0  25    5.0145   477.9    5.074      40.688
2015    2       23     0  30    5.0140   477.8    5.076      40.663
2015    2       23     0  35    5.0134   477.6    5.079      40.639
2015    2       23     0  41    5.0129   477.4    5.082      40.614
2015    2       23     0  46    5.0124   477.3    5.085      40.590
2015    2       23     0  51    5.0119   477.1    5.087      40.566
2015    2       23     0  56    5.0114   476.9    5.090      40.542
2015    2       23     1   2    5.0110   476.8    5.093      40.519
2015    2       23     1   7    5.0106   476.6    5.096      40.495
2015    2       23     1  12    5.0101   476.4    5.099      40.472
2015    2       23     1  17    5.0097   476.3    5.103      40.449
2015    2       23     1  22    5.0094   476.1    5.106      40.426
2015    2       23     1  28    5.0090   475.9    5.109      40.404
2015    2       23     1  33    5.0086   475.8    5.112      40.381
2015    2       23     1  38    5.0083   475.6    5.115      40.359
2015    2       23     1  43    5.0080   475.4    5.119      40.337
2015    2       23     1  49    5.0077   475.3    5.122      40.315
2015    2       23     1  54    5.0075   475.1    5.126      40.293
2015    2       23     1  59    5.0073   474.9    5.129      40.271
2015    2       23     2   4    5.0070   474.8    5.133      40.250
2015    2       23     2   9    5.0068   474.6    5.136      40.228
2015    2       23     2  15    5.0066   474.4    5.140      40.207
2015    2       23     2  20    5.0065   474.3    5.143      40.186
2015    2       23     2  25    5.0064   474.1    5.147      40.166
2015    2       23     2  30    5.0063   474.0    5.151      40.145
2015    2       23     2  36    5.0062   473.8    5.155      40.124
2015    2       23     2  41    5.0063   473.6    5.158      40.104
2015    2       23     2  46    5.0061   473.5    5.162      40.083
2015    2       23     2  51    5.0061   473.3    5.166      40.063
2015    2       23     2  57    5.0062   473.1    5.170      40.042
2015    2       23     3   2    5.0062   473.0    5.173      40.021
2015    2       23     3   7    5.0064   472.8    5.177      40.001
2015    2       23     3  12    5.0063   472.6    5.181      39.980
2015    2       23     3  17    5.0064   472.5    5.185      39.959
2015    2       23     3  23    5.0065   472.3    5.188      39.938
2015    2       23     3  28    5.0067   472.2    5.192      39.917
2015    2       23     3  33    5.0068   472.0    5.196      39.895
2015    2       23     3  38    5.0070   471.8    5.199      39.874
2015    2       23     3  44    5.0071   471.7    5.203      39.852
2015    2       23     3  49    5.0073   471.5    5.207      39.830
2015    2       23     3  54    5.0075   471.4    5.210      39.808
2015    2       23     3  59    5.0079   471.2    5.214      39.786
2015    2       23     4   5    5.0079   471.0    5.217      39.763
2015    2       23     4  10    5.0082   470.9    5.221      39.740
2015    2       23     4  15    5.0084   470.7    5.224      39.718
2015    2       23     4  20    5.0087   470.6    5.228      39.695
2015    2       23     4  25    5.0089   470.4    5.231      39.672
2015    2       23     4  31    5.0092   470.3    5.235      39.649
2015    2       23     4  36    5.0095   470.1    5.238      39.626
2015    2       23     4  41    5.0099   470.0    5.242      39.603
2015    2       23     4  46    5.0102   469.8    5.246      39.580
2015    2       23     4  52    5.0107   469.6    5.249      39.557
2015    2       23     4  57    5.0110   469.5    5.253      39.533
2015    2       23     5   2    5.0115   469.3    5.256      39.510
2015    2       23     5   7    5.0117   469.2    5.260      39.487
2015    2       23     5  13    5.0123   469.0    5.264      39.464
2015    2       23     5  18    5.0126   468.9    5.267      39.441
2015    2       23     5  23    5.0131   468.7    5.271      39.418
2015    2       23     5  28    5.0135   468.6    5.275      39.395
2015    2       23     5  33    5.0140   468.4    5.279      39.372
2015    2       23     5  39    5.0145   468.3    5.282      39.349
2015    2       23     5  44    5.0151   468.1    5.286      39.327
2015    2       23     5  49    5.0156   468.0    5.290      39.304
2015    2       23     5  54    5.0162   467.8    5.294      39.282
2015    2       23     6   0    5.0167   467.7    5.298      39.260
2015    2       23     6   5    5.0173   467.5    5.302      39.238
2015    2       23     6  10    5.0179   467.4    5.306      39.216
2015    2       23     6  15    5.0186   467.2    5.311      39.195
2015    2       23     6  20    5.0192   467.1    5.315      39.173
2015    2       23     6  26    5.0198   466.9    5.319      39.152
2015    2       23     6  31    5.0205   466.8    5.323      39.131
2015    2       23     6  36    5.0213   466.6    5.328      39.110
2015    2       23     6  41    5.0218   466.5    5.332      39.090
2015    2       23     6  47    5.0227   466.3    5.337      39.069
2015    2       23     6  52    5.0233   466.2    5.341      39.049
2015    2       23     6  57    5.0242   466.0    5.346      39.030
2015    2       23     7   2    5.0248   465.9    5.350      39.010
2015    2       23     7   8    5.0255   465.7    5.355      38.991
2015    2       23     7  13    5.0263   465.6    5.360      38.972
2015    2       23     7  18    5.0271   465.5    5.365      38.954
2015    2       23     7  23    5.0279   465.3    5.370      38.935
2015    2       23     7  28    5.0287   465.2    5.375      38.918
2015    2       23     7  34    5.0296   465.0    5.380      38.900
2015    2       23     7  39    5.0304   464.9    5.385      38.883
2015    2       23     7  44    5.0313   464.7    5.390      38.866
2015    2       23     7  49    5.0322   464.6    5.395      38.850
2015    2       23     7  55    5.0332   464.5    5.401      38.834
2015    2       23     8   0    5.0340   464.3    5.406      38.818
2015    2       23     8   5    5.0349   464.2    5.412      38.803
2015    2       23     8  10    5.0359   464.0    5.417      38.788
2015    2       23     8  16    5.0369   463.9    5.423      38.773
2015    2       23     8  21    5.0379   463.7    5.429      38.760
2015    2       23     8  26    5.0390   463.6    5.435      38.746
2015    2       23     8  31    5.0399   463.5    5.441      38.733
2015    2       23     8  36    5.0410   463.3    5.447      38.720
2015    2       23     8  42    5.0421   463.2    5.453      38.708
2015    2       23     8  47    5.0432   463.1    5.460      38.697
2015    2       23     8  52    5.0444   462.9    5.466      38.686
2015    2       23     8  57    5.0455   462.8    5.473      38.675
2015    2       23     9   3    5.0467   462.6    5.479      38.665
2015    2       23     9   8    5.0480   462.5    5.486      38.655
2015    2       23     9  13    5.0492   462.4    5.493      38.646
2015    2       23     9  18    5.0507   462.2    5.500      38.637
2015    2       23     9  23    5.0518   462.1    5.507      38.629
2015    2       23     9  29    5.0531   462.0    5.514      38.621
2015    2       23     9  34    5.0545   461.9    5.521      38.614
2015    2       23     9  39    5.0559   461.7    5.528      38.607
2015    2       23     9  44    5.0573   461.6    5.536      38.600
2015    2       23     9  50    5.0588   461.5    5.543      38.594
2015    2       23     9  55    5.0603   461.3    5.551      38.589
2015    2       23    10   0    5.0618   461.2    5.558      38.583
2015    2       23    10   5    5.0633   461.1    5.566      38.578
2015    2       23    10  11    5.0649   461.0    5.573      38.573
2015    2       23    10  16    5.0664   460.9    5.581      38.569
2015    2       23    10  21    5.0680   460.7    5.589      38.564
2015    2       23    10  26    5.0697   460.6    5.596      38.560
2015    2       23    10  31    5.0713   460.5    5.604      38.555
2015    2       23    10  37    5.0729   460.4    5.612      38.551
2015    2       23    10  42    5.0746   460.3    5.619      38.546
2015    2       23    10  47    5.0763   460.2    5.627      38.542
2015    2       23    10  52    5.0780   460.0    5.635      38.538
2015    2       23    10  58    5.0797   459.9    5.642      38.534
2015    2       23    11   3    5.0816   459.8    5.650      38.529
2015    2       23    11   8    5.0831   459.7    5.658      38.525
2015    2       23    11  13    5.0849   459.6    5.665      38.520
2015    2       23    11  19    5.0866   459.5    5.673      38.516
2015    2       23    11  24    5.0884   459.4    5.680      38.512
2015    2       23    11  29    5.0902   459.3    5.688      38.508
2015    2       23    11  34    5.0920   459.2    5.695      38.504
2015    2       23    11  39    5.0938   459.1    5.703      38.500
2015    2       23    11  45    5.0956   459.0    5.710      38.497
2015    2       23    11  50    5.0974   458.9    5.717      38.494
2015    2       23    11  55    5.0992   458.8    5.725      38.491
2015    2       23    12   0    5.1011   458.7    5.732      38.488
2015    2       23    12   6    5.1031   458.6    5.739      38.486
2015    2       23    12  11    5.1048   458.5    5.746      38.483
2015    2       23    12  16    5.1067   458.4    5.753      38.480
2015    2       23    12  21    5.1085   458.3    5.760      38.478
2015    2       23    12  26    5.1104   458.2    5.767      38.475
2015    2       23    12  32    5.1123   458.1    5.774      38.473
2015    2       23    12  37    5.1142   458.0    5.780      38.470
2015    2       23    12  42    5.1160   457.9    5.787      38.468
2015    2       23    12  47    5.1179   457.8    5.793      38.465
2015    2       23    12  53    5.1198   457.7    5.800      38.462
2015    2       23    12  58    5.1217   457.6    5.806      38.459
2015    2       23    13   3    5.1236   457.5    5.813      38.455
2015    2       23    13   8    5.1255   457.4    5.819      38.452
2015    2       23    13  14    5.1274   457.3    5.825      38.448
2015    2       23    13  19    5.1293   457.2    5.831      38.444
2015    2       23    13  24    5.1312   457.2    5.838      38.440
2015    2       23    13  29    5.1331   457.1    5.844      38.435
2015    2       23    13  34    5.1350   457.0    5.850      38.431
2015    2       23    13  40    5.1370   456.9    5.856      38.426
2015    2       23    13  45    5.1388   456.8    5.861      38.421
2015    2       23    13  50    5.1407   456.7    5.867      38.416
2015    2       23    13  55    5.1426   456.7    5.873      38.411
2015    2       23    14   1    5.1445   456.6    5.879      38.406
2015    2       23    14   6    5.1464   456.5    5.885      38.401
2015    2       23    14  11    5.1484   456.4    5.890      38.396
2015    2       23    14  16    5.1502   456.3    5.896      38.390
2015    2       23    14  22    5.1521   456.3    5.902      38.385
2015    2       23    14  27    5.1540   456.2    5.907      38.379
2015    2       23    14  32    5.1559   456.1    5.913      38.374
2015    2       23    14  37    5.1580   456.0    5.918      38.368
2015    2       23    14  42    5.1599   456.0    5.924      38.363
2015    2       23    14  48    5.1617   455.9    5.930      38.357
2015    2       23    14  53    5.1636   455.8    5.935      38.352
2015    2       23    14  58    5.1655   455.7    5.941      38.346
2015    2       23    15   3    5.1674   455.7    5.946      38.340
2015    2       23    15   9    5.1694   455.6    5.951      38.334
2015    2       23    15  14    5.1713   455.5    5.957      38.329
2015    2       23    15  19    5.1732   455.5    5.962      38.323
2015    2       23    15  24    5.1753   455.4    5.968      38.318
2015    2       23    15  30    5.1771   455.3    5.973      38.312
2015    2       23    15  35    5.1791   455.3    5.979      38.306
2015    2       23    15  40    5.1810   455.2    5.984      38.301
2015    2       23    15  45    5.1830   455.1    5.990      38.295
2015    2       23    15  50    5.1849   455.1    5.995      38.290
2015    2       23    15  56    5.1869   455.0    6.000      38.284
2015    2       23    16   1    5.1889   454.9    6.006      38.279
2015    2       23    16   6    5.1908   454.9    6.011      38.273
2015    2       23    16  11    5.1928   454.8    6.017      38.268
2015    2       23    16  17    5.1948   454.7    6.022      38.262
2015    2       23    16  22    5.1968   454.7    6.028      38.257
2015    2       23    16  27    5.1988   454.6    6.033      38.252
2015    2       23    16  32    5.2008   454.6    6.039      38.246
2015    2       23    16  37    5.2028   454.5    6.044      38.241
2015    2       23    16  43    5.2048   454.4    6.050      38.236
2015    2       23    16  48    5.2068   454.4    6.055      38.230
2015    2       23    16  53    5.2088   454.3    6.061      38.225
2015    2       23    16  58    5.2108   454.3    6.067      38.220
2015    2       23    17   4    5.2129   454.2    6.072      38.215
2015    2       23    17   9    5.2149   454.1    6.078      38.210
2015    2       23    17  14    5.2169   454.1    6.083      38.206
2015    2       23    17  19    5.2189   454.0    6.089      38.201
2015    2       23    17  25    5.2210   454.0    6.095      38.196
2015    2       23    17  30    5.2230   453.9    6.100      38.192
2015    2       23    17  35    5.2250   453.9    6.106      38.187
2015    2       23    17  40    5.2271   453.8    6.112      38.183
2015    2       23    17  45    5.2291   453.8    6.118      38.179
2015    2       23    17  51    5.2311   453.7    6.123      38.175
2015    2       23    17  56    5.2332   453.7    6.129      38.172
2015    2       23    18   1    5.2352   453.6    6.135      38.168
2015    2       23    18   6    5.2373   453.5    6.141      38.165
2015    2       23    18  12    5.2393   453.5    6.147      38.161
2015    2       23    18  17    5.2414   453.4    6.153      38.159
2015    2       23    18  22    5.2435   453.4    6.159      38.156
2015    2       23    18  27    5.2455   453.3    6.165      38.154
2015    2       23    18  33    5.2476   453.3    6.171      38.151
2015    2       23    18  38    5.2497   453.2    6.177      38.149
2015    2       23    18  43    5.2517   453.2    6.183      38.148
2015    2       23    18  48    5.2538   453.1    6.189      38.147
2015    2       23    18  53    5.2559   453.1    6.195      38.146
2015    2       23    18  59    5.2580   453.1    6.201      38.146
2015    2       23    19   4    5.2601   453.0    6.207      38.146
2015    2       23    19   9    5.2622   453.0    6.213      38.147
2015    2       23    19  14    5.2643   452.9    6.219      38.148
2015    2       23    19  20    5.2664   452.9    6.225      38.150
2015    2       23    19  25    5.2685   452.8    6.231      38.151
2015    2       23    19  30    5.2706   452.8    6.237      38.153
2015    2       23    19  35    5.2728   452.7    6.243      38.155
2015    2       23    19  40    5.2749   452.7    6.249      38.158
2015    2       23    19  46    5.2770   452.7    6.255      38.160
2015    2       23    19  51    5.2790   452.6    6.261      38.163
2015    2       23    19  56    5.2811   452.6    6.267      38.166
2015    2       23    20   1    5.2832   452.5    6.272      38.168
2015    2       23    20   7    5.2853   452.5    6.278      38.171
2015    2       23    20  12    5.2874   452.5    6.283      38.174
2015    2       23    20  17    5.2895   452.4    6.289      38.176
2015    2       23    20  22    5.2915   452.4    6.294      38.178
2015    2       23    20  28    5.2936   452.3    6.299      38.181
2015    2       23    20  33    5.2956   452.3    6.305      38.183
2015    2       23    20  38    5.2976   452.3    6.310      38.185
2015    2       23    20  43    5.2996   452.2    6.315      38.186
2015    2       23    20  48    5.3017   452.2    6.320      38.188
2015    2       23    20  54    5.3037   452.1    6.325      38.189
2015    2       23    20  59    5.3057   452.1    6.330      38.190
2015    2       23    21   4    5.3077   452.1    6.334      38.191
2015    2       23    21   9    5.3097   452.0    6.339      38.192
2015    2       23    21  15    5.3117   452.0    6.344      38.193
2015    2       23    21  20    5.3137   452.0    6.348      38.193
2015    2       23    21  25    5.3157   451.9    6.353      38.194
2015    2       23    21  30    5.3177   451.9    6.357      38.194
2015    2       23    21  36    5.3197   451.9    6.362      38.194
2015    2       23    21  41    5.3216   451.8    6.366      38.194
2015    2       23    21  46    5.3236   451.8    6.370      38.193
2015    2       23    21  51    5.3255   451.8    6.374      38.193
2015    2       23    21  56    5.3275   451.7    6.379      38.192
2015    2       23    22   2    5.3295   451.7    6.383      38.191
2015    2       23    22   7    5.3314   451.7    6.387      38.190
2015    2       23    22  12    5.3334   451.6    6.391      38.189
2015    2       23    22  17    5.3353   451.6    6.395      38.188
2015    2       23    22  23    5.3373   451.6    6.398      38.186
2015    2       23    22  28    5.3392   451.5    6.402      38.184
2015    2       23    22  33    5.3411   451.5    6.406      38.183
2015    2       23    22  38    5.3430   451.5    6.410      38.181
2015    2       23    22  43    5.3450   451.4    6.413      38.179
2015    2       23    22  49    5.3469   451.4    6.417      38.177
2015    2       23    22  54    5.3488   451.4    6.421      38.175
2015    2       23    22  59    5.3507   451.4    6.424      38.173
2015    2       23    23   4    5.3526   451.3    6.428      38.170
2015    2       23    23  10    5.3545   451.3    6.431      38.168
2015    2       23    23  15    5.3564   451.3    6.435      38.166
2015    2       23    23  20    5.3583   451.2    6.438      38.163
2015    2       23    23  25    5.3602   451.2    6.442      38.160
2015    2       23    23  31    5.3621   451.2    6.445      38.158
2015    2       23    23  36    5.3640   451.2    6.448      38.155
2015    2       23    23  41    5.3659   451.1    6.452      38.153
2015    2       23    23  46    5.3678   451.1    6.455      38.150
2015    2       23    23  51    5.3697   451.1    6.458      38.147
2015    2       23    23  57    5.3716   451.1    6.461      38.144
2015    2       24     0   2    5.3734   451.0    6.465      38.141
2015    2       24     0   7    5.3753   451.0    6.468      38.138
2015    2       24     0  12    5.3772   451.0    6.471      38.136
2015    2       24     0  18    5.3791   451.0    6.474      38.133
2015    2       24     0  23    5.3809   450.9    6.477      38.130
2015    2       24     0  28    5.3828   450.9    6.480      38.127
2015    2       24     0  33    5.3846   450.9    6.484      38.124
2015    2       24     0  39    5.3865   450.9    6.487      38.122
2015    2       24     0  44    5.3884   450.8    6.490      38.119
2015    2       24     0  49    5.3903   450.8    6.493      38.116
2015    2       24     0  54    5.3921   450.8    6.496      38.114
2015    2       24     0  59    5.3940   450.8    6.499      38.111
2015    2       24     1   5    5.3959   450.7    6.502      38.109
2015    2       24     1  10    5.3977   450.7    6.505      38.107
2015    2       24     1  15    5.3996   450.7    6.508      38.104
2015    2       24     1  20    5.4015   450.7    6.511      38.102
2015    2       24     1  26    5.4034   450.6    6.514      38.100
2015    2       24     1  31    5.4053   450.6    6.517      38.099
2015    2       24     1  36    5.4072   450.6    6.520      38.097
2015    2       24     1  41    5.4090   450.6    6.524      38.095
2015    2       24     1  47    5.4109   450.6    6.527      38.094
2015    2       24     1  52    5.4128   450.5    6.530      38.093
2015    2       24     1  57    5.4147   450.5    6.533      38.091
2015    2       24     2   2    5.4166   450.5    6.536      38.090
2015    2       24     2   7    5.4185   450.5    6.539      38.090
2015    2       24     2  13    5.4204   450.5    6.542      38.089
2015    2       24     2  18    5.4223   450.4    6.545      38.088
2015    2       24     2  23    5.4242   450.4    6.549      38.088
2015    2       24     2  28    5.4262   450.4    6.552      38.088
2015    2       24     2  34    5.4281   450.4    6.555      38.088
2015    2       24     2  39    5.4300   450.4    6.558      38.088
2015    2       24     2  44    5.4320   450.4    6.562      38.088
2015    2       24     2  49    5.4339   450.3    6.565      38.088
2015    2       24     2  54    5.4359   450.3    6.568      38.089
2015    2       24     3   0    5.4378   450.3    6.571      38.089
2015    2       24     3   5    5.4398   450.3    6.575      38.090
2015    2       24     3  10    5.4417   450.3    6.578      38.090
2015    2       24     3  15    5.4437   450.3    6.581      38.091
2015    2       24     3  21    5.4456   450.2    6.584      38.092
2015    2       24     3  26    5.4476   450.2    6.588      38.093
2015    2       24     3  31    5.4496   450.2    6.591      38.094
2015    2       24     3  36    5.4516   450.2    6.594      38.095
2015    2       24     3  42    5.4535   450.2    6.597      38.096
2015    2       24     3  47    5.4555   450.2    6.601      38.097
2015    2       24     3  52    5.4574   450.2    6.604      38.098
2015    2       24     3  57    5.4594   450.1    6.607      38.099
2015    2       24     4   2    5.4614   450.1    6.610      38.100
2015    2       24     4   8    5.4634   450.1    6.613      38.102
2015    2       24     4  13    5.4654   450.1    6.616      38.103
2015    2       24     4  18    5.4673   450.1    6.619      38.104
2015    2       24     4  23    5.4693   450.1    6.622      38.105
2015    2       24     4  29    5.4713   450.1    6.625      38.106
2015    2       24     4  34    5.4733   450.1    6.628      38.107
2015    2       24     4  39    5.4752   450.1    6.631      38.108
2015    2       24     4  44    5.4772   450.0    6.634      38.109
2015    2       24     4  50    5.4791   450.0    6.637      38.110
2015    2       24     4  55    5.4811   450.0    6.640      38.110
2015    2       24     5   0    5.4830   450.0    6.643      38.111
2015    2       24     5   5    5.4850   450.0    6.646      38.111
2015    2       24     5  10    5.4869   450.0    6.648      38.112
2015    2       24     5  16    5.4889   450.0    6.651      38.112
2015    2       24     5  21    5.4908   450.0    6.654      38.113
2015    2       24     5  26    5.4927   449.9    6.656      38.113
2015    2       24     5  31    5.4947   449.9    6.659      38.113
2015    2       24     5  37    5.4966   449.9    6.661      38.113
2015    2       24     5  42    5.4985   449.9    6.664      38.112
2015    2       24     5  47    5.5004   449.9    6.666      38.112
2015    2       24     5  52    5.5023   449.9    6.669      38.112
2015    2       24     5  57    5.5042   449.9    6.671      38.111
2015    2       24     6   3    5.5061   449.9    6.673      38.111
2015    2       24     6   8    5.5080   449.9    6.676      38.110
2015    2       24     6  13    5.5099   449.9    6.678      38.109
2015    2       24     6  18    5.5118   449.8    6.680      38.108
2015    2       24     6  24    5.5137   449.8    6.682      38.107
2015    2       24     6  29    5.5156   449.8    6.684      38.106
2015    2       24     6  34    5.5174   449.8    6.686      38.105
2015    2       24     6  39    5.5193   449.8    6.688      38.103
2015    2       24     6  45    5.5212   449.8    6.690      38.102
2015    2       24     6  50    5.5230   449.8    6.692      38.100
2015    2       24     6  55    5.5249   449.8    6.694      38.099
2015    2       24     7   0    5.5268   449.8    6.696      38.097
2015    2       24     7   5    5.5286   449.8    6.698      38.096
2015    2       24     7  11    5.5305   449.8    6.700      38.094
2015    2       24     7  16    5.5324   449.7    6.702      38.093
2015    2       24     7  21    5.5342   449.7    6.704      38.091
2015    2       24     7  26    5.5361   449.7    6.706      38.089
2015    2       24     7  32    5.5380   449.7    6.707      38.088
2015    2       24     7  37    5.5398   449.7    6.709      38.086
2015    2       24     7  42    5.5417   449.7    6.711      38.085
2015    2       24     7  47    5.5435   449.7    6.713      38.083
2015    2       24     7  53    5.5454   449.7    6.714      38.082
2015    2       24     7  58    5.5473   449.7    6.716      38.080
2015    2       24     8   3    5.5491   449.7    6.718      38.079
2015    2       24     8   8    5.5510   449.7    6.720      38.077
2015    2       24     8  13    5.5529   449.6    6.721      38.076
2015    2       24     8  19    5.5547   449.6    6.723      38.075
2015    2       24     8  24    5.5566   449.6    6.725      38.074
2015    2       24     8  29    5.5585   449.6    6.726      38.073
2015    2       24     8  34    5.5604   449.6    6.728      38.072
2015    2       24     8  40    5.5623   449.6    6.730      38.071
2015    2       24     8  45    5.5642   449.6    6.731      38.070
2015    2       24     8  50    5.5661   449.6    6.733      38.070
2015    2       24     8  55    5.5680   449.6    6.735      38.069
2015    2       24     9   0    5.5699   449.6    6.737      38.069
2015    2       24     9   6    5.5718   449.6    6.738      38.069
2015    2       24     9  11    5.5738   449.6    6.740      38.069
2015    2       24     9  16    5.5757   449.6    6.742      38.069
2015    2       24     9  21    5.5777   449.6    6.743      38.069
2015    2       24     9  27    5.5796   449.6    6.745      38.069
2015    2       24     9  32    5.5816   449.6    6.747      38.070
2015    2       24     9  37    5.5836   449.6    6.749      38.071
2015    2       24     9  42    5.5856   449.6    6.751      38.071
2015    2       24     9  48    5.5876   449.5    6.753      38.072
2015    2       24     9  53    5.5896   449.5    6.754      38.074
2015    2       24     9  58    5.5916   449.5    6.756      38.075
2015    2       24    10   3    5.5937   449.5    6.758      38.076
2015    2       24    10   8    5.5957   449.5    6.760      38.078
2015    2       24    10  14    5.5978   449.5    6.762      38.079
2015    2       24    10  19    5.5998   449.5    6.764      38.081
2015    2       24    10  24    5.6019   449.5    6.766      38.083
2015    2       24    10  29    5.6040   449.5    6.768      38.085
2015    2       24    10  35    5.6060   449.5    6.770      38.087
2015    2       24    10  40    5.6081   449.5    6.772      38.089
2015    2       24    10  45    5.6102   449.5    6.774      38.092
2015    2       24    10  50    5.6123   449.5    6.776      38.094
2015    2       24    10  56    5.6144   449.5    6.778      38.096
2015    2       24    11   1    5.6165   449.5    6.780      38.099
2015    2       24    11   6    5.6186   449.5    6.783      38.102
2015    2       24    11  11    5.6208   449.6    6.785      38.104
2015    2       24    11  16    5.6229   449.6    6.787      38.107
2015    2       24    11  22    5.6250   449.6    6.789      38.109
2015    2       24    11  27    5.6272   449.6    6.791      38.112
2015    2       24    11  32    5.6293   449.6    6.793      38.115
2015    2       24    11  37    5.6314   449.6    6.795      38.117
2015    2       24    11  43    5.6335   449.6    6.797      38.120
2015    2       24    11  48    5.6357   449.6    6.799      38.123
2015    2       24    11  53    5.6378   449.6    6.801      38.126
2015    2       24    11  58    5.6399   449.6    6.803      38.128
2015    2       24    12   4    5.6421   449.6    6.805      38.131
2015    2       24    12   9    5.6442   449.6    6.807      38.134
2015    2       24    12  14    5.6463   449.6    6.809      38.136
2015    2       24    12  19    5.6485   449.6    6.811      38.139
2015    2       24    12  24    5.6506   449.6    6.813      38.141
2015    2       24    12  30    5.6528   449.6    6.815      38.144
2015    2       24    12  35    5.6549   449.6    6.817      38.146
2015    2       24    12  40    5.6570   449.6    6.819      38.148
2015    2       24    12  45    5.6592   449.6    6.820      38.151
2015    2       24    12  51    5.6613   449.6    6.822      38.153
2015    2       24    12  56    5.6634   449.6    6.824      38.155
2015    2       24    13   1    5.6656   449.7    6.825      38.157
2015    2       24    13   6    5.6677   449.7    6.827      38.159
2015    2       24    13  11    5.6698   449.7    6.829      38.160
2015    2       24    13  17    5.6719   449.7    6.830      38.162
2015    2       24    13  22    5.6741   449.7    6.832      38.163
2015    2       24    13  27    5.6762   449.7    6.833      38.165
2015    2       24    13  32    5.6784   449.7    6.835      38.166
2015    2       24    13  38    5.6805   449.7    6.836      38.167
2015    2       24    13  43    5.6826   449.7    6.837      38.168
2015    2       24    13  48    5.6848   449.7    6.839      38.169
2015    2       24    13  53    5.6869   449.7    6.840      38.170
2015    2       24    13  59    5.6890   449.7    6.841      38.171
2015    2       24    14   4    5.6912   449.7    6.843      38.172
2015    2       24    14   9    5.6933   449.7    6.844      38.172
2015    2       24    14  14    5.6955   449.7    6.845      38.173
2015    2       24    14  19    5.6976   449.7    6.846      38.173
2015    2       24    14  25    5.6998   449.8    6.848      38.174
2015    2       24    14  30    5.7020   449.8    6.849      38.175
2015    2       24    14  35    5.7041   449.8    6.850      38.175
2015    2       24    14  40    5.7063   449.8    6.851      38.176
2015    2       24    14  46    5.7085   449.8    6.852      38.177
2015    2       24    14  51    5.7107   449.8    6.853      38.177
2015    2       24    14  56    5.7129   449.8    6.855      38.178
2015    2       24    15   1    5.7151   449.8    6.856      38.179
2015    2       24    15   7    5.7173   449.8    6.857      38.179
2015    2       24    15  12    5.7195   449.8    6.858      38.180
2015    2       24    15  17    5.7218   449.8    6.859      38.181
2015    2       24    15  22    5.7240   449.8    6.860      38.182
2015    2       24    15  27    5.7263   449.8    6.861      38.183
2015    2       24    15  33    5.7286   449.8    6.863      38.184
2015    2       24    15  38    5.7309   449.8    6.864      38.186
2015    2       24    15  43    5.7332   449.9    6.865      38.187
2015    2       24    15  48    5.7355   449.9    6.866      38.189
2015    2       24    15  54    5.7378   449.9    6.868      38.191
2015    2       24    15  59    5.7402   449.9    6.869      38.193
2015    2       24    16   4    5.7425   449.9    6.870      38.195
2015    2       24    16   9    5.7449   449.9    6.872      38.197
2015    2       24    16  14    5.7473   449.9    6.873      38.199
2015    2       24    16  20    5.7497   449.9    6.875      38.202
2015    2       24    16  25    5.7522   449.9    6.876      38.205
2015    2       24    16  30    5.7546   449.9    6.878      38.208
2015    2       24    16  35    5.7571   449.9    6.879      38.211
2015    2       24    16  41    5.7596   449.9    6.881      38.215
2015    2       24    16  46    5.7621   450.0    6.882      38.218
2015    2       24    16  51    5.7646   450.0    6.884      38.222
2015    2       24    16  56    5.7671   450.0    6.886      38.226
2015    2       24    17   2    5.7697   450.0    6.888      38.231
2015    2       24    17   7    5.7723   450.0    6.889      38.236
2015    2       24    17  12    5.7748   450.0    6.891      38.241
2015    2       24    17  17    5.7775   450.0    6.893      38.246
2015    2       24    17  22    5.7801   450.0    6.895      38.252
2015    2       24    17  28    5.7827   450.1    6.897      38.258
2015    2       24    17  33    5.7854   450.1    6.899      38.264
2015    2       24    17  38    5.7880   450.1    6.901      38.270
2015    2       24    17  43    5.7907   450.1    6.903      38.277
2015    2       24    17  49    5.7934   450.1    6.905      38.283
2015    2       24    17  54    5.7961   450.1    6.907      38.290
2015    2       24    17  59    5.7988   450.2    6.909      38.297
2015    2       24    18   4    5.8016   450.2    6.911      38.304
2015    2       24    18  10    5.8043   450.2    6.913      38.311
2015    2       24    18  15    5.8071   450.2    6.915      38.318
2015    2       24    18  20    5.8099   450.2    6.917      38.325
2015    2       24    18  25    5.8127   450.2    6.920      38.332
2015    2       24    18  30    5.8155   450.3    6.922      38.339
2015    2       24    18  36    5.8183   450.3    6.924      38.346
2015    2       24    18  41    5.8212   450.3    6.926      38.354
2015    2       24    18  46    5.8240   450.3    6.928      38.361
2015    2       24    18  51    5.8269   450.3    6.930      38.369
2015    2       24    18  57    5.8298   450.3    6.933      38.376
2015    2       24    19   2    5.8327   450.4    6.935      38.384
2015    2       24    19   7    5.8356   450.4    6.937      38.392
2015    2       24    19  12    5.8385   450.4    6.939      38.400
2015    2       24    19  17    5.8414   450.4    6.941      38.408
2015    2       24    19  23    5.8444   450.4    6.943      38.416
2015    2       24    19  28    5.8472   450.5    6.945      38.424
2015    2       24    19  33    5.8502   450.5    6.947      38.432
2015    2       24    19  38    5.8531   450.5    6.949      38.440
2015    2       24    19  44    5.8560   450.5    6.951      38.448
2015    2       24    19  49    5.8590   450.6    6.953      38.456
2015    2       24    19  54    5.8619   450.6    6.955      38.465
2015    2       24    19  59    5.8649   450.6    6.957      38.472
2015    2       24    20   5    5.8678   450.6    6.958      38.480
2015    2       24    20  10    5.8708   450.6    6.960      38.488
2015    2       24    20  15    5.8738   450.7    6.962      38.496
2015    2       24    20  20    5.8767   450.7    6.963      38.504
2015    2       24    20  25    5.8797   450.7    6.965      38.511
2015    2       24    20  31    5.8827   450.7    6.967      38.518
2015    2       24    20  36    5.8857   450.7    6.968      38.526
2015    2       24    20  41    5.8886   450.8    6.970      38.533
2015    2       24    20  46    5.8916   450.8    6.971      38.540
2015    2       24    20  52    5.8947   450.8    6.973      38.547
2015    2       24    20  57    5.8977   450.8    6.974      38.553
2015    2       24    21   2    5.9007   450.8    6.975      38.560
2015    2       24    21   7    5.9038   450.9    6.977      38.567
2015    2       24    21  13    5.9068   450.9    6.978      38.574
2015    2       24    21  18    5.9099   450.9    6.980      38.580
2015    2       24    21  23    5.9131   450.9    6.981      38.587
2015    2       24    21  28    5.9161   450.9    6.982      38.594
2015    2       24    21  33    5.9192   451.0    6.984      38.600
2015    2       24    21  39    5.9224   451.0    6.985      38.607
2015    2       24    21  44    5.9256   451.0    6.987      38.614
2015    2       24    21  49    5.9288   451.0    6.988      38.621
2015    2       24    21  54    5.9320   451.0    6.990      38.628
2015    2       24    22   0    5.9353   451.1    6.992      38.635
2015    2       24    22   5    5.9386   451.1    6.993      38.643
2015    2       24    22  10    5.9420   451.1    6.995      38.650
2015    2       24    22  15    5.9453   451.1    6.997      38.658
2015    2       24    22  20    5.9487   451.1    6.999      38.666
2015    2       24    22  26    5.9521   451.2    7.001      38.675
2015    2       24    22  31    5.9556   451.2    7.003      38.683
2015    2       24    22  36    5.9591   451.2    7.005      38.693
2015    2       24    22  41    5.9626   451.2    7.007      38.703
2015    2       24    22  47    5.9663   451.3    7.010      38.713
2015    2       24    22  52    5.9698   451.3    7.012      38.724
2015    2       24    22  57    5.9734   451.3    7.014      38.736
2015    2       24    23   2    5.9772   451.3    7.017      38.747
2015    2       24    23   8    5.9808   451.4    7.019      38.760
2015    2       24    23  13    5.9845   451.4    7.022      38.772
2015    2       24    23  18    5.9883   451.4    7.024      38.785
2015    2       24    23  23    5.9921   451.5    7.027      38.798
2015    2       24    23  28    5.9960   451.5    7.030      38.812
2015    2       24    23  34    5.9997   451.5    7.032      38.825
2015    2       24    23  39    6.0035   451.6    7.035      38.839
2015    2       24    23  44    6.0074   451.6    7.038      38.854
2015    2       24    23  49    6.0114   451.6    7.040      38.868
2015    2       24    23  55    6.0153   451.7    7.043      38.883
2015    2       25     0   0    6.0191   451.7    7.046      38.897
2015    2       25     0   5    6.0231   451.7    7.049      38.912
2015    2       25     0  10    6.0271   451.8    7.052      38.927
2015    2       25     0  15    6.0312   451.8    7.055      38.942
2015    2       25     0  21    6.0352   451.8    7.058      38.958
2015    2       25     0  26    6.0394   451.9    7.061      38.974
2015    2       25     0  31    6.0435   451.9    7.064      38.990
2015    2       25     0  36    6.0478   451.9    7.067      39.007
2015    2       25     0  42    6.0522   452.0    7.071      39.023
2015    2       25     0  47    6.0564   452.0    7.075      39.041
2015    2       25     0  52    6.0607   452.0    7.078      39.059
2015    2       25     0  57    6.0652   452.1    7.082      39.078
2015    2       25     1   2    6.0698   452.1    7.086      39.097
2015    2       25     1   8    6.0741   452.1    7.090      39.118
2015    2       25     1  13    6.0788   452.2    7.094      39.139
2015    2       25     1  18    6.0833   452.2    7.098      39.160
2015    2       25     1  23    6.0879   452.3    7.102      39.182
2015    2       25     1  29    6.0925   452.3    7.107      39.204
2015    2       25     1  34    6.0972   452.4    7.111      39.227
2015    2       25     1  39    6.1019   452.4    7.115      39.249
2015    2       25     1  44    6.1066   452.5    7.119      39.272
2015    2       25     1  50    6.1113   452.5    7.122      39.294
2015    2       25     1  55    6.1161   452.6    7.126      39.317
2015    2       25     2   0    6.1208   452.6    7.130      39.340
2015    2       25     2   5    6.1257   452.7    7.134      39.363
2015    2       25     2  10    6.1303   452.8    7.137      39.386
2015    2       25     2  16    6.1350   452.8    7.140      39.408
2015    2       25     2  21    6.1397   452.9    7.144      39.430
2015    2       25     2  26    6.1446   452.9    7.147      39.452
2015    2       25     2  31    6.1492   453.0    7.150      39.473
2015    2       25     2  37    6.1539   453.0    7.153      39.495
2015    2       25     2  42    6.1586   453.1    7.155      39.517
2015    2       25     2  47    6.1633   453.2    7.158      39.538
2015    2       25     2  52    6.1682   453.2    7.161      39.560
2015    2       25     2  57    6.1727   453.3    7.163      39.581
2015    2       25     3   3    6.1774   453.4    7.166      39.603
2015    2       25     3   8    6.1823   453.4    7.168      39.625
2015    2       25     3  13    6.1870   453.5    7.170      39.647
2015    2       25     3  18    6.1917   453.5    7.173      39.669
2015    2       25     3  24    6.1964   453.6    7.175      39.691
2015    2       25     3  29    6.2011   453.7    7.177      39.714
2015    2       25     3  34    6.2057   453.7    7.179      39.737
2015    2       25     3  39    6.2104   453.8    7.181      39.760
2015    2       25     3  44    6.2151   453.9    7.183      39.782
2015    2       25     3  50    6.2199   453.9    7.185      39.806
2015    2       25     3  55    6.2246   454.0    7.187      39.829
2015    2       25     4   0    6.2295   454.1    7.189      39.852
2015    2       25     4   5    6.2342   454.1    7.191      39.876
2015    2       25     4  11    6.2391   454.2    7.193      39.899
2015    2       25     4  16    6.2439   454.3    7.195      39.923
2015    2       25     4  21    6.2487   454.3    7.197      39.947
2015    2       25     4  26    6.2534   454.4    7.199      39.971
2015    2       25     4  31    6.2584   454.5    7.201      39.996
2015    2       25     4  37    6.2633   454.6    7.203      40.020
2015    2       25     4  42    6.2681   454.6    7.205      40.045
2015    2       25     4  47    6.2730   454.7    7.207      40.070
2015    2       25     4  52    6.2778   454.8    7.209      40.096
2015    2       25     4  58    6.2828   454.9    7.211      40.121
2015    2       25     5   3    6.2877   454.9    7.213      40.147
2015    2       25     5   8    6.2927   455.0    7.215      40.173
2015    2       25     5  13    6.2976   455.1    7.217      40.200
2015    2       25     5  18    6.3027   455.2    7.220      40.227
2015    2       25     5  24    6.3076   455.2    7.222      40.254
2015    2       25     5  29    6.3126   455.3    7.224      40.281
2015    2       25     5  34    6.3177   455.4    7.227      40.309
2015    2       25     5  39    6.3228   455.5    7.229      40.337
2015    2       25     5  45    6.3279   455.6    7.232      40.366
2015    2       25     5  50    6.3330   455.6    7.234      40.395
2015    2       25     5  55    6.3382   455.7    7.237      40.425
2015    2       25     6   0    6.3433   455.8    7.239      40.455
2015    2       25     6   5    6.3486   455.9    7.242      40.486
2015    2       25     6  11    6.3538   456.0    7.245      40.517
2015    2       25     6  16    6.3590   456.1    7.248      40.549
2015    2       25     6  21    6.3643   456.2    7.251      40.582
2015    2       25     6  26    6.3696   456.3    7.254      40.615
2015    2       25     6  32    6.3749   456.3    7.257      40.649
2015    2       25     6  37    6.3803   456.4    7.260      40.684
2015    2       25     6  42    6.3856   456.5    7.263      40.719
2015    2       25     6  47    6.3910   456.6    7.266      40.754
2015    2       25     6  52    6.3964   456.7    7.270      40.791
2015    2       25     6  58    6.4019   456.8    7.273      40.828
2015    2       25     7   3    6.4073   456.9    7.276      40.865
2015    2       25     7   8    6.4128   457.0    7.280      40.903
2015    2       25     7  13    6.4184   457.1    7.283      40.941
2015    2       25     7  19    6.4240   457.2    7.287      40.981
2015    2       25     7  24    6.4296   457.3    7.291      41.020
2015    2       25     7  29    6.4353   457.4    7.295      41.061
2015    2       25     7  34    6.4411   457.5    7.299      41.102
2015    2       25     7  39    6.4469   457.6    7.304      41.144
2015    2       25     7  45    6.4527   457.7    7.308      41.187
2015    2       25     7  50    6.4586   457.9    7.313      41.231
2015    2       25     7  55    6.4646   458.0    7.318      41.277
2015    2       25     8   0    6.4707   458.1    7.324      41.324
2015    2       25     8   6    6.4768   458.2    7.329      41.373
2015    2       25     8  11    6.4830   458.3    7.335      41.422
2015    2       25     8  16    6.4893   458.4    7.341      41.473
2015    2       25     8  21    6.4956   458.6    7.347      41.525
2015    2       25     8  26    6.5020   458.7    7.353      41.578
2015    2       25     8  32    6.5086   458.8    7.360      41.633
2015    2       25     8  37    6.5150   459.0    7.366      41.689
2015    2       25     8  42    6.5216   459.1    7.373      41.746
2015    2       25     8  47    6.5282   459.2    7.380      41.805
2015    2       25     8  53    6.5348   459.4    7.387      41.864
2015    2       25     8  58    6.5416   459.5    7.394      41.925
2015    2       25     9   3    6.5483   459.7    7.402      41.987
2015    2       25     9   8    6.5550   459.8    7.409      42.050
2015    2       25     9  14    6.5617   460.0    7.416      42.115
2015    2       25     9  19    6.5685   460.1    7.423      42.179
2015    2       25     9  24    6.5752   460.3    7.430      42.245
2015    2       25     9  29    6.5820   460.5    7.436      42.311
2015    2       25     9  34    6.5886   460.6    7.443      42.377
2015    2       25     9  40    6.5953   460.8    7.449      42.444
2015    2       25     9  45    6.6019   461.0    7.454      42.511
2015    2       25     9  50    6.6085   461.2    7.460      42.577
2015    2       25     9  55    6.6150   461.3    7.465      42.642
2015    2       25    10   1    6.6215   461.5    7.469      42.707
2015    2       25    10   6    6.6279   461.7    7.474      42.772
2015    2       25    10  11    6.6342   461.9    7.477      42.836
2015    2       25    10  16    6.6405   462.1    7.481      42.899
2015    2       25    10  21    6.6467   462.3    7.484      42.961
2015    2       25    10  27    6.6529   462.4    7.487      43.022
2015    2       25    10  32    6.6590   462.6    7.489      43.082
2015    2       25    10  37    6.6651   462.8    7.492      43.142
2015    2       25    10  42    6.6711   463.0    7.494      43.200
2015    2       25    10  48    6.6771   463.2    7.495      43.258
2015    2       25    10  53    6.6831   463.4    7.497      43.315
2015    2       25    10  58    6.6890   463.5    7.498      43.371
2015    2       25    11   3    6.6949   463.7    7.499      43.427
2015    2       25    11   8    6.7008   463.9    7.500      43.482
2015    2       25    11  14    6.7067   464.1    7.501      43.537
2015    2       25    11  19    6.7125   464.3    7.501      43.591
2015    2       25    11  24    6.7184   464.5    7.502      43.645
2015    2       25    11  29    6.7242   464.7    7.502      43.699
2015    2       25    11  35    6.7300   464.9    7.502      43.753
2015    2       25    11  40    6.7358   465.1    7.502      43.806
2015    2       25    11  45    6.7416   465.3    7.502      43.859
2015    2       25    11  50    6.7475   465.5    7.502      43.912
2015    2       25    11  55    6.7533   465.7    7.502      43.965
2015    2       25    12   1    6.7589   465.9    7.501      44.018
2015    2       25    12   6    6.7648   466.1    7.501      44.070
2015    2       25    12  11    6.7705   466.3    7.500      44.122
2015    2       25    12  16    6.7762   466.5    7.499      44.174
2015    2       25    12  22    6.7820   466.7    7.498      44.226
2015    2       25    12  27    6.7877   466.9    7.497      44.277
2015    2       25    12  32    6.7934   467.1    7.496      44.329
2015    2       25    12  37    6.7992   467.3    7.495      44.380
2015    2       25    12  42    6.8050   467.5    7.494      44.431
2015    2       25    12  48    6.8109   467.7    7.493      44.482
2015    2       25    12  53    6.8166   467.9    7.492      44.532
2015    2       25    12  58    6.8224   468.1    7.490      44.583
2015    2       25    13   3    6.8282   468.3    7.489      44.634
2015    2       25    13   9    6.8341   468.5    7.487      44.684
2015    2       25    13  14    6.8399   468.7    7.486      44.735
2015    2       25    13  19    6.8458   468.9    7.485      44.786
2015    2       25    13  24    6.8518   469.1    7.483      44.838
2015    2       25    13  29    6.8577   469.3    7.482      44.889
2015    2       25    13  35    6.8636   469.5    7.480      44.941
2015    2       25    13  40    6.8696   469.7    7.479      44.994
2015    2       25    13  45    6.8757   469.9    7.478      45.047
2015    2       25    13  50    6.8816   470.1    7.477      45.100
2015    2       25    13  56    6.8876   470.3    7.475      45.154
2015    2       25    14   1    6.8937   470.5    7.474      45.209
2015    2       25    14   6    6.8997   470.7    7.473      45.264
2015    2       25    14  11    6.9058   470.9    7.473      45.321
2015    2       25    14  17    6.9118   471.1    7.472      45.377
2015    2       25    14  22    6.9179   471.3    7.471      45.435
2015    2       25    14  27    6.9240   471.6    7.471      45.493
2015    2       25    14  32    6.9301   471.8    7.470      45.553
2015    2       25    14  37    6.9362   472.0    7.470      45.613
2015    2       25    14  43    6.9424   472.2    7.471      45.674
2015    2       25    14  48    6.9485   472.4    7.471      45.736
2015    2       25    14  53    6.9547   472.6    7.472      45.800
2015    2       25    14  58    6.9609   472.8    7.473      45.864
2015    2       25    15   4    6.9672   473.0    7.474      45.930
2015    2       25    15   9    6.9735   473.2    7.476      45.997
2015    2       25    15  14    6.9798   473.4    7.478      46.065
2015    2       25    15  19    6.9862   473.7    7.480      46.135
2015    2       25    15  24    6.9925   473.9    7.483      46.207
2015    2       25    15  30    6.9990   474.1    7.486      46.281
2015    2       25    15  35    7.0054   474.3    7.490      46.357
2015    2       25    15  40    7.0121   474.6    7.494      46.437
2015    2       25    15  45    7.0186   474.8    7.499      46.519
2015    2       25    15  51    7.0253   475.1    7.504      46.603
2015    2       25    15  56    7.0323   475.3    7.510      46.690
2015    2       25    16   1    7.0392   475.5    7.516      46.780
2015    2       25    16   6    7.0461   475.8    7.523      46.873
2015    2       25    16  11    7.0532   476.0    7.530      46.971
2015    2       25    16  17    7.0604   476.3    7.537      47.073
2015    2       25    16  22    7.0676   476.6    7.545      47.179
2015    2       25    16  27    7.0748   476.9    7.553      47.289
2015    2       25    16  32    7.0821   477.2    7.561      47.402
2015    2       25    16  38    7.0893   477.5    7.568      47.517
2015    2       25    16  43    7.0965   477.8    7.576      47.633
2015    2       25    16  48    7.1036   478.1    7.583      47.750
2015    2       25    16  53    7.1106   478.4    7.590      47.867
2015    2       25    16  58    7.1174   478.7    7.596      47.984
2015    2       25    17   4    7.1242   479.1    7.602      48.100
2015    2       25    17   9    7.1310   479.4    7.607      48.215
2015    2       25    17  14    7.1375   479.7    7.612      48.328
2015    2       25    17  19    7.1439   480.1    7.616      48.439
2015    2       25    17  25    7.1501   480.4    7.619      48.547
2015    2       25    17  30    7.1561   480.7    7.622      48.653
2015    2       25    17  35    7.1620   481.0    7.624      48.756
2015    2       25    17  40    7.1678   481.3    7.626      48.856
2015    2       25    17  45    7.1735   481.6    7.627      48.953
2015    2       25    17  51    7.1789   482.0    7.628      49.048
2015    2       25    17  56    7.1845   482.3    7.629      49.141
2015    2       25    18   1    7.1899   482.6    7.628      49.231
2015    2       25    18   6    7.1952   482.9    7.628      49.319
2015    2       25    18  12    7.2005   483.2    7.627      49.405
2015    2       25    18  17    7.2057   483.5    7.626      49.489
2015    2       25    18  22    7.2109   483.8    7.624      49.571
2015    2       25    18  27    7.2160   484.1    7.623      49.651
2015    2       25    18  33    7.2211   484.4    7.621      49.729
2015    2       25    18  38    7.2262   484.6    7.618      49.806
2015    2       25    18  43    7.2312   484.9    7.616      49.882
2015    2       25    18  48    7.2362   485.2    7.613      49.956
2015    2       25    18  53    7.2412   485.5    7.609      50.029
2015    2       25    18  59    7.2461   485.9    7.606      50.101
2015    2       25    19   4    7.2511   486.2    7.602      50.171
2015    2       25    19   9    7.2561   486.5    7.599      50.240
2015    2       25    19  14    7.2609   486.8    7.595      50.308
2015    2       25    19  20    7.2660   487.1    7.591      50.375
2015    2       25    19  25    7.2710   487.3    7.587      50.442
2015    2       25    19  30    7.2760   487.6    7.583      50.508
2015    2       25    19  35    7.2811   487.9    7.579      50.575
2015    2       25    19  40    7.2862   488.2    7.575      50.641
2015    2       25    19  46    7.2914   488.5    7.571      50.707
2015    2       25    19  51    7.2965   488.9    7.568      50.775
2015    2       25    19  56    7.3019   489.2    7.564      50.843
2015    2       25    20   1    7.3075   489.5    7.561      50.912
2015    2       25    20   7    7.3131   489.8    7.558      50.983
2015    2       25    20  12    7.3189   490.1    7.555      51.056
2015    2       25    20  17    7.3248   490.4    7.553      51.133
2015    2       25    20  22    7.3308   490.8    7.551      51.211
2015    2       25    20  27    7.3369   491.1    7.549      51.292
2015    2       25    20  33    7.3432   491.5    7.547      51.376
2015    2       25    20  38    7.3495   491.8    7.546      51.464
2015    2       25    20  43    7.3559   492.2    7.545      51.555
2015    2       25    20  48    7.3623   492.6    7.544      51.648
2015    2       25    20  54    7.3688   493.0    7.543      51.743
2015    2       25    20  59    7.3751   493.4    7.541      51.840
2015    2       25    21   4    7.3814   493.8    7.540      51.939
2015    2       25    21   9    7.3877   494.2    7.538      52.038
2015    2       25    21  14    7.3938   494.6    7.536      52.137
2015    2       25    21  20    7.3998   495.0    7.534      52.236
2015    2       25    21  25    7.4058   495.4    7.531      52.334
2015    2       25    21  30    7.4116   495.8    7.528      52.432
2015    2       25    21  35    7.4173   496.2    7.525      52.530
2015    2       25    21  41    7.4228   496.6    7.521      52.627
2015    2       25    21  46    7.4283   497.0    7.517      52.722
2015    2       25    21  51    7.4336   497.5    7.513      52.817
2015    2       25    21  56    7.4389   497.9    7.508      52.910
2015    2       25    22   2    7.4440   498.3    7.503      53.003
2015    2       25    22   7    7.4492   498.7    7.498      53.096
2015    2       25    22  12    7.4542   499.1    7.493      53.188
2015    2       25    22  17    7.4591   499.5    7.488      53.279
2015    2       25    22  22    7.4641   499.9    7.482      53.370
2015    2       25    22  28    7.4689   500.3    7.476      53.461
2015    2       25    22  33    7.4738   500.7    7.471      53.552
2015    2       25    22  38    7.4786   501.1    7.465      53.642
2015    2       25    22  43    7.4834   501.5    7.459      53.733
2015    2       25    22  49    7.4882   502.0    7.454      53.824
2015    2       25    22  54    7.4930   502.4    7.449      53.916
2015    2       25    22  59    7.4978   502.8    7.443      54.008
2015    2       25    23   4    7.5027   503.2    7.438      54.100
2015    2       25    23   9    7.5076   503.6    7.434      54.193
2015    2       25    23  15    7.5126   504.0    7.429      54.287
2015    2       25    23  20    7.5176   504.4    7.426      54.384
2015    2       25    23  25    7.5226   504.9    7.422      54.483
2015    2       25    23  30    7.5278   505.3    7.419      54.585
2015    2       25    23  36    7.5329   505.7    7.415      54.689
2015    2       25    23  41    7.5381   506.2    7.412      54.795
2015    2       25    23  46    7.5431   506.6    7.410      54.904
2015    2       25    23  51    7.5483   507.1    7.407      55.014
2015    2       25    23  56    7.5535   507.5    7.404      55.125
2015    2       26     0   2    7.5586   508.0    7.401      55.238
2015    2       26     0   7    7.5638   508.5    7.398      55.353
2015    2       26     0  12    7.5689   508.9    7.395      55.468
2015    2       26     0  17    7.5738   509.4    7.391      55.585
2015    2       26     0  23    7.5786   509.9    7.387      55.702
2015    2       26     0  28    7.5833   510.4    7.383      55.817
2015    2       26     0  33    7.5879   510.9    7.378      55.931
2015    2       26     0  38    7.5923   511.4    7.373      56.042
2015    2       26     0  44    7.5966   511.9    7.367      56.153
2015    2       26     0  49    7.6008   512.4    7.361      56.262
2015    2       26     0  54    7.6049   512.9    7.355      56.369
2015    2       26     0  59    7.6087   513.3    7.348      56.474
2015    2       26     1   4    7.6128   513.8    7.341      56.576
2015    2       26     1  10    7.6166   514.3    7.333      56.677
2015    2       26     1  15    7.6204   514.7    7.326      56.776
2015    2       26     1  20    7.6241   515.2    7.318      56.873
2015    2       26     1  25    7.6277   515.6    7.310      56.968
2015    2       26     1  31    7.6315   516.1    7.302      57.062
2015    2       26     1  36    7.6352   516.5    7.294      57.154
2015    2       26     1  41    7.6389   517.0    7.285      57.245
2015    2       26     1  46    7.6426   517.5    7.277      57.335
2015    2       26     1  51    7.6463   517.9    7.268      57.424
2015    2       26     1  57    7.6499   518.4    7.259      57.513
2015    2       26     2   2    7.6536   518.8    7.249      57.601
2015    2       26     2   7    7.6572   519.3    7.240      57.688
2015    2       26     2  12    7.6608   519.8    7.230      57.775
2015    2       26     2  18    7.6644   520.2    7.221      57.861
2015    2       26     2  23    7.6680   520.7    7.211      57.946
2015    2       26     2  28    7.6715   521.2    7.201      58.032
2015    2       26     2  33    7.6752   521.6    7.191      58.116
2015    2       26     2  38    7.6787   522.1    7.181      58.200
2015    2       26     2  44    7.6822   522.6    7.170      58.285
2015    2       26     2  49    7.6855   523.0    7.160      58.369
2015    2       26     2  54    7.6891   523.5    7.150      58.452
2015    2       26     2  59    7.6926   524.0    7.139      58.535
2015    2       26     3   5    7.6958   524.4    7.129      58.618
2015    2       26     3  10    7.6994   524.9    7.119      58.703
2015    2       26     3  15    7.7030   525.4    7.109      58.787
2015    2       26     3  20    7.7065   525.8    7.099      58.872
2015    2       26     3  26    7.7101   526.3    7.090      58.959
2015    2       26     3  31    7.7137   526.8    7.081      59.049
2015    2       26     3  36    7.7174   527.3    7.072      59.141
2015    2       26     3  41    7.7211   527.8    7.063      59.235
2015    2       26     3  46    7.7248   528.3    7.055      59.330
2015    2       26     3  52    7.7286   528.8    7.047      59.428
2015    2       26     3  57    7.7324   529.3    7.039      59.529
2015    2       26     4   2    7.7362   529.8    7.032      59.632
2015    2       26     4   7    7.7399   530.4    7.024      59.736
2015    2       26     4  13    7.7436   530.9    7.016      59.843
2015    2       26     4  18    7.7472   531.5    7.008      59.950
2015    2       26     4  23    7.7503   532.0    7.000      60.059
2015    2       26     4  28    7.7540   532.6    6.992      60.167
2015    2       26     4  33    7.7572   533.2    6.983      60.273
2015    2       26     4  39    7.7603   533.7    6.974      60.379
2015    2       26     4  44    7.7633   534.3    6.964      60.484
2015    2       26     4  49    7.7660   534.9    6.954      60.589
2015    2       26     4  54    7.7687   535.5    6.944      60.692
2015    2       26     5   0    7.7711   536.1    6.933      60.793
2015    2       26     5   5    7.7735   536.7    6.921      60.892
2015    2       26     5  10    7.7756   537.3    6.909      60.990
2015    2       26     5  15    7.7776   537.8    6.897      61.085
2015    2       26     5  20    7.7794   538.4    6.884      61.178
2015    2       26     5  26    7.7807   539.0    6.870      61.269
2015    2       26     5  31    7.7825   539.6    6.856      61.359
2015    2       26     5  36    7.7839   540.3    6.842      61.446
2015    2       26     5  41    7.7849   540.9    6.827      61.531
2015    2       26     5  47    7.7855   541.5    6.812      61.614
2015    2       26     5  52    7.7862   542.1    6.796      61.697
2015    2       26     5  57    7.7869   542.8    6.780      61.778
2015    2       26     6   2    7.7873   543.4    6.763      61.858
2015    2       26     6   8    7.7880   544.0    6.746      61.937
2015    2       26     6  13    7.7876   544.7    6.729      62.015
2015    2       26     6  18    7.7880   545.4    6.711      62.094
2015    2       26     6  23    7.7872   546.0    6.692      62.170
2015    2       26     6  28    7.7871   546.7    6.673      62.241
2015    2       26     6  34    7.7862   547.3    6.653      62.310
2015    2       26     6  39    7.7851   548.0    6.633      62.376
2015    2       26     6  44    7.7839   548.6    6.613      62.439
2015    2       26     6  49    7.7825   549.2    6.593      62.501
2015    2       26     6  55    7.7810   549.8    6.573      62.562
2015    2       26     7   0    7.7789   550.5    6.554      62.622
2015    2       26     7   5    7.7779   551.1    6.534      62.682
2015    2       26     7  10    7.7764   551.7    6.515      62.743
2015    2       26     7  15    7.7748   552.3    6.495      62.805
2015    2       26     7  21    7.7732   552.9    6.477      62.868
2015    2       26     7  26    7.7717   553.5    6.458      62.932
2015    2       26     7  31    7.7702   554.1    6.440      62.996
2015    2       26     7  36    7.7688   554.7    6.423      63.060
2015    2       26     7  42    7.7676   555.3    6.406      63.128
2015    2       26     7  47    7.7664   555.9    6.389      63.199
2015    2       26     7  52    7.7653   556.5    6.372      63.270
2015    2       26     7  57    7.7643   557.1    6.356      63.343
2015    2       26     8   3    7.7634   557.7    6.340      63.417
2015    2       26     8   8    7.7625   558.3    6.325      63.493
2015    2       26     8  13    7.7616   558.9    6.309      63.570
2015    2       26     8  18    7.7608   559.5    6.294      63.648
2015    2       26     8  23    7.7600   560.1    6.279      63.729
2015    2       26     8  29    7.7593   560.7    6.265      63.812
2015    2       26     8  34    7.7586   561.3    6.250      63.898
2015    2       26     8  39    7.7579   562.0    6.235      63.987
2015    2       26     8  44    7.7573   562.6    6.221      64.077
2015    2       26     8  50    7.7566   563.2    6.206      64.168
2015    2       26     8  55    7.7560   563.8    6.192      64.261
2015    2       26     9   0    7.7553   564.4    6.177      64.354
2015    2       26     9   5    7.7542   565.1    6.162      64.448
2015    2       26     9  10    7.7540   565.7    6.148      64.540
2015    2       26     9  16    7.7533   566.4    6.133      64.634
2015    2       26     9  21    7.7525   567.0    6.118      64.726
2015    2       26     9  26    7.7516   567.7    6.103      64.818
2015    2       26     9  31    7.7506   568.4    6.087      64.909
2015    2       26     9  37    7.7495   569.0    6.072      64.998
2015    2       26     9  42    7.7483   569.7    6.056      65.086
2015    2       26     9  47    7.7469   570.4    6.039      65.173
2015    2       26     9  52    7.7454   571.1    6.023      65.259
2015    2       26     9  58    7.7437   571.7    6.005      65.343
2015    2       26    10   3    7.7417   572.4    5.988      65.425
2015    2       26    10   8    7.7390   573.1    5.969      65.506
2015    2       26    10  13    7.7365   573.8    5.950      65.586
2015    2       26    10  18    7.7344   574.4    5.930      65.660
2015    2       26    10  24    7.7314   575.1    5.910      65.730
2015    2       26    10  29    7.7281   575.7    5.890      65.795
2015    2       26    10  34    7.7245   576.3    5.870      65.856
2015    2       26    10  39    7.7209   577.0    5.849      65.914
2015    2       26    10  45    7.7170   577.6    5.829      65.969
2015    2       26    10  50    7.7132   578.1    5.809      66.022
2015    2       26    10  55    7.7092   578.7    5.789      66.076
2015    2       26    11   0    7.7053   579.3    5.770      66.129
2015    2       26    11   5    7.7013   579.9    5.751      66.184
2015    2       26    11  11    7.6975   580.5    5.732      66.240
2015    2       26    11  16    7.6929   581.1    5.715      66.297
2015    2       26    11  21    7.6899   581.6    5.698      66.358
2015    2       26    11  26    7.6863   582.3    5.681      66.422
2015    2       26    11  32    7.6827   582.9    5.664      66.488
2015    2       26    11  37    7.6792   583.5    5.648      66.556
2015    2       26    11  42    7.6757   584.1    5.633      66.626
2015    2       26    11  47    7.6722   584.7    5.617      66.697
2015    2       26    11  52    7.6687   585.4    5.601      66.769
2015    2       26    11  58    7.6651   586.0    5.586      66.841
2015    2       26    12   3    7.6608   586.6    5.570      66.912
2015    2       26    12   8    7.6570   587.3    5.555      66.983
2015    2       26    12  13    7.6540   587.9    5.539      67.053
2015    2       26    12  19    7.6500   588.6    5.523      67.121
2015    2       26    12  24    7.6460   589.2    5.507      67.189
2015    2       26    12  29    7.6417   589.9    5.490      67.254
2015    2       26    12  34    7.6372   590.5    5.473      67.318
2015    2       26    12  40    7.6325   591.2    5.456      67.377
2015    2       26    12  45    7.6276   591.9    5.438      67.432
2015    2       26    12  50    7.6225   592.5    5.420      67.483
2015    2       26    12  55    7.6165   593.2    5.402      67.530
2015    2       26    13   0    7.6109   593.9    5.383      67.572
2015    2       26    13   6    7.6053   594.6    5.364      67.610
2015    2       26    13  11    7.6003   595.2    5.345      67.645
2015    2       26    13  16    7.5945   595.9    5.326      67.677
2015    2       26    13  21    7.5884   596.5    5.306      67.705
2015    2       26    13  27    7.5824   597.2    5.286      67.732
2015    2       26    13  32    7.5762   597.9    5.266      67.759
2015    2       26    13  37    7.5700   598.6    5.246      67.782
2015    2       26    13  42    7.5635   599.3    5.225      67.802
2015    2       26    13  47    7.5571   599.9    5.204      67.820
2015    2       26    13  53    7.5505   600.6    5.184      67.837
2015    2       26    13  58    7.5440   601.3    5.163      67.852
2015    2       26    14   3    7.5374   601.9    5.143      67.866
2015    2       26    14   8    7.5302   602.5    5.123      67.879
2015    2       26    14  14    7.5244   603.2    5.103      67.891
2015    2       26    14  19    7.5179   603.8    5.084      67.904
2015    2       26    14  24    7.5115   604.4    5.065      67.917
2015    2       26    14  29    7.5052   605.0    5.046      67.931
2015    2       26    14  35    7.4989   605.5    5.028      67.945
2015    2       26    14  40    7.4928   606.1    5.010      67.962
2015    2       26    14  45    7.4866   606.6    4.993      67.977
2015    2       26    14  50    7.4807   607.2    4.976      67.995
2015    2       26    14  55    7.4748   607.7    4.961      68.017
2015    2       26    15   1    7.4691   608.2    4.945      68.041
2015    2       26    15   6    7.4635   608.8    4.930      68.068
2015    2       26    15  11    7.4581   609.3    4.916      68.096
2015    2       26    15  16    7.4526   609.8    4.901      68.126
2015    2       26    15  22    7.4473   610.3    4.888      68.159
2015    2       26    15  27    7.4419   610.9    4.874      68.195
2015    2       26    15  32    7.4366   611.4    4.861      68.233
2015    2       26    15  37    7.4314   611.9    4.848      68.274
2015    2       26    15  42    7.4261   612.4    4.835      68.319
2015    2       26    15  48    7.4209   612.9    4.823      68.367
2015    2       26    15  53    7.4158   613.4    4.811      68.419
2015    2       26    15  58    7.4106   613.9    4.799      68.472
2015    2       26    16   3    7.4055   614.4    4.787      68.528
2015    2       26    16   9    7.4004   615.0    4.776      68.586
2015    2       26    16  14    7.3953   615.5    4.764      68.645
2015    2       26    16  19    7.3901   616.0    4.753      68.706
2015    2       26    16  24    7.3850   616.6    4.741      68.767
2015    2       26    16  30    7.3798   617.1    4.730      68.828
2015    2       26    16  35    7.3746   617.7    4.718      68.889
2015    2       26    16  40    7.3693   618.3    4.707      68.947
2015    2       26    16  45    7.3640   618.9    4.695      69.003
2015    2       26    16  50    7.3584   619.5    4.683      69.054
2015    2       26    16  56    7.3523   620.1    4.671      69.100
2015    2       26    17   1    7.3471   620.7    4.658      69.144
2015    2       26    17   6    7.3412   621.3    4.645      69.184
2015    2       26    17  11    7.3350   621.9    4.632      69.221
2015    2       26    17  17    7.3288   622.4    4.618      69.255
2015    2       26    17  22    7.3217   623.0    4.604      69.288
2015    2       26    17  27    7.3155   623.6    4.590      69.320
2015    2       26    17  32    7.3086   624.2    4.574      69.346
2015    2       26    17  37    7.3014   624.8    4.559      69.365
2015    2       26    17  43    7.2940   625.4    4.543      69.379
2015    2       26    17  48    7.2866   625.9    4.527      69.388
2015    2       26    17  53    7.2790   626.4    4.511      69.393
2015    2       26    17  58    7.2714   626.9    4.495      69.393
2015    2       26    18   4    7.2639   627.4    4.480      69.391
2015    2       26    18   9    7.2564   627.9    4.465      69.389
2015    2       26    18  14    7.2489   628.3    4.450      69.386
2015    2       26    18  19    7.2416   628.8    4.435      69.385
2015    2       26    18  25    7.2344   629.2    4.422      69.384
2015    2       26    18  30    7.2274   629.6    4.409      69.386
2015    2       26    18  35    7.2205   630.0    4.396      69.394
2015    2       26    18  40    7.2135   630.5    4.384      69.407
2015    2       26    18  45    7.2069   630.9    4.373      69.425
2015    2       26    18  51    7.2009   631.3    4.362      69.448
2015    2       26    18  56    7.1942   631.8    4.351      69.475
2015    2       26    19   1    7.1883   632.3    4.341      69.505
2015    2       26    19   6    7.1820   632.7    4.331      69.537
2015    2       26    19  12    7.1754   633.2    4.321      69.572
2015    2       26    19  17    7.1691   633.7    4.311      69.607
2015    2       26    19  22    7.1631   634.2    4.301      69.642
2015    2       26    19  27    7.1567   634.6    4.291      69.678
2015    2       26    19  32    7.1503   635.1    4.281      69.714
2015    2       26    19  38    7.1438   635.6    4.271      69.748
2015    2       26    19  43    7.1372   636.1    4.261      69.781
2015    2       26    19  48    7.1303   636.6    4.251      69.813
2015    2       26    19  53    7.1235   637.1    4.240      69.845
2015    2       26    19  59    7.1166   637.6    4.229      69.873
2015    2       26    20   4    7.1096   638.1    4.218      69.897
2015    2       26    20   9    7.1027   638.5    4.207      69.918
2015    2       26    20  14    7.0956   639.0    4.195      69.934
2015    2       26    20  20    7.0884   639.5    4.184      69.947
2015    2       26    20  25    7.0812   639.9    4.173      69.954
2015    2       26    20  30    7.0741   640.4    4.161      69.958
2015    2       26    20  35    7.0670   640.8    4.150      69.959
2015    2       26    20  40    7.0600   641.2    4.139      69.957
2015    2       26    20  46    7.0530   641.6    4.128      69.952
2015    2       26    20  51    7.0462   641.9    4.117      69.944
2015    2       26    20  56    7.0396   642.3    4.107      69.936
2015    2       26    21   1    7.0331   642.6    4.097      69.929
2015    2       26    21   7    7.0266   643.0    4.087      69.923
2015    2       26    21  12    7.0204   643.3    4.078      69.918
2015    2       26    21  17    7.0143   643.7    4.069      69.915
2015    2       26    21  22    7.0084   644.0    4.060      69.912
2015    2       26    21  27    7.0025   644.3    4.051      69.911
2015    2       26    21  33    6.9968   644.7    4.043      69.912
2015    2       26    21  38    6.9911   645.0    4.035      69.914
2015    2       26    21  43    6.9856   645.3    4.027      69.918
2015    2       26    21  48    6.9802   645.7    4.019      69.923
2015    2       26    21  54    6.9746   646.0    4.011      69.930
2015    2       26    21  59    6.9691   646.3    4.003      69.941
2015    2       26    22   4    6.9637   646.6    3.995      69.953
2015    2       26    22   9    6.9582   647.0    3.988      69.966
2015    2       26    22  15    6.9530   647.3    3.980      69.981
2015    2       26    22  20    6.9474   647.7    3.972      69.995
2015    2       26    22  25    6.9422   648.0    3.964      70.010
2015    2       26    22  30    6.9365   648.3    3.957      70.024
2015    2       26    22  35    6.9313   648.7    3.949      70.039
2015    2       26    22  41    6.9256   649.0    3.941      70.053
2015    2       26    22  46    6.9201   649.4    3.933      70.068
2015    2       26    22  51    6.9146   649.7    3.926      70.081
2015    2       26    22  56    6.9090   650.1    3.918      70.094
2015    2       26    23   2    6.9035   650.4    3.910      70.105
2015    2       26    23   7    6.8979   650.7    3.902      70.115
2015    2       26    23  12    6.8925   651.0    3.895      70.125
2015    2       26    23  17    6.8869   651.4    3.887      70.134
2015    2       26    23  22    6.8814   651.7    3.880      70.143
2015    2       26    23  28    6.8759   652.0    3.873      70.153
2015    2       26    23  33    6.8704   652.3    3.865      70.164
2015    2       26    23  38    6.8651   652.6    3.858      70.175
2015    2       26    23  43    6.8596   652.9    3.851      70.187
2015    2       26    23  49    6.8544   653.3    3.844      70.199
2015    2       26    23  54    6.8488   653.6    3.838      70.210
2015    2       26    23  59    6.8435   653.9    3.831      70.222
2015    2       27     0   4    6.8381   654.3    3.824      70.231
2015    2       27     0  10    6.8330   654.6    3.817      70.240
2015    2       27     0  15    6.8274   655.0    3.810      70.245
2015    2       27     0  20    6.8223   655.3    3.803      70.249
2015    2       27     0  25    6.8169   655.6    3.797      70.250
2015    2       27     0  30    6.8113   655.9    3.790      70.251
2015    2       27     0  36    6.8058   656.2    3.783      70.249
2015    2       27     0  41    6.8007   656.6    3.776      70.247
2015    2       27     0  46    6.7950   656.9    3.769      70.245
2015    2       27     0  51    6.7895   657.2    3.762      70.242
2015    2       27     0  57    6.7841   657.5    3.755      70.239
2015    2       27     1   2    6.7787   657.8    3.748      70.235
2015    2       27     1   7    6.7734   658.1    3.741      70.230
2015    2       27     1  12    6.7682   658.4    3.734      70.225
2015    2       27     1  17    6.7629   658.7    3.727      70.218
2015    2       27     1  23    6.7581   659.0    3.721      70.211
2015    2       27     1  28    6.7527   659.3    3.714      70.204
2015    2       27     1  33    6.7477   659.5    3.707      70.196
2015    2       27     1  38    6.7428   659.8    3.701      70.188
2015    2       27     1  44    6.7379   660.1    3.694      70.180
2015    2       27     1  49    6.7335   660.3    3.688      70.174
2015    2       27     1  54    6.7286   660.6    3.682      70.169
2015    2       27     1  59    6.7240   660.8    3.676      70.166
2015    2       27     2   5    6.7194   661.1    3.670      70.167
2015    2       27     2  10    6.7153   661.4    3.664      70.169
2015    2       27     2  15    6.7105   661.6    3.658      70.174
2015    2       27     2  20    6.7061   661.9    3.653      70.181
2015    2       27     2  25    6.7017   662.2    3.647      70.190
2015    2       27     2  31    6.6973   662.5    3.642      70.199
2015    2       27     2  36    6.6929   662.8    3.636      70.209
2015    2       27     2  41    6.6885   663.1    3.631      70.218
2015    2       27     2  46    6.6841   663.4    3.625      70.227
2015    2       27     2  52    6.6797   663.7    3.620      70.235
2015    2       27     2  57    6.6753   663.9    3.614      70.242
2015    2       27     3   2    6.6709   664.2    3.609      70.247
2015    2       27     3   7    6.6665   664.5    3.604      70.251
2015    2       27     3  13    6.6620   664.8    3.598      70.255
2015    2       27     3  18    6.6576   665.1    3.593      70.257
2015    2       27     3  23    6.6532   665.3    3.587      70.258
2015    2       27     3  28    6.6487   665.6    3.582      70.258
2015    2       27     3  33    6.6443   665.9    3.576      70.257
2015    2       27     3  39    6.6399   666.1    3.571      70.256
2015    2       27     3  44    6.6356   666.4    3.565      70.254
2015    2       27     3  49    6.6312   666.7    3.560      70.251
2015    2       27     3  54    6.6269   666.9    3.555      70.246
2015    2       27     4   0    6.6226   667.2    3.549      70.242
2015    2       27     4   5    6.6184   667.4    3.544      70.237
2015    2       27     4  10    6.6141   667.7    3.539      70.231
2015    2       27     4  15    6.6099   667.9    3.534      70.225
2015    2       27     4  20    6.6056   668.1    3.529      70.218
2015    2       27     4  26    6.6014   668.4    3.524      70.212
2015    2       27     4  31    6.5973   668.6    3.519      70.206
2015    2       27     4  36    6.5931   668.8    3.514      70.200
2015    2       27     4  41    6.5889   669.1    3.510      70.194
2015    2       27     4  47    6.5848   669.3    3.505      70.189
2015    2       27     4  52    6.5806   669.5    3.500      70.183
2015    2       27     4  57    6.5765   669.7    3.496      70.178
2015    2       27     5   2    6.5723   670.0    3.491      70.173
2015    2       27     5   8    6.5682   670.2    3.487      70.168
2015    2       27     5  13    6.5643   670.4    3.482      70.163
2015    2       27     5  18    6.5599   670.7    3.478      70.158
2015    2       27     5  23    6.5557   670.9    3.473      70.152
2015    2       27     5  28    6.5516   671.1    3.469      70.146
2015    2       27     5  34    6.5474   671.3    3.465      70.140
2015    2       27     5  39    6.5432   671.6    3.460      70.133
2015    2       27     5  44    6.5390   671.8    3.456      70.125
2015    2       27     5  49    6.5347   672.0    3.451      70.117
2015    2       27     5  55    6.5305   672.3    3.447      70.108
2015    2       27     6   0    6.5262   672.5    3.442      70.098
2015    2       27     6   5    6.5220   672.7    3.438      70.088
2015    2       27     6  10    6.5177   672.9    3.433      70.076
2015    2       27     6  15    6.5134   673.1    3.429      70.065
2015    2       27     6  21    6.5091   673.4    3.424      70.052
2015    2       27     6  26    6.5049   673.6    3.419      70.040
2015    2       27     6  31    6.5006   673.8    3.415      70.026
2015    2       27     6  36    6.4965   674.0    3.410      70.013
2015    2       27     6  42    6.4921   674.2    3.406      69.998
2015    2       27     6  47    6.4878   674.4    3.401      69.984
2015    2       27     6  52    6.4836   674.6    3.397      69.969
2015    2       27     6  57    6.4794   674.8    3.392      69.954
2015    2       27     7   3    6.4751   675.0    3.388      69.939
2015    2       27     7   8    6.4709   675.2    3.383      69.924
2015    2       27     7  13    6.4668   675.5    3.379      69.909
2015    2       27     7  18    6.4626   675.6    3.374      69.894
2015    2       27     7  23    6.4586   675.8    3.370      69.880
2015    2       27     7  29    6.4543   676.0    3.366      69.865
2015    2       27     7  34    6.4501   676.2    3.361      69.851
2015    2       27     7  39    6.4460   676.4    3.357      69.836
2015    2       27     7  44    6.4419   676.6    3.353      69.822
2015    2       27     7  50    6.4379   676.8    3.349      69.809
2015    2       27     7  55    6.4338   677.0    3.345      69.795
2015    2       27     8   0    6.4299   677.2    3.341      69.782
2015    2       27     8   5    6.4257   677.4    3.336      69.770
2015    2       27     8  10    6.4217   677.6    3.333      69.757
2015    2       27     8  16    6.4177   677.7    3.329      69.746
2015    2       27     8  21    6.4138   677.9    3.325      69.734
2015    2       27     8  26    6.4098   678.1    3.321      69.723
2015    2       27     8  31    6.4059   678.3    3.317      69.712
2015    2       27     8  37    6.4020   678.5    3.313      69.702
2015    2       27     8  42    6.3981   678.6    3.310      69.692
2015    2       27     8  47    6.3942   678.8    3.306      69.682
2015    2       27     8  52    6.3904   679.0    3.302      69.673
2015    2       27     8  58    6.3867   679.1    3.299      69.664
2015    2       27     9   3    6.3829   679.3    3.295      69.655
2015    2       27     9   8    6.3789   679.5    3.292      69.647
2015    2       27     9  13    6.3751   679.6    3.288      69.639
2015    2       27     9  18    6.3714   679.8    3.285      69.631
2015    2       27     9  24    6.3676   680.0    3.281      69.624
2015    2       27     9  29    6.3640   680.1    3.278      69.617
2015    2       27     9  34    6.3601   680.3    3.274      69.610
2015    2       27     9  39    6.3564   680.4    3.271      69.604
2015    2       27     9  45    6.3527   680.6    3.268      69.597
2015    2       27     9  50    6.3491   680.8    3.265      69.591
2015    2       27     9  55    6.3453   680.9    3.261      69.585
2015    2       27    10   0    6.3416   681.1    3.258      69.579
2015    2       27    10   5    6.3379   681.2    3.255      69.573
2015    2       27    10  11    6.3343   681.4    3.252      69.567
2015    2       27    10  16    6.3305   681.5    3.249      69.561
2015    2       27    10  21    6.3268   681.7    3.246      69.555
2015    2       27    10  26    6.3231   681.8    3.243      69.549
2015    2       27    10  32    6.3194   682.0    3.240      69.543
2015    2       27    10  37    6.3158   682.1    3.237      69.537
2015    2       27    10  42    6.3121   682.2    3.234      69.530
2015    2       27    10  47    6.3086   682.4    3.231      69.524
2015    2       27    10  53    6.3048   682.5    3.228      69.517
2015    2       27    10  58    6.3011   682.7    3.225      69.510
2015    2       27    11   3    6.2975   682.8    3.222      69.503
2015    2       27    11   8    6.2938   682.9    3.220      69.495
2015    2       27    11  13    6.2901   683.1    3.217      69.488
2015    2       27    11  19    6.2865   683.2    3.214      69.480
2015    2       27    11  24    6.2828   683.3    3.211      69.472
2015    2       27    11  29    6.2791   683.5    3.209      69.463
2015    2       27    11  34    6.2756   683.6    3.206      69.455
2015    2       27    11  40    6.2718   683.7    3.203      69.446
2015    2       27    11  45    6.2683   683.8    3.201      69.437
2015    2       27    11  50    6.2646   684.0    3.198      69.428
2015    2       27    11  55    6.2610   684.1    3.195      69.418
2015    2       27    12   1    6.2572   684.2    3.193      69.408
2015    2       27    12   6    6.2536   684.3    3.190      69.398
2015    2       27    12  11    6.2499   684.5    3.187      69.387
2015    2       27    12  16    6.2464   684.6    3.185      69.376
2015    2       27    12  21    6.2426   684.7    3.182      69.365
2015    2       27    12  27    6.2390   684.8    3.179      69.353
2015    2       27    12  32    6.2353   684.9    3.177      69.341
2015    2       27    12  37    6.2317   685.0    3.174      69.328
2015    2       27    12  42    6.2280   685.1    3.171      69.315
2015    2       27    12  48    6.2245   685.3    3.168      69.301
2015    2       27    12  53    6.2208   685.4    3.166      69.287
2015    2       27    12  58    6.2171   685.5    3.163      69.273
2015    2       27    13   3    6.2136   685.6    3.160      69.258
2015    2       27    13   8    6.2099   685.7    3.158      69.242
2015    2       27    13  14    6.2063   685.8    3.155      69.227
2015    2       27    13  19    6.2027   685.9    3.152      69.210
2015    2       27    13  24    6.1992   686.0    3.149      69.194
2015    2       27    13  29    6.1955   686.1    3.147      69.177
2015    2       27    13  35    6.1920   686.2    3.144      69.160
2015    2       27    13  40    6.1883   686.3    3.141      69.142
2015    2       27    13  45    6.1848   686.4    3.138      69.124
2015    2       27    13  50    6.1812   686.5    3.136      69.106
2015    2       27    13  56    6.1776   686.6    3.133      69.087
2015    2       27    14   1    6.1741   686.6    3.130      69.068
2015    2       27    14   6    6.1706   686.7    3.128      69.049
2015    2       27    14  11    6.1671   686.8    3.125      69.029
2015    2       27    14  16    6.1637   686.9    3.122      69.009
2015    2       27    14  22    6.1602   687.0    3.120      68.989
2015    2       27    14  27    6.1566   687.1    3.117      68.969
2015    2       27    14  32    6.1531   687.2    3.114      68.948
2015    2       27    14  37    6.1497   687.3    3.112      68.927
2015    2       27    14  43    6.1463   687.3    3.109      68.906
2015    2       27    14  48    6.1429   687.4    3.107      68.885
2015    2       27    14  53    6.1394   687.5    3.104      68.864
2015    2       27    14  58    6.1360   687.6    3.101      68.842
2015    2       27    15   3    6.1326   687.6    3.099      68.821
2015    2       27    15   9    6.1292   687.7    3.096      68.799
2015    2       27    15  14    6.1259   687.8    3.094      68.777
2015    2       27    15  19    6.1225   687.9    3.091      68.756
2015    2       27    15  24    6.1192   687.9    3.089      68.734
2015    2       27    15  30    6.1159   688.0    3.086      68.713
2015    2       27    15  35    6.1127   688.1    3.084      68.691
2015    2       27    15  40    6.1092   688.2    3.081      68.670
2015    2       27    15  45    6.1059   688.2    3.079      68.648
2015    2       27    15  51    6.1026   688.3    3.076      68.627
2015    2       27    15  56    6.0994   688.4    3.074      68.606
2015    2       27    16   1    6.0961   688.4    3.071      68.585
2015    2       27    16   6    6.0928   688.5    3.069      68.564
2015    2       27    16  11    6.0896   688.6    3.067      68.544
2015    2       27    16  17    6.0863   688.6    3.064      68.523
2015    2       27    16  22    6.0831   688.7    3.062      68.503
2015    2       27    16  27    6.0798   688.7    3.060      68.483
2015    2       27    16  32    6.0766   688.8    3.057      68.463
2015    2       27    16  38    6.0734   688.9    3.055      68.444
2015    2       27    16  43    6.0701   688.9    3.053      68.424
2015    2       27    16  48    6.0669   689.0    3.050      68.405
2015    2       27    16  53    6.0637   689.0    3.048      68.386
2015    2       27    16  58    6.0605   689.1    3.046      68.367
2015    2       27    17   4    6.0573   689.1    3.044      68.348
2015    2       27    17   9    6.0541   689.2    3.042      68.330
2015    2       27    17  14    6.0508   689.3    3.039      68.311
2015    2       27    17  19    6.0476   689.3    3.037      68.292
2015    2       27    17  25    6.0444   689.4    3.035      68.274
2015    2       27    17  30    6.0412   689.4    3.033      68.256
2015    2       27    17  35    6.0380   689.5    3.031      68.237
2015    2       27    17  40    6.0347   689.5    3.029      68.219
2015    2       27    17  46    6.0315   689.5    3.027      68.200
2015    2       27    17  51    6.0283   689.6    3.025      68.182
2015    2       27    17  56    6.0251   689.6    3.023      68.163
2015    2       27    18   1    6.0218   689.7    3.020      68.145
2015    2       27    18   6    6.0187   689.7    3.018      68.126
2015    2       27    18  12    6.0154   689.8    3.016      68.107
2015    2       27    18  17    6.0122   689.8    3.014      68.088
2015    2       27    18  22    6.0089   689.8    3.012      68.069
2015    2       27    18  27    6.0057   689.9    3.010      68.050
2015    2       27    18  33    6.0026   689.9    3.008      68.030
2015    2       27    18  38    5.9992   689.9    3.006      68.010
2015    2       27    18  43    5.9960   690.0    3.004      67.990
2015    2       27    18  48    5.9928   690.0    3.002      67.970
2015    2       27    18  54    5.9897   690.0    3.000      67.950
2015    2       27    18  59    5.9864   690.1    2.999      67.929
2015    2       27    19   4    5.9832   690.1    2.997      67.908
2015    2       27    19   9    5.9799   690.1    2.995      67.887
2015    2       27    19  14    5.9767   690.2    2.993      67.866
2015    2       27    19  20    5.9735   690.2    2.991      67.844
2015    2       27    19  25    5.9703   690.2    2.989      67.822
2015    2       27    19  30    5.9670   690.2    2.987      67.800
2015    2       27    19  35    5.9638   690.3    2.985      67.778
2015    2       27    19  41    5.9606   690.3    2.983      67.755
2015    2       27    19  46    5.9574   690.3    2.981      67.732
2015    2       27    19  51    5.9542   690.3    2.980      67.709
2015    2       27    19  56    5.9510   690.3    2.978      67.686
2015    2       27    20   1    5.9478   690.3    2.976      67.662
2015    2       27    20   7    5.9446   690.4    2.974      67.639
2015    2       27    20  12    5.9414   690.4    2.972      67.615
2015    2       27    20  17    5.9383   690.4    2.971      67.590
2015    2       27    20  22    5.9351   690.4    2.969      67.566
2015    2       27    20  28    5.9319   690.4    2.967      67.542
2015    2       27    20  33    5.9287   690.4    2.965      67.517
2015    2       27    20  38    5.9256   690.4    2.964      67.492
2015    2       27    20  43    5.9224   690.4    2.962      67.467
2015    2       27    20  49    5.9192   690.4    2.960      67.442
2015    2       27    20  54    5.9161   690.4    2.959      67.417
2015    2       27    20  59    5.9130   690.4    2.957      67.391
2015    2       27    21   4    5.9098   690.4    2.955      67.366
2015    2       27    21   9    5.9067   690.4    2.954      67.341
2015    2       27    21  15    5.9035   690.5    2.952      67.315
2015    2       27    21  20    5.9005   690.5    2.950      67.289
2015    2       27    21  25    5.8973   690.4    2.949      67.263
2015    2       27    21  30    5.8942   690.4    2.947      67.238
2015    2       27    21  36    5.8911   690.4    2.946      67.212
2015    2       27    21  41    5.8880   690.4    2.944      67.186
2015    2       27    21  46    5.8849   690.4    2.943      67.160
2015    2       27    21  51    5.8819   690.4    2.941      67.134
2015    2       27    21  56    5.8788   690.4    2.940      67.108
2015    2       27    22   2    5.8757   690.4    2.938      67.082
2015    2       27    22   7    5.8728   690.4    2.937      67.055
2015    2       27    22  12    5.8697   690.4    2.935      67.029
2015    2       27    22  17    5.8666   690.4    2.934      67.003
2015    2       27    22  23    5.8636   690.4    2.932      66.976
2015    2       27    22  28    5.8605   690.4    2.931      66.950
2015    2       27    22  33    5.8576   690.3    2.929      66.923
2015    2       27    22  38    5.8546   690.3    2.928      66.897
2015    2       27    22  44    5.8515   690.3    2.926      66.870
2015    2       27    22  49    5.8486   690.3    2.925      66.843
2015    2       27    22  54    5.8457   690.3    2.923      66.816
2015    2       27    22  59    5.8426   690.3    2.922      66.789
2015    2       27    23   4    5.8396   690.2    2.920      66.762
2015    2       27    23  10    5.8367   690.2    2.919      66.735
2015    2       27    23  15    5.8338   690.2    2.917      66.708
2015    2       27    23  20    5.8308   690.2    2.916      66.681
2015    2       27    23  25    5.8279   690.2    2.914      66.653
2015    2       27    23  31    5.8251   690.1    2.912      66.626
2015    2       27    23  36    5.8220   690.1    2.911      66.598
2015    2       27    23  41    5.8191   690.1    2.909      66.570
2015    2       27    23  46    5.8162   690.0    2.908      66.543
2015    2       27    23  52    5.8134   690.0    2.906      66.515
2015    2       27    23  57    5.8104   690.0    2.904      66.487
2015    2       28     0   2    5.8075   690.0    2.903      66.459
2015    2       28     0   7    5.8046   689.9    2.901      66.431
2015    2       28     0  12    5.8017   689.9    2.899      66.403
2015    2       28     0  18    5.7988   689.9    2.898      66.375
2015    2       28     0  23    5.7960   689.8    2.896      66.347
2015    2       28     0  28    5.7931   689.8    2.894      66.318
2015    2       28     0  33    5.7903   689.8    2.892      66.289
2015    2       28     0  39    5.7873   689.7    2.891      66.261
2015    2       28     0  44    5.7844   689.7    2.889      66.232
2015    2       28     0  49    5.7815   689.7    2.887      66.203
2015    2       28     0  54    5.7786   689.6    2.885      66.173
2015    2       28     0  59    5.7758   689.6    2.884      66.144
2015    2       28     1   5    5.7729   689.6    2.882      66.114
2015    2       28     1  10    5.7700   689.5    2.880      66.084
2015    2       28     1  15    5.7671   689.5    2.878      66.054
2015    2       28     1  20    5.7641   689.4    2.877      66.023
2015    2       28     1  26    5.7612   689.4    2.875      65.993
2015    2       28     1  31    5.7584   689.4    2.873      65.962
2015    2       28     1  36    5.7554   689.3    2.871      65.930
2015    2       28     1  41    5.7525   689.3    2.869      65.899
2015    2       28     1  47    5.7496   689.2    2.868      65.867
2015    2       28     1  52    5.7466   689.2    2.866      65.835
2015    2       28     1  57    5.7437   689.1    2.864      65.803
2015    2       28     2   2    5.7408   689.1    2.862      65.770
2015    2       28     2   7    5.7379   689.0    2.860      65.737
2015    2       28     2  13    5.7349   689.0    2.859      65.704
2015    2       28     2  18    5.7319   688.9    2.857      65.671
2015    2       28     2  23    5.7290   688.9    2.855      65.638
2015    2       28     2  28    5.7261   688.8    2.853      65.604
2015    2       28     2  34    5.7231   688.8    2.852      65.570
2015    2       28     2  39    5.7201   688.7    2.850      65.536
2015    2       28     2  44    5.7172   688.6    2.848      65.502
2015    2       28     2  49    5.7143   688.6    2.847      65.467
2015    2       28     2  55    5.7113   688.5    2.845      65.433
2015    2       28     3   0    5.7084   688.5    2.844      65.398
2015    2       28     3   5    5.7054   688.4    2.842      65.363
2015    2       28     3  10    5.7024   688.3    2.841      65.328
2015    2       28     3  15    5.6995   688.3    2.839      65.293
2015    2       28     3  21    5.6965   688.2    2.838      65.258
2015    2       28     3  26    5.6936   688.1    2.836      65.222
2015    2       28     3  31    5.6906   688.1    2.835      65.187
2015    2       28     3  36    5.6877   688.0    2.833      65.151
2015    2       28     3  42    5.6847   687.9    2.832      65.116
2015    2       28     3  47    5.6818   687.9    2.831      65.080
2015    2       28     3  52    5.6788   687.8    2.829      65.044
2015    2       28     3  57    5.6759   687.7    2.828      65.009
2015    2       28     4   2    5.6729   687.6    2.827      64.973
2015    2       28     4   8    5.6700   687.5    2.826      64.937
2015    2       28     4  13    5.6670   687.5    2.825      64.901
2015    2       28     4  18    5.6641   687.4    2.823      64.865
2015    2       28     4  23    5.6612   687.3    2.822      64.829
2015    2       28     4  29    5.6582   687.2    2.821      64.793
2015    2       28     4  34    5.6553   687.1    2.820      64.757
2015    2       28     4  39    5.6524   687.0    2.819      64.722
2015    2       28     4  44    5.6494   687.0    2.818      64.686
2015    2       28     4  50    5.6465   686.9    2.817      64.651
2015    2       28     4  55    5.6436   686.8    2.816      64.615
2015    2       28     5   0    5.6407   686.7    2.815      64.580
2015    2       28     5   5    5.6378   686.6    2.815      64.545
2015    2       28     5  10    5.6349   686.5    2.814      64.511
2015    2       28     5  16    5.6321   686.4    2.813      64.476
2015    2       28     5  21    5.6292   686.3    2.812      64.442
2015    2       28     5  26    5.6264   686.2    2.811      64.408
2015    2       28     5  31    5.6235   686.1    2.811      64.374
2015    2       28     5  37    5.6207   686.0    2.810      64.341
2015    2       28     5  42    5.6178   685.9    2.809      64.307
2015    2       28     5  47    5.6150   685.8    2.809      64.274
2015    2       28     5  52    5.6122   685.7    2.808      64.242
2015    2       28     5  57    5.6094   685.6    2.807      64.209
2015    2       28     6   3    5.6066   685.5    2.807      64.177
2015    2       28     6   8    5.6038   685.4    2.806      64.144
2015    2       28     6  13    5.6010   685.3    2.805      64.112
2015    2       28     6  18    5.5983   685.2    2.805      64.080
2015    2       28     6  24    5.5955   685.1    2.804      64.048
2015    2       28     6  29    5.5927   685.0    2.804      64.017
2015    2       28     6  34    5.5900   684.9    2.803      63.985
2015    2       28     6  39    5.5872   684.8    2.802      63.953
2015    2       28     6  45    5.5845   684.7    2.802      63.922
2015    2       28     6  50    5.5818   684.6    2.801      63.890
2015    2       28     6  55    5.5790   684.5    2.800      63.858
2015    2       28     7   0    5.5763   684.4    2.800      63.827
2015    2       28     7   5    5.5735   684.3    2.799      63.795
2015    2       28     7  11    5.5708   684.2    2.798      63.763
2015    2       28     7  16    5.5681   684.1    2.798      63.731
2015    2       28     7  21    5.5654   684.0    2.797      63.700
2015    2       28     7  26    5.5627   683.9    2.796      63.668
2015    2       28     7  32    5.5600   683.8    2.795      63.636
2015    2       28     7  37    5.5572   683.7    2.795      63.603
2015    2       28     7  42    5.5545   683.6    2.794      63.571
2015    2       28     7  47    5.5518   683.5    2.793      63.538
2015    2       28     7  52    5.5491   683.4    2.792      63.505
2015    2       28     7  58    5.5464   683.3    2.791      63.472
2015    2       28     8   3    5.5438   683.2    2.790      63.438
2015    2       28     8   8    5.5411   683.1    2.789      63.404
2015    2       28     8  13    5.5385   683.0    2.788      63.370
2015    2       28     8  19    5.5357   682.9    2.787      63.336
2015    2       28     8  24    5.5331   682.8    2.786      63.301
2015    2       28     8  29    5.5304   682.7    2.785      63.266
2015    2       28     8  34    5.5277   682.6    2.784      63.231
2015    2       28     8  40    5.5251   682.5    2.783      63.195
2015    2       28     8  45    5.5225   682.4    2.781      63.159
2015    2       28     8  50    5.5197   682.2    2.780      63.123
2015    2       28     8  55    5.5171   682.1    2.779      63.086
2015    2       28     9   0    5.5144   682.0    2.778      63.049
2015    2       28     9   6    5.5118   681.9    2.777      63.012
2015    2       28     9  11    5.5092   681.8    2.776      62.974
2015    2       28     9  16    5.5067   681.7    2.774      62.936
2015    2       28     9  21    5.5039   681.6    2.773      62.898
2015    2       28     9  27    5.5014   681.5    2.772      62.859
2015    2       28     9  32    5.4987   681.3    2.771      62.821
2015    2       28     9  37    5.4962   681.2    2.770      62.782
2015    2       28     9  42    5.4936   681.1    2.768      62.742
2015    2       28     9  48    5.4910   681.0    2.767      62.703
2015    2       28     9  53    5.4885   680.9    2.766      62.663
2015    2       28     9  58    5.4858   680.7    2.765      62.623
2015    2       28    10   3    5.4833   680.6    2.764      62.583
2015    2       28    10   8    5.4806   680.5    2.762      62.542
2015    2       28    10  14    5.4781   680.3    2.761      62.502
2015    2       28    10  19    5.4756   680.2    2.760      62.461
2015    2       28    10  24    5.4729   680.1    2.759      62.420
2015    2       28    10  29    5.4704   680.0    2.758      62.379
2015    2       28    10  35    5.4678   679.8    2.757      62.337
2015    2       28    10  40    5.4654   679.7    2.756      62.296
2015    2       28    10  45    5.4627   679.5    2.755      62.254
2015    2       28    10  50    5.4602   679.4    2.754      62.212
2015    2       28    10  55    5.4576   679.3    2.753      62.170
2015    2       28    11   1    5.4551   679.1    2.752      62.128
2015    2       28    11   6    5.4527   679.0    2.751      62.086
2015    2       28    11  11    5.4501   678.8    2.750      62.044
2015    2       28    11  16    5.4476   678.7    2.749      62.001
2015    2       28    11  22    5.4451   678.6    2.748      61.958
2015    2       28    11  27    5.4425   678.4    2.747      61.915
2015    2       28    11  32    5.4399   678.3    2.746      61.872
2015    2       28    11  37    5.4375   678.1    2.745      61.829
2015    2       28    11  43    5.4349   678.0    2.745      61.785
2015    2       28    11  48    5.4324   677.8    2.744      61.742
2015    2       28    11  53    5.4299   677.6    2.743      61.698
2015    2       28    11  58    5.4276   677.5    2.742      61.654
2015    2       28    12   3    5.4250   677.3    2.741      61.609
2015    2       28    12   9    5.4225   677.2    2.741      61.565
2015    2       28    12  14    5.4200   677.0    2.740      61.520
2015    2       28    12  19    5.4176   676.9    2.739      61.476
2015    2       28    12  24    5.4151   676.7    2.738      61.431
2015    2       28    12  30    5.4127   676.5    2.738      61.387
2015    2       28    12  35    5.4103   676.4    2.737      61.342
2015    2       28    12  40    5.4078   676.2    2.736      61.297
2015    2       28    12  45    5.4054   676.0    2.735      61.252
2015    2       28    12  51    5.4030   675.9    2.735      61.208
2015    2       28    12  56    5.4006   675.7    2.734      61.163
2015    2       28    13   1    5.3982   675.5    2.734      61.118
2015    2       28    13   6    5.3958   675.4    2.733      61.073
2015    2       28    13  11    5.3934   675.2    2.732      61.028
2015    2       28    13  17    5.3910   675.0    2.732      60.983
2015    2       28    13  22    5.3886   674.9    2.731      60.939
2015    2       28    13  27    5.3862   674.7    2.730      60.894
2015    2       28    13  32    5.3838   674.5    2.730      60.849
2015    2       28    13  38    5.3814   674.4    2.729      60.804
2015    2       28    13  43    5.3790   674.2    2.729      60.759
2015    2       28    13  48    5.3766   674.0    2.728      60.714
2015    2       28    13  53    5.3742   673.9    2.728      60.669
2015    2       28    13  58    5.3718   673.7    2.727      60.624
2015    2       28    14   4    5.3694   673.5    2.727      60.579
2015    2       28    14   9    5.3670   673.4    2.726      60.534
2015    2       28    14  14    5.3646   673.2    2.726      60.489
2015    2       28    14  19    5.3622   673.0    2.725      60.445
2015    2       28    14  25    5.3598   672.8    2.725      60.400
2015    2       28    14  30    5.3574   672.7    2.724      60.355
2015    2       28    14  35    5.3550   672.5    2.724      60.311
2015    2       28    14  40    5.3526   672.3    2.724      60.267
2015    2       28    14  46    5.3502   672.1    2.723      60.223
2015    2       28    14  51    5.3478   671.9    2.723      60.180
2015    2       28    14  56    5.3454   671.8    2.723      60.136
2015    2       28    15   1    5.3430   671.6    2.722      60.093
2015    2       28    15   6    5.3406   671.4    2.722      60.051
2015    2       28    15  12    5.3382   671.2    2.722      60.010
2015    2       28    15  17    5.3358   671.0    2.722      59.969
2015    2       28    15  22    5.3335   670.9    2.722      59.929
2015    2       28    15  27    5.3311   670.7    2.722      59.889
2015    2       28    15  33    5.3288   670.5    2.722      59.850
2015    2       28    15  38    5.3264   670.3    2.721      59.812
2015    2       28    15  43    5.3241   670.1    2.721      59.774
2015    2       28    15  48    5.3217   670.0    2.721      59.736
2015    2       28    15  53    5.3194   669.8    2.721      59.699
2015    2       28    15  59    5.3171   669.6    2.722      59.662
2015    2       28    16   4    5.3148   669.4    2.722      59.626
2015    2       28    16   9    5.3125   669.2    2.722      59.590
2015    2       28    16  14    5.3102   669.0    2.722      59.554
2015    2       28    16  20    5.3079   668.9    2.722      59.519
2015    2       28    16  25    5.3056   668.7    2.722      59.484
2015    2       28    16  30    5.3034   668.5    2.722      59.449
2015    2       28    16  35    5.3011   668.3    2.723      59.414
2015    2       28    16  41    5.2988   668.1    2.723      59.381
2015    2       28    16  46    5.2966   668.0    2.723      59.347
2015    2       28    16  51    5.2944   667.8    2.723      59.315
2015    2       28    16  56    5.2922   667.6    2.723      59.282
2015    2       28    17   1    5.2900   667.4    2.724      59.251
2015    2       28    17   7    5.2878   667.2    2.724      59.219
2015    2       28    17  12    5.2855   667.1    2.724      59.187
2015    2       28    17  17    5.2834   666.9    2.724      59.156
2015    2       28    17  22    5.2812   666.7    2.724      59.124
2015    2       28    17  28    5.2790   666.5    2.724      59.092
2015    2       28    17  33    5.2768   666.4    2.725      59.060
2015    2       28    17  38    5.2746   666.2    2.725      59.028
2015    2       28    17  43    5.2724   666.0    2.725      58.995
2015    2       28    17  49    5.2702   665.8    2.725      58.962
2015    2       28    17  54    5.2680   665.7    2.725      58.929
2015    2       28    17  59    5.2660   665.5    2.725      58.895
2015    2       28    18   4    5.2637   665.3    2.725      58.861
2015    2       28    18   9    5.2615   665.1    2.725      58.827
2015    2       28    18  15    5.2594   664.9    2.725      58.792
2015    2       28    18  20    5.2572   664.8    2.725      58.757
2015    2       28    18  25    5.2552   664.6    2.724      58.721
2015    2       28    18  30    5.2529   664.4    2.724      58.686
2015    2       28    18  36    5.2508   664.2    2.724      58.650
2015    2       28    18  41    5.2487   664.0    2.724      58.614
2015    2       28    18  46    5.2465   663.9    2.724      58.577
2015    2       28    18  51    5.2444   663.7    2.724      58.541
2015    2       28    18  56    5.2423   663.5    2.724      58.504
2015    2       28    19   2    5.2401   663.3    2.724      58.466
2015    2       28    19   7    5.2380   663.1    2.723      58.428
2015    2       28    19  12    5.2359   663.0    2.723      58.390
2015    2       28    19  17    5.2337   662.8    2.723      58.351
2015    2       28    19  23    5.2316   662.6    2.723      58.312
2015    2       28    19  28    5.2295   662.4    2.722      58.272
2015    2       28    19  33    5.2273   662.2    2.722      58.231
2015    2       28    19  38    5.2252   662.0    2.722      58.190
2015    2       28    19  44    5.2231   661.9    2.721      58.149
2015    2       28    19  49    5.2209   661.7    2.721      58.107
2015    2       28    19  54    5.2188   661.5    2.720      58.064
2015    2       28    19  59    5.2167   661.3    2.720      58.021
2015    2       28    20   4    5.2146   661.1    2.719      57.977
2015    2       28    20  10    5.2124   660.9    2.719      57.933
2015    2       28    20  15    5.2103   660.7    2.718      57.889
2015    2       28    20  20    5.2082   660.5    2.718      57.844
2015    2       28    20  25    5.2061   660.3    2.717      57.799
2015    2       28    20  31    5.2039   660.1    2.716      57.753
2015    2       28    20  36    5.2019   659.9    2.716      57.706
2015    2       28    20  41    5.1997   659.7    2.715      57.660
2015    2       28    20  46    5.1976   659.5    2.714      57.612
2015    2       28    20  52    5.1955   659.3    2.713      57.565
2015    2       28    20  57    5.1934   659.1    2.713      57.516
2015    2       28    21   2    5.1913   658.9    2.712      57.468
2015    2       28    21   7    5.1891   658.7    2.711      57.418
2015    2       28    21  12    5.1870   658.5    2.710      57.369
2015    2       28    21  18    5.1849   658.3    2.709      57.319
2015    2       28    21  23    5.1828   658.1    2.708      57.268
2015    2       28    21  28    5.1807   657.9    2.708      57.217
2015    2       28    21  33    5.1786   657.7    2.707      57.166
2015    2       28    21  39    5.1765   657.5    2.706      57.114
2015    2       28    21  44    5.1744   657.3    2.705      57.062
2015    2       28    21  49    5.1723   657.1    2.705      57.010
2015    2       28    21  54    5.1702   656.9    2.704      56.958
2015    2       28    21  59    5.1681   656.7    2.703      56.906
2015    2       28    22   5    5.1660   656.4    2.702      56.854
2015    2       28    22  10    5.1639   656.2    2.702      56.802
2015    2       28    22  15    5.1618   656.0    2.701      56.750
2015    2       28    22  20    5.1598   655.8    2.701      56.698
2015    2       28    22  26    5.1577   655.6    2.700      56.648
2015    2       28    22  31    5.1557   655.3    2.700      56.597
2015    2       28    22  36    5.1536   655.1    2.699      56.547
2015    2       28    22  41    5.1516   654.9    2.699      56.498
2015    2       28    22  47    5.1496   654.7    2.699      56.450
2015    2       28    22  52    5.1475   654.4    2.699      56.401
2015    2       28    22  57    5.1455   654.2    2.698      56.353
2015    2       28    23   2    5.1435   654.0    2.698      56.306
2015    2       28    23   7    5.1415   653.8    2.698      56.260
2015    2       28    23  13    5.1395   653.5    2.698      56.214
2015    2       28    23  18    5.1375   653.3    2.698      56.168
2015    2       28    23  23    5.1355   653.1    2.698      56.123
2015    2       28    23  28    5.1335   652.8    2.698      56.078
2015    2       28    23  34    5.1316   652.6    2.699      56.035
2015    2       28    23  39    5.1296   652.4    2.699      55.992
2015    2       28    23  44    5.1277   652.1    2.699      55.949
2015    2       28    23  49    5.1258   651.9    2.700      55.907
2015    2       28    23  55    5.1238   651.7    2.700      55.867
2015    3        1     0   0    5.1219   651.4    2.701      55.828
2015    3        1     0   5    5.1200   651.2    2.702      55.790
2015    3        1     0  10    5.1182   651.0    2.702      55.753
2015    3        1     0  15    5.1163   650.7    2.703      55.718
2015    3        1     0  21    5.1144   650.5    2.704      55.683
2015    3        1     0  26    5.1125   650.3    2.705      55.649
2015    3        1     0  31    5.1107   650.1    2.705      55.615
2015    3        1     0  36    5.1088   649.8    2.706      55.583
2015    3        1     0  42    5.1069   649.6    2.707      55.551
2015    3        1     0  47    5.1051   649.4    2.708      55.519
2015    3        1     0  52    5.1032   649.2    2.709      55.487
2015    3        1     0  57    5.1014   648.9    2.709      55.456
2015    3        1     1   2    5.0995   648.7    2.710      55.425
2015    3        1     1   8    5.0976   648.5    2.711      55.394
2015    3        1     1  13    5.0957   648.3    2.712      55.362
2015    3        1     1  18    5.0938   648.1    2.713      55.331
2015    3        1     1  23    5.0920   647.8    2.714      55.300
2015    3        1     1  29    5.0901   647.6    2.715      55.268
2015    3        1     1  34    5.0882   647.4    2.715      55.237
2015    3        1     1  39    5.0863   647.2    2.716      55.206
2015    3        1     1  44    5.0844   647.0    2.717      55.174
2015    3        1     1  50    5.0824   646.8    2.718      55.143
2015    3        1     1  55    5.0805   646.5    2.719      55.112
2015    3        1     2   0    5.0785   646.3    2.719      55.081
2015    3        1     2   5    5.0766   646.1    2.720      55.049
2015    3        1     2  10    5.0746   645.9    2.721      55.018
2015    3        1     2  16    5.0726   645.7    2.722      54.987
2015    3        1     2  21    5.0707   645.5    2.722      54.956
2015    3        1     2  26    5.0687   645.3    2.723      54.924
2015    3        1     2  31    5.0667   645.1    2.723      54.893
2015    3        1     2  37    5.0647   644.9    2.724      54.861
2015    3        1     2  42    5.0627   644.6    2.725      54.829
2015    3        1     2  47    5.0607   644.4    2.725      54.797
2015    3        1     2  52    5.0587   644.2    2.726      54.764
2015    3        1     2  57    5.0567   644.0    2.726      54.732
2015    3        1     3   3    5.0546   643.8    2.727      54.699
2015    3        1     3   8    5.0526   643.6    2.727      54.665
2015    3        1     3  13    5.0506   643.4    2.727      54.632
2015    3        1     3  18    5.0486   643.2    2.728      54.598
2015    3        1     3  24    5.0466   642.9    2.728      54.564
2015    3        1     3  29    5.0446   642.7    2.728      54.530
2015    3        1     3  34    5.0426   642.5    2.729      54.496
2015    3        1     3  39    5.0405   642.3    2.729      54.461
2015    3        1     3  45    5.0385   642.1    2.729      54.427
2015    3        1     3  50    5.0365   641.9    2.729      54.392
2015    3        1     3  55    5.0345   641.7    2.730      54.357
2015    3        1     4   0    5.0325   641.4    2.730      54.322
2015    3        1     4   5    5.0305   641.2    2.730      54.287
2015    3        1     4  11    5.0285   641.0    2.730      54.252
2015    3        1     4  16    5.0265   640.8    2.730      54.216
2015    3        1     4  21    5.0246   640.6    2.731      54.181
2015    3        1     4  26    5.0226   640.3    2.731      54.145
2015    3        1     4  32    5.0206   640.1    2.731      54.108
2015    3        1     4  37    5.0187   639.9    2.731      54.072
2015    3        1     4  42    5.0167   639.7    2.731      54.035
2015    3        1     4  47    5.0148   639.5    2.731      53.997
2015    3        1     4  53    5.0128   639.2    2.731      53.959
2015    3        1     4  58    5.0109   639.0    2.731      53.921
2015    3        1     5   3    5.0089   638.8    2.731      53.882
2015    3        1     5   8    5.0070   638.6    2.731      53.843
2015    3        1     5  13    5.0051   638.3    2.731      53.803
2015    3        1     5  19    5.0033   638.1    2.731      53.763
2015    3        1     5  24    5.0013   637.9    2.731      53.723
2015    3        1     5  29    4.9995   637.6    2.731      53.682
2015    3        1     5  34    4.9975   637.4    2.731      53.641
2015    3        1     5  40    4.9956   637.2    2.731      53.600
2015    3        1     5  45    4.9938   637.0    2.731      53.559
2015    3        1     5  50    4.9919   636.7    2.731      53.517
2015    3        1     5  55    4.9901   636.5    2.730      53.476
2015    3        1     6   0    4.9882   636.2    2.730      53.434
2015    3        1     6   6    4.9864   636.0    2.730      53.392
2015    3        1     6  11    4.9847   635.8    2.730      53.350
2015    3        1     6  16    4.9829   635.5    2.730      53.308
2015    3        1     6  21    4.9811   635.3    2.729      53.266
2015    3        1     6  27    4.9792   635.1    2.729      53.223
2015    3        1     6  32    4.9774   634.8    2.729      53.181
2015    3        1     6  37    4.9757   634.6    2.729      53.137
2015    3        1     6  42    4.9739   634.3    2.729      53.094
2015    3        1     6  48    4.9723   634.1    2.728      53.050
2015    3        1     6  53    4.9704   633.8    2.728      53.007
2015    3        1     6  58    4.9687   633.6    2.728      52.962
2015    3        1     7   3    4.9670   633.3    2.728      52.918
2015    3        1     7   8    4.9653   633.1    2.728      52.874
2015    3        1     7  14    4.9637   632.8    2.728      52.831
2015    3        1     7  19    4.9620   632.6    2.728      52.788
2015    3        1     7  24    4.9603   632.3    2.728      52.744
2015    3        1     7  29    4.9586   632.1    2.729      52.702
2015    3        1     7  35    4.9569   631.8    2.729      52.659
2015    3        1     7  40    4.9553   631.6    2.729      52.617
2015    3        1     7  45    4.9536   631.3    2.729      52.575
2015    3        1     7  50    4.9520   631.1    2.730      52.534
2015    3        1     7  56    4.9504   630.8    2.730      52.493
2015    3        1     8   1    4.9487   630.6    2.730      52.453
2015    3        1     8   6    4.9471   630.3    2.731      52.412
2015    3        1     8  11    4.9455   630.1    2.731      52.373
2015    3        1     8  16    4.9439   629.8    2.732      52.333
2015    3        1     8  22    4.9422   629.6    2.732      52.294
2015    3        1     8  27    4.9406   629.3    2.733      52.255
2015    3        1     8  32    4.9390   629.1    2.734      52.217
2015    3        1     8  37    4.9374   628.8    2.734      52.178
2015    3        1     8  43    4.9357   628.6    2.735      52.140
2015    3        1     8  48    4.9341   628.3    2.736      52.102
2015    3        1     8  53    4.9324   628.0    2.737      52.065
2015    3        1     8  58    4.9308   627.8    2.738      52.027
2015    3        1     9   3    4.9291   627.5    2.738      51.990
2015    3        1     9   9    4.9275   627.3    2.739      51.953
2015    3        1     9  14    4.9258   627.0    2.740      51.917
2015    3        1     9  19    4.9241   626.8    2.741      51.880
2015    3        1     9  24    4.9225   626.5    2.742      51.844
2015    3        1     9  30    4.9208   626.2    2.743      51.809
2015    3        1     9  35    4.9191   626.0    2.744      51.773
2015    3        1     9  40    4.9174   625.7    2.745      51.738
2015    3        1     9  45    4.9158   625.5    2.746      51.703
2015    3        1     9  51    4.9141   625.2    2.747      51.669
2015    3        1     9  56    4.9124   625.0    2.748      51.635
2015    3        1    10   1    4.9108   624.7    2.749      51.601
2015    3        1    10   6    4.9091   624.4    2.750      51.567
2015    3        1    10  11    4.9075   624.2    2.751      51.533
2015    3        1    10  17    4.9058   623.9    2.753      51.500
2015    3        1    10  22    4.9042   623.7    2.754      51.466
2015    3        1    10  27    4.9025   623.4    2.755      51.433
2015    3        1    10  32    4.9009   623.2    2.756      51.400
2015    3        1    10  38    4.8993   622.9    2.757      51.367
2015    3        1    10  43    4.8976   622.7    2.758      51.334
2015    3        1    10  48    4.8960   622.4    2.760      51.301
2015    3        1    10  53    4.8943   622.2    2.761      51.268
2015    3        1    10  59    4.8927   621.9    2.762      51.235
2015    3        1    11   4    4.8910   621.6    2.763      51.202
2015    3        1    11   9    4.8894   621.4    2.764      51.169
2015    3        1    11  14    4.8877   621.1    2.765      51.136
2015    3        1    11  19    4.8860   620.9    2.766      51.103
2015    3        1    11  25    4.8844   620.6    2.768      51.071
2015    3        1    11  30    4.8827   620.4    2.769      51.038
2015    3        1    11  35    4.8811   620.1    2.770      51.005
2015    3        1    11  40    4.8794   619.8    2.771      50.973
2015    3        1    11  46    4.8777   619.6    2.772      50.940
2015    3        1    11  51    4.8761   619.3    2.773      50.908
2015    3        1    11  56    4.8745   619.0    2.774      50.876
2015    3        1    12   1    4.8728   618.8    2.775      50.845
2015    3        1    12   6    4.8712   618.5    2.777      50.813
2015    3        1    12  12    4.8696   618.3    2.778      50.782
2015    3        1    12  17    4.8680   618.0    2.779      50.751
2015    3        1    12  22    4.8664   617.8    2.780      50.719
2015    3        1    12  27    4.8648   617.5    2.781      50.688
2015    3        1    12  33    4.8633   617.2    2.782      50.658
2015    3        1    12  38    4.8617   617.0    2.784      50.627
2015    3        1    12  43    4.8602   616.7    2.785      50.597
2015    3        1    12  48    4.8586   616.5    2.786      50.567
2015    3        1    12  54    4.8571   616.2    2.787      50.537
2015    3        1    12  59    4.8556   615.9    2.788      50.508
2015    3        1    13   4    4.8541   615.7    2.790      50.479
2015    3        1    13   9    4.8527   615.4    2.791      50.450
2015    3        1    13  14    4.8512   615.2    2.792      50.422
2015    3        1    13  20    4.8497   614.9    2.793      50.394
2015    3        1    13  25    4.8483   614.6    2.795      50.366
2015    3        1    13  30    4.8469   614.4    2.796      50.338
2015    3        1    13  35    4.8455   614.1    2.797      50.311
2015    3        1    13  41    4.8441   613.9    2.798      50.283
2015    3        1    13  46    4.8427   613.6    2.800      50.256
2015    3        1    13  51    4.8413   613.3    2.801      50.229
2015    3        1    13  56    4.8399   613.1    2.802      50.202
2015    3        1    14   2    4.8385   612.8    2.803      50.175
2015    3        1    14   7    4.8372   612.6    2.805      50.147
2015    3        1    14  12    4.8358   612.3    2.806      50.119
2015    3        1    14  17    4.8345   612.0    2.807      50.091
2015    3        1    14  22    4.8332   611.8    2.808      50.063
2015    3        1    14  28    4.8318   611.5    2.810      50.035
2015    3        1    14  33    4.8305   611.3    2.811      50.006
2015    3        1    14  38    4.8292   611.0    2.812      49.977
2015    3        1    14  43    4.8279   610.8    2.813      49.948
2015    3        1    14  49    4.8266   610.5    2.814      49.918
2015    3        1    14  54    4.8252   610.2    2.816      49.888
2015    3        1    14  59    4.8239   610.0    2.817      49.858
2015    3        1    15   4    4.8226   609.7    2.818      49.827
2015    3        1    15   9    4.8213   609.5    2.819      49.796
2015    3        1    15  15    4.8199   609.2    2.820      49.765
2015    3        1    15  20    4.8186   608.9    2.821      49.733
2015    3        1    15  25    4.8174   608.7    2.822      49.701
2015    3        1    15  30    4.8161   608.4    2.823      49.669
2015    3        1    15  36    4.8147   608.1    2.824      49.636
2015    3        1    15  41    4.8135   607.9    2.825      49.603
2015    3        1    15  46    4.8122   607.6    2.826      49.570
2015    3        1    15  51    4.8109   607.3    2.827      49.537
2015    3        1    15  57    4.8095   607.1    2.828      49.504
2015    3        1    16   2    4.8083   606.8    2.829      49.470
2015    3        1    16   7    4.8070   606.5    2.830      49.436
2015    3        1    16  12    4.8057   606.3    2.831      49.402
2015    3        1    16  17    4.8045   606.0    2.833      49.368
2015    3        1    16  23    4.8033   605.7    2.834      49.333
2015    3        1    16  28    4.8020   605.5    2.835      49.299
2015    3        1    16  33    4.8008   605.2    2.836      49.264
2015    3        1    16  38    4.7996   604.9    2.837      49.230
2015    3        1    16  44    4.7984   604.6    2.838      49.195
2015    3        1    16  49    4.7972   604.4    2.839      49.160
2015    3        1    16  54    4.7960   604.1    2.841      49.126
2015    3        1    16  59    4.7948   603.8    2.842      49.091
2015    3        1    17   4    4.7936   603.5    2.843      49.056
2015    3        1    17  10    4.7925   603.3    2.845      49.022
2015    3        1    17  15    4.7913   603.0    2.846      48.988
2015    3        1    17  20    4.7902   602.7    2.848      48.954
2015    3        1    17  25    4.7891   602.5    2.849      48.920
2015    3        1    17  31    4.7880   602.2    2.851      48.886
2015    3        1    17  36    4.7869   601.9    2.852      48.853
2015    3        1    17  41    4.7858   601.6    2.854      48.820
2015    3        1    17  46    4.7847   601.4    2.855      48.788
2015    3        1    17  52    4.7836   601.1    2.857      48.755
2015    3        1    17  57    4.7826   600.8    2.859      48.723
2015    3        1    18   2    4.7816   600.6    2.860      48.691
2015    3        1    18   7    4.7805   600.3    2.862      48.659
2015    3        1    18  12    4.7795   600.0    2.864      48.627
2015    3        1    18  18    4.7785   599.8    2.866      48.596
2015    3        1    18  23    4.7775   599.5    2.867      48.564
2015    3        1    18  28    4.7764   599.2    2.869      48.533
2015    3        1    18  33    4.7755   598.9    2.871      48.502
2015    3        1    18  39    4.7744   598.7    2.873      48.471
2015    3        1    18  44    4.7735   598.4    2.875      48.439
2015    3        1    18  49    4.7725   598.1    2.876      48.408
2015    3        1    18  54    4.7715   597.9    2.878      48.377
2015    3        1    19   0    4.7705   597.6    2.880      48.346
2015    3        1    19   5    4.7696   597.3    2.882      48.315
2015    3        1    19  10    4.7686   597.0    2.884      48.283
2015    3        1    19  15    4.7676   596.8    2.886      48.252
2015    3        1    19  20    4.7667   596.5    2.887      48.221
2015    3        1    19  26    4.7657   596.2    2.889      48.190
2015    3        1    19  31    4.7647   596.0    2.891      48.159
2015    3        1    19  36    4.7638   595.7    2.893      48.128
2015    3        1    19  41    4.7628   595.4    2.895      48.098
2015    3        1    19  47    4.7620   595.1    2.896      48.067
2015    3        1    19  52    4.7610   594.9    2.898      48.036
2015    3        1    19  57    4.7601   594.6    2.900      48.006
2015    3        1    20   2    4.7592   594.3    2.902      47.976
2015    3        1    20   8    4.7583   594.0    2.904      47.946
2015    3        1    20  13    4.7574   593.8    2.906      47.916
2015    3        1    20  18    4.7565   593.5    2.908      47.886
2015    3        1    20  23    4.7557   593.2    2.910      47.857
2015    3        1    20  28    4.7548   593.0    2.911      47.828
2015    3        1    20  34    4.7540   592.7    2.913      47.799
2015    3        1    20  39    4.7532   592.4    2.915      47.771
2015    3        1    20  44    4.7524   592.2    2.917      47.743
2015    3        1    20  49    4.7515   591.9    2.919      47.715
2015    3        1    20  55    4.7507   591.6    2.922      47.687
2015    3        1    21   0    4.7499   591.4    2.924      47.660
2015    3        1    21   5    4.7491   591.1    2.926      47.633
2015    3        1    21  10    4.7483   590.8    2.928      47.606
2015    3        1    21  15    4.7476   590.5    2.930      47.580
2015    3        1    21  21    4.7467   590.3    2.932      47.554
2015    3        1    21  26    4.7460   590.0    2.934      47.528
2015    3        1    21  31    4.7453   589.8    2.937      47.502
2015    3        1    21  36    4.7445   589.5    2.939      47.477
2015    3        1    21  42    4.7437   589.2    2.941      47.452
2015    3        1    21  47    4.7430   589.0    2.944      47.427
2015    3        1    21  52    4.7423   588.7    2.946      47.402
2015    3        1    21  57    4.7416   588.4    2.948      47.377
2015    3        1    22   3    4.7409   588.2    2.951      47.353
2015    3        1    22   8    4.7402   587.9    2.953      47.329
2015    3        1    22  13    4.7395   587.7    2.955      47.304
2015    3        1    22  18    4.7388   587.4    2.958      47.280
2015    3        1    22  23    4.7381   587.1    2.960      47.256
2015    3        1    22  29    4.7375   586.9    2.962      47.232
2015    3        1    22  34    4.7368   586.6    2.965      47.208
2015    3        1    22  39    4.7362   586.4    2.967      47.184
2015    3        1    22  44    4.7355   586.1    2.970      47.160
2015    3        1    22  50    4.7349   585.9    2.972      47.136
2015    3        1    22  55    4.7343   585.6    2.974      47.112
2015    3        1    23   0    4.7337   585.3    2.977      47.088
2015    3        1    23   5    4.7331   585.1    2.979      47.063
2015    3        1    23  10    4.7325   584.8    2.981      47.039
2015    3        1    23  16    4.7319   584.6    2.984      47.014
2015    3        1    23  21    4.7313   584.3    2.986      46.989
2015    3        1    23  26    4.7307   584.1    2.988      46.963
2015    3        1    23  31    4.7301   583.8    2.991      46.938
2015    3        1    23  37    4.7295   583.6    2.993      46.912
2015    3        1    23  42    4.7290   583.3    2.995      46.886
2015    3        1    23  47    4.7284   583.1    2.997      46.860
2015    3        1    23  52    4.7279   582.8    2.999      46.833
2015    3        1    23  58    4.7273   582.6    3.002      46.806
2015    3        2     0   3    4.7268   582.3    3.004      46.779
2015    3        2     0   8    4.7261   582.1    3.006      46.752
2015    3        2     0  13    4.7256   581.8    3.008      46.724
2015    3        2     0  18    4.7250   581.6    3.010      46.696
2015    3        2     0  24    4.7245   581.3    3.012      46.668
2015    3        2     0  29    4.7240   581.1    3.014      46.640
2015    3        2     0  34    4.7234   580.8    3.016      46.611
2015    3        2     0  39    4.7229   580.6    3.018      46.583
2015    3        2     0  45    4.7224   580.3    3.020      46.554
2015    3        2     0  50    4.7219   580.1    3.022      46.525
2015    3        2     0  55    4.7214   579.8    3.024      46.496
2015    3        2     1   0    4.7209   579.6    3.026      46.467
2015    3        2     1   6    4.7204   579.3    3.028      46.438
2015    3        2     1  11    4.7199   579.1    3.030      46.409
2015    3        2     1  16    4.7194   578.8    3.032      46.380
2015    3        2     1  21    4.7190   578.6    3.034      46.350
2015    3        2     1  26    4.7185   578.3    3.036      46.321
2015    3        2     1  32    4.7180   578.1    3.038      46.291
2015    3        2     1  37    4.7176   577.8    3.040      46.262
2015    3        2     1  42    4.7171   577.6    3.042      46.233
2015    3        2     1  47    4.7167   577.3    3.044      46.203
2015    3        2     1  53    4.7162   577.1    3.045      46.174
2015    3        2     1  58    4.7158   576.8    3.047      46.145
2015    3        2     2   3    4.7153   576.6    3.049      46.115
2015    3        2     2   8    4.7149   576.3    3.051      46.086
2015    3        2     2  13    4.7145   576.1    3.053      46.057
2015    3        2     2  19    4.7141   575.9    3.055      46.028
2015    3        2     2  24    4.7136   575.6    3.057      45.998
2015    3        2     2  29    4.7132   575.4    3.059      45.969
2015    3        2     2  34    4.7128   575.1    3.061      45.940
2015    3        2     2  40    4.7124   574.9    3.063      45.911
2015    3        2     2  45    4.7120   574.6    3.065      45.882
2015    3        2     2  50    4.7116   574.4    3.067      45.853
2015    3        2     2  55    4.7112   574.1    3.069      45.824
2015    3        2     3   1    4.7107   573.9    3.071      45.796
2015    3        2     3   6    4.7104   573.6    3.073      45.767
2015    3        2     3  11    4.7100   573.4    3.075      45.738
2015    3        2     3  16    4.7096   573.2    3.077      45.709
2015    3        2     3  21    4.7092   572.9    3.079      45.681
2015    3        2     3  27    4.7088   572.7    3.081      45.652
2015    3        2     3  32    4.7084   572.4    3.083      45.624
2015    3        2     3  37    4.7080   572.2    3.085      45.596
2015    3        2     3  42    4.7076   571.9    3.087      45.567
2015    3        2     3  48    4.7072   571.7    3.089      45.539
2015    3        2     3  53    4.7069   571.4    3.091      45.511
2015    3        2     3  58    4.7064   571.2    3.093      45.482
2015    3        2     4   3    4.7061   571.0    3.095      45.454
2015    3        2     4   9    4.7057   570.7    3.097      45.426
2015    3        2     4  14    4.7053   570.5    3.099      45.398
2015    3        2     4  19    4.7049   570.2    3.101      45.370
2015    3        2     4  24    4.7046   570.0    3.103      45.342
2015    3        2     4  29    4.7043   569.7    3.105      45.314
2015    3        2     4  35    4.7039   569.5    3.108      45.286
2015    3        2     4  40    4.7035   569.2    3.110      45.258
2015    3        2     4  45    4.7032   569.0    3.112      45.231
2015    3        2     4  50    4.7028   568.8    3.114      45.203
2015    3        2     4  56    4.7025   568.5    3.116      45.175
2015    3        2     5   1    4.7021   568.3    3.119      45.148
2015    3        2     5   6    4.7019   568.0    3.121      45.120
2015    3        2     5  11    4.7015   567.8    3.123      45.093
2015    3        2     5  16    4.7012   567.5    3.125      45.065
2015    3        2     5  22    4.7009   567.3    3.128      45.038
2015    3        2     5  27    4.7005   567.1    3.130      45.010
2015    3        2     5  32    4.7002   566.8    3.132      44.983
2015    3        2     5  37    4.6999   566.6    3.134      44.955
2015    3        2     5  43    4.6996   566.3    3.137      44.928
2015    3        2     5  48    4.6993   566.1    3.139      44.900
2015    3        2     5  53    4.6991   565.9    3.141      44.873
2015    3        2     5  58    4.6987   565.6    3.144      44.845
2015    3        2     6   4    4.6984   565.4    3.146      44.818
2015    3        2     6   9    4.6982   565.2    3.148      44.790
2015    3        2     6  14    4.6979   564.9    3.151      44.763
2015    3        2     6  19    4.6976   564.7    3.153      44.735
2015    3        2     6  24    4.6973   564.4    3.155      44.708
2015    3        2     6  30    4.6970   564.2    3.158      44.680
2015    3        2     6  35    4.6967   564.0    3.160      44.652
2015    3        2     6  40    4.6964   563.7    3.162      44.624
2015    3        2     6  45    4.6961   563.5    3.165      44.596
2015    3        2     6  51    4.6958   563.3    3.167      44.569
2015    3        2     6  56    4.6955   563.0    3.169      44.541
2015    3        2     7   1    4.6952   562.8    3.171      44.513
2015    3        2     7   6    4.6949   562.6    3.174      44.485
2015    3        2     7  12    4.6946   562.3    3.176      44.457
2015    3        2     7  17    4.6942   562.1    3.178      44.429
2015    3        2     7  22    4.6939   561.9    3.180      44.401
2015    3        2     7  27    4.6936   561.6    3.183      44.373
2015    3        2     7  32    4.6933   561.4    3.185      44.344
2015    3        2     7  38    4.6930   561.2    3.187      44.316
2015    3        2     7  43    4.6927   560.9    3.189      44.288
2015    3        2     7  48    4.6924   560.7    3.191      44.260
2015    3        2     7  53    4.6921   560.5    3.193      44.232
2015    3        2     7  59    4.6917   560.2    3.196      44.204
2015    3        2     8   4    4.6914   560.0    3.198      44.176
2015    3        2     8   9    4.6911   559.8    3.200      44.148
2015    3        2     8  14    4.6908   559.5    3.202      44.120
2015    3        2     8  19    4.6905   559.3    3.204      44.092
2015    3        2     8  25    4.6901   559.1    3.206      44.064
2015    3        2     8  30    4.6898   558.9    3.208      44.036
2015    3        2     8  35    4.6895   558.6    3.211      44.008
2015    3        2     8  40    4.6892   558.4    3.213      43.980
2015    3        2     8  46    4.6889   558.2    3.215      43.952
2015    3        2     8  51    4.6885   557.9    3.217      43.923
2015    3        2     8  56    4.6882   557.7    3.219      43.895
2015    3        2     9   1    4.6879   557.5    3.221      43.867
2015    3        2     9   7    4.6876   557.2    3.223      43.839
2015    3        2     9  12    4.6872   557.0    3.225      43.811
2015    3        2     9  17    4.6869   556.8    3.227      43.783
2015    3        2     9  22    4.6866   556.6    3.229      43.755
2015    3        2     9  27    4.6863   556.3    3.231      43.727
2015    3        2     9  33    4.6859   556.1    3.233      43.699
2015    3        2     9  38    4.6856   555.9    3.236      43.671
2015    3        2     9  43    4.6853   555.6    3.238      43.643
2015    3        2     9  48    4.6850   555.4    3.240      43.615
2015    3        2     9  54    4.6846   555.2    3.242      43.587
2015    3        2     9  59    4.6843   555.0    3.244      43.559
2015    3        2    10   4    4.6840   554.7    3.246      43.531
2015    3        2    10   9    4.6837   554.5    3.248      43.503
2015    3        2    10  15    4.6833   554.3    3.250      43.475
2015    3        2    10  20    4.6830   554.0    3.252      43.448
2015    3        2    10  25    4.6827   553.8    3.254      43.420
2015    3        2    10  30    4.6824   553.6    3.256      43.393
2015    3        2    10  35    4.6821   553.4    3.259      43.365
2015    3        2    10  41    4.6818   553.1    3.261      43.338
2015    3        2    10  46    4.6814   552.9    3.263      43.310
2015    3        2    10  51    4.6811   552.7    3.265      43.283
2015    3        2    10  56    4.6808   552.5    3.267      43.256
2015    3        2    11   2    4.6805   552.2    3.269      43.228
2015    3        2    11   7    4.6802   552.0    3.272      43.201
2015    3        2    11  12    4.6799   551.8    3.274      43.174
2015    3        2    11  17    4.6796   551.5    3.276      43.147
2015    3        2    11  22    4.6793   551.3    3.278      43.119
2015    3        2    11  28    4.6790   551.1    3.280      43.092
2015    3        2    11  33    4.6786   550.9    3.282      43.065
2015    3        2    11  38    4.6783   550.6    3.284      43.037
2015    3        2    11  43    4.6780   550.4    3.287      43.010
2015    3        2    11  49    4.6777   550.2    3.289      42.982
2015    3        2    11  54    4.6774   550.0    3.291      42.955
2015    3        2    11  59    4.6770   549.7    3.293      42.927
2015    3        2    12   4    4.6767   549.5    3.295      42.899
2015    3        2    12  10    4.6764   549.3    3.297      42.871
2015    3        2    12  15    4.6760   549.1    3.299      42.844
2015    3        2    12  20    4.6757   548.8    3.301      42.816
2015    3        2    12  25    4.6754   548.6    3.303      42.787
2015    3        2    12  30    4.6750   548.4    3.305      42.759
2015    3        2    12  36    4.6747   548.2    3.307      42.731
2015    3        2    12  41    4.6743   547.9    3.310      42.702
2015    3        2    12  46    4.6740   547.7    3.311      42.674
2015    3        2    12  51    4.6736   547.5    3.313      42.645
2015    3        2    12  57    4.6733   547.3    3.315      42.616
2015    3        2    13   2    4.6729   547.0    3.317      42.587
2015    3        2    13   7    4.6725   546.8    3.319      42.558
2015    3        2    13  12    4.6722   546.6    3.321      42.529
2015    3        2    13  18    4.6718   546.4    3.323      42.500
2015    3        2    13  23    4.6714   546.1    3.325      42.470
2015    3        2    13  28    4.6710   545.9    3.327      42.441
2015    3        2    13  33    4.6707   545.7    3.329      42.412
2015    3        2    13  38    4.6703   545.5    3.331      42.382
2015    3        2    13  44    4.6699   545.2    3.333      42.353
2015    3        2    13  49    4.6695   545.0    3.334      42.323
2015    3        2    13  54    4.6692   544.8    3.336      42.294
2015    3        2    13  59    4.6688   544.6    3.338      42.264
2015    3        2    14   5    4.6684   544.3    3.340      42.235
2015    3        2    14  10    4.6680   544.1    3.342      42.205
2015    3        2    14  15    4.6677   543.9    3.344      42.176
2015    3        2    14  20    4.6673   543.7    3.346      42.147
2015    3        2    14  25    4.6669   543.4    3.348      42.117
2015    3        2    14  31    4.6666   543.2    3.350      42.088
2015    3        2    14  36    4.6662   543.0    3.352      42.059
2015    3        2    14  41    4.6659   542.8    3.353      42.030
2015    3        2    14  46    4.6655   542.5    3.355      42.001
2015    3        2    14  52    4.6652   542.3    3.357      41.972
2015    3        2    14  57    4.6648   542.1    3.359      41.943
2015    3        2    15   2    4.6645   541.9    3.361      41.914
2015    3        2    15   7    4.6642   541.6    3.363      41.885
2015    3        2    15  13    4.6639   541.4    3.366      41.857
2015    3        2    15  18    4.6635   541.2    3.368      41.828
2015    3        2    15  23    4.6632   541.0    3.370      41.800
2015    3        2    15  28    4.6629   540.7    3.372      41.771
2015    3        2    15  33    4.6626   540.5    3.374      41.743
2015    3        2    15  39    4.6623   540.3    3.376      41.715
2015    3        2    15  44    4.6619   540.1    3.378      41.686
2015    3        2    15  49    4.6616   539.8    3.381      41.658
2015    3        2    15  54    4.6613   539.6    3.383      41.630
2015    3        2    16   0    4.6610   539.4    3.385      41.602
2015    3        2    16   5    4.6607   539.2    3.387      41.574
2015    3        2    16  10    4.6604   538.9    3.389      41.546
2015    3        2    16  15    4.6601   538.7    3.392      41.518
2015    3        2    16  21    4.6598   538.5    3.394      41.490
2015    3        2    16  26    4.6595   538.3    3.396      41.463
2015    3        2    16  31    4.6592   538.0    3.399      41.435
2015    3        2    16  36    4.6589   537.8    3.401      41.407
2015    3        2    16  41    4.6585   537.6    3.403      41.379
2015    3        2    16  47    4.6582   537.4    3.406      41.352
2015    3        2    16  52    4.6580   537.2    3.408      41.324
2015    3        2    16  57    4.6576   536.9    3.411      41.297
2015    3        2    17   2    4.6573   536.7    3.413      41.269
2015    3        2    17   8    4.6570   536.5    3.415      41.241
2015    3        2    17  13    4.6567   536.3    3.418      41.214
2015    3        2    17  18    4.6564   536.0    3.420      41.186
2015    3        2    17  23    4.6561   535.8    3.423      41.159
2015    3        2    17  28    4.6558   535.6    3.425      41.131
2015    3        2    17  34    4.6555   535.4    3.427      41.104
2015    3        2    17  39    4.6552   535.2    3.430      41.076
2015    3        2    17  44    4.6549   534.9    3.432      41.049
2015    3        2    17  49    4.6546   534.7    3.435      41.022
2015    3        2    17  55    4.6543   534.5    3.437      40.994
2015    3        2    18   0    4.6540   534.3    3.440      40.967
2015    3        2    18   5    4.6537   534.0    3.442      40.940
2015    3        2    18  10    4.6534   533.8    3.444      40.912
2015    3        2    18  16    4.6531   533.6    3.447      40.885
2015    3        2    18  21    4.6528   533.4    3.449      40.858
2015    3        2    18  26    4.6525   533.2    3.452      40.831
2015    3        2    18  31    4.6522   532.9    3.454      40.803
2015    3        2    18  36    4.6519   532.7    3.457      40.776
2015    3        2    18  42    4.6516   532.5    3.459      40.749
2015    3        2    18  47    4.6513   532.3    3.461      40.721
2015    3        2    18  52    4.6510   532.1    3.464      40.694
2015    3        2    18  57    4.6507   531.8    3.466      40.667
2015    3        2    19   3    4.6504   531.6    3.469      40.639
2015    3        2    19   8    4.6501   531.4    3.471      40.612
2015    3        2    19  13    4.6498   531.2    3.473      40.584
2015    3        2    19  18    4.6496   531.0    3.476      40.557
2015    3        2    19  24    4.6493   530.7    3.478      40.529
2015    3        2    19  29    4.6490   530.5    3.480      40.501
2015    3        2    19  34    4.6487   530.3    3.483      40.474
2015    3        2    19  39    4.6484   530.1    3.485      40.446
2015    3        2    19  44    4.6481   529.9    3.487      40.418
2015    3        2    19  50    4.6478   529.6    3.490      40.390
2015    3        2    19  55    4.6475   529.4    3.492      40.362
2015    3        2    20   0    4.6473   529.2    3.494      40.334
2015    3        2    20   5    4.6470   529.0    3.497      40.305
2015    3        2    20  11    4.6467   528.8    3.499      40.277
2015    3        2    20  16    4.6464   528.5    3.501      40.248
2015    3        2    20  21    4.6461   528.3    3.503      40.220
2015    3        2    20  26    4.6459   528.1    3.505      40.191
2015    3        2    20  31    4.6456   527.9    3.508      40.162
2015    3        2    20  37    4.6453   527.7    3.510      40.133
2015    3        2    20  42    4.6450   527.5    3.512      40.104
2015    3        2    20  47    4.6448   527.2    3.514      40.075
2015    3        2    20  52    4.6445   527.0    3.516      40.045
2015    3        2    20  58    4.6442   526.8    3.518      40.016
2015    3        2    21   3    4.6440   526.6    3.520      39.986
2015    3        2    21   8    4.6437   526.4    3.523      39.956
2015    3        2    21  13    4.6434   526.1    3.525      39.927
2015    3        2    21  19    4.6432   525.9    3.527      39.897
2015    3        2    21  24    4.6429   525.7    3.529      39.867
2015    3        2    21  29    4.6426   525.5    3.531      39.837
2015    3        2    21  34    4.6424   525.3    3.533      39.806
2015    3        2    21  39    4.6421   525.0    3.535      39.776
2015    3        2    21  45    4.6419   524.8    3.537      39.746
2015    3        2    21  50    4.6416   524.6    3.539      39.715
2015    3        2    21  55    4.6414   524.4    3.541      39.685
2015    3        2    22   0    4.6411   524.2    3.543      39.654
2015    3        2    22   6    4.6409   523.9    3.545      39.624
2015    3        2    22  11    4.6406   523.7    3.547      39.593
2015    3        2    22  16    4.6404   523.5    3.549      39.562
2015    3        2    22  21    4.6401   523.3    3.552      39.532
2015    3        2    22  27    4.6399   523.1    3.554      39.501
2015    3        2    22  32    4.6397   522.8    3.556      39.470
2015    3        2    22  37    4.6395   522.6    3.558      39.439
2015    3        2    22  42    4.6392   522.4    3.560      39.409
2015    3        2    22  47    4.6390   522.2    3.562      39.378
2015    3        2    22  53    4.6388   522.0    3.564      39.347
2015    3        2    22  58    4.6386   521.7    3.566      39.317
2015    3        2    23   3    4.6383   521.5    3.568      39.286
2015    3        2    23   8    4.6381   521.3    3.571      39.256
2015    3        2    23  14    4.6379   521.1    3.573      39.225
2015    3        2    23  19    4.6377   520.9    3.575      39.195
2015    3        2    23  24    4.6375   520.6    3.577      39.165
2015    3        2    23  29    4.6373   520.4    3.580      39.134
2015    3        2    23  34    4.6371   520.2    3.582      39.104
2015    3        2    23  40    4.6369   520.0    3.584      39.074
2015    3        2    23  45    4.6367   519.8    3.586      39.044
2015    3        2    23  50    4.6365   519.5    3.589      39.014
2015    3        2    23  55    4.6363   519.3    3.591      38.984
2015    3        3     0   1    4.6361   519.1    3.594      38.954
2015    3        3     0   6    4.6359   518.9    3.596      38.925
2015    3        3     0  11    4.6357   518.7    3.598      38.895
2015    3        3     0  16    4.6355   518.4    3.601      38.866
2015    3        3     0  22    4.6353   518.2    3.603      38.836
2015    3        3     0  27    4.6352   518.0    3.606      38.807
2015    3        3     0  32    4.6350   517.8    3.608      38.778
2015    3        3     0  37    4.6348   517.5    3.611      38.748
2015    3        3     0  42    4.6346   517.3    3.613      38.719
2015    3        3     0  48    4.6345   517.1    3.616      38.691
2015    3        3     0  53    4.6343   516.9    3.618      38.662
2015    3        3     0  58    4.6341   516.7    3.621      38.633
2015    3        3     1   3    4.6339   516.4    3.623      38.604
2015    3        3     1   9    4.6338   516.2    3.626      38.575
2015    3        3     1  14    4.6336   516.0    3.629      38.547
2015    3        3     1  19    4.6335   515.8    3.631      38.518
2015    3        3     1  24    4.6333   515.6    3.634      38.490
2015    3        3     1  30    4.6331   515.4    3.637      38.461
2015    3        3     1  35    4.6330   515.1    3.639      38.433
2015    3        3     1  40    4.6328   514.9    3.642      38.404
2015    3        3     1  45    4.6327   514.7    3.645      38.376
2015    3        3     1  50    4.6325   514.5    3.647      38.348
2015    3        3     1  56    4.6324   514.3    3.650      38.320
2015    3        3     2   1    4.6323   514.0    3.653      38.291
2015    3        3     2   6    4.6321   513.8    3.656      38.263
2015    3        3     2  11    4.6320   513.6    3.658      38.235
2015    3        3     2  17    4.6319   513.4    3.661      38.207
2015    3        3     2  22    4.6317   513.2    3.664      38.179
2015    3        3     2  27    4.6316   512.9    3.667      38.151
2015    3        3     2  32    4.6315   512.7    3.669      38.122
2015    3        3     2  37    4.6314   512.5    3.672      38.094
2015    3        3     2  43    4.6312   512.3    3.675      38.066
2015    3        3     2  48    4.6311   512.1    3.678      38.038
2015    3        3     2  53    4.6310   511.8    3.681      38.010
2015    3        3     2  58    4.6309   511.6    3.683      37.981
2015    3        3     3   4    4.6308   511.4    3.686      37.953
2015    3        3     3   9    4.6307   511.2    3.689      37.925
2015    3        3     3  14    4.6306   511.0    3.692      37.897
2015    3        3     3  19    4.6305   510.8    3.694      37.868
2015    3        3     3  25    4.6304   510.5    3.697      37.840
2015    3        3     3  30    4.6303   510.3    3.700      37.811
2015    3        3     3  35    4.6303   510.1    3.703      37.783
2015    3        3     3  40    4.6302   509.9    3.706      37.754
2015    3        3     3  45    4.6301   509.7    3.708      37.726
2015    3        3     3  51    4.6300   509.5    3.711      37.697
2015    3        3     3  56    4.6300   509.2    3.714      37.668
2015    3        3     4   1    4.6299   509.0    3.717      37.639
2015    3        3     4   6    4.6299   508.8    3.720      37.611
2015    3        3     4  12    4.6298   508.6    3.722      37.582
2015    3        3     4  17    4.6298   508.4    3.725      37.553
2015    3        3     4  22    4.6297   508.1    3.728      37.523
2015    3        3     4  27    4.6297   507.9    3.731      37.494
2015    3        3     4  33    4.6296   507.7    3.733      37.465
2015    3        3     4  38    4.6296   507.5    3.736      37.435
2015    3        3     4  43    4.6295   507.3    3.739      37.406
2015    3        3     4  48    4.6295   507.1    3.741      37.376
2015    3        3     4  53    4.6295   506.8    3.744      37.347
2015    3        3     4  59    4.6294   506.6    3.747      37.317
2015    3        3     5   4    4.6294   506.4    3.749      37.287
2015    3        3     5   9    4.6294   506.2    3.752      37.257
2015    3        3     5  14    4.6294   506.0    3.755      37.227
2015    3        3     5  20    4.6293   505.8    3.757      37.197
2015    3        3     5  25    4.6293   505.5    3.760      37.166
2015    3        3     5  30    4.6293   505.3    3.763      37.136
2015    3        3     5  35    4.6293   505.1    3.765      37.105
2015    3        3     5  40    4.6293   504.9    3.768      37.075
2015    3        3     5  46    4.6293   504.7    3.771      37.044
2015    3        3     5  51    4.6293   504.4    3.773      37.013
2015    3        3     5  56    4.6293   504.2    3.776      36.983
2015    3        3     6   1    4.6293   504.0    3.778      36.952
2015    3        3     6   7    4.6293   503.8    3.781      36.921
2015    3        3     6  12    4.6293   503.6    3.784      36.890
2015    3        3     6  17    4.6294   503.4    3.786      36.859
2015    3        3     6  22    4.6294   503.1    3.789      36.828
2015    3        3     6  28    4.6294   502.9    3.792      36.797
2015    3        3     6  33    4.6295   502.7    3.794      36.766
2015    3        3     6  38    4.6295   502.5    3.797      36.735
2015    3        3     6  43    4.6296   502.3    3.800      36.704
2015    3        3     6  48    4.6296   502.0    3.802      36.673
2015    3        3     6  54    4.6297   501.8    3.805      36.642
2015    3        3     6  59    4.6297   501.6    3.808      36.611
2015    3        3     7   4    4.6298   501.4    3.810      36.580
2015    3        3     7   9    4.6299   501.2    3.813      36.549
2015    3        3     7  15    4.6300   500.9    3.816      36.518
2015    3        3     7  20    4.6300   500.7    3.818      36.487
2015    3        3     7  25    4.6301   500.5    3.821      36.457
2015    3        3     7  30    4.6302   500.3    3.824      36.426
2015    3        3     7  36    4.6303   500.1    3.827      36.395
2015    3        3     7  41    4.6304   499.9    3.829      36.365
2015    3        3     7  46    4.6305   499.6    3.832      36.334
2015    3        3     7  51    4.6307   499.4    3.835      36.304
2015    3        3     7  56    4.6308   499.2    3.838      36.273
2015    3        3     8   2    4.6309   499.0    3.841      36.243
2015    3        3     8   7    4.6310   498.8    3.844      36.213
2015    3        3     8  12    4.6312   498.5    3.846      36.182
2015    3        3     8  17    4.6313   498.3    3.849      36.152
2015    3        3     8  23    4.6315   498.1    3.852      36.122
2015    3        3     8  28    4.6316   497.9    3.855      36.092
2015    3        3     8  33    4.6318   497.7    3.858      36.062
2015    3        3     8  38    4.6319   497.4    3.861      36.032
2015    3        3     8  43    4.6321   497.2    3.864      36.002
2015    3        3     8  49    4.6323   497.0    3.867      35.973
2015    3        3     8  54    4.6324   496.8    3.870      35.943
2015    3        3     8  59    4.6326   496.6    3.873      35.913
2015    3        3     9   4    4.6328   496.4    3.876      35.884
2015    3        3     9  10    4.6330   496.1    3.879      35.854
2015    3        3     9  15    4.6332   495.9    3.882      35.825
2015    3        3     9  20    4.6334   495.7    3.886      35.795
2015    3        3     9  25    4.6335   495.5    3.889      35.766
2015    3        3     9  31    4.6338   495.3    3.892      35.736
2015    3        3     9  36    4.6339   495.0    3.895      35.707
2015    3        3     9  41    4.6342   494.8    3.898      35.678
2015    3        3     9  46    4.6344   494.6    3.901      35.648
2015    3        3     9  51    4.6346   494.4    3.904      35.619
2015    3        3     9  57    4.6348   494.2    3.908      35.590
2015    3        3    10   2    4.6350   494.0    3.911      35.561
2015    3        3    10   7    4.6353   493.7    3.914      35.531
2015    3        3    10  12    4.6355   493.5    3.917      35.502
2015    3        3    10  18    4.6358   493.3    3.921      35.473
2015    3        3    10  23    4.6360   493.1    3.924      35.444
2015    3        3    10  28    4.6363   492.9    3.927      35.415
2015    3        3    10  33    4.6365   492.7    3.930      35.386
2015    3        3    10  39    4.6368   492.4    3.934      35.357
2015    3        3    10  44    4.6371   492.2    3.937      35.328
2015    3        3    10  49    4.6374   492.0    3.940      35.299
2015    3        3    10  54    4.6377   491.8    3.943      35.270
2015    3        3    10  59    4.6380   491.6    3.947      35.241
2015    3        3    11   5    4.6383   491.3    3.950      35.212
2015    3        3    11  10    4.6386   491.1    3.953      35.183
2015    3        3    11  15    4.6389   490.9    3.957      35.154
2015    3        3    11  20    4.6392   490.7    3.960      35.125
2015    3        3    11  26    4.6395   490.5    3.964      35.096
2015    3        3    11  31    4.6399   490.3    3.967      35.067
2015    3        3    11  36    4.6402   490.0    3.970      35.038
2015    3        3    11  41    4.6406   489.8    3.974      35.009
2015    3        3    11  46    4.6410   489.6    3.977      34.980
2015    3        3    11  52    4.6413   489.4    3.981      34.951
2015    3        3    11  57    4.6417   489.2    3.984      34.922
2015    3        3    12   2    4.6421   489.0    3.988      34.893
2015    3        3    12   7    4.6425   488.7    3.991      34.864
2015    3        3    12  13    4.6429   488.5    3.995      34.835
2015    3        3    12  18    4.6433   488.3    3.998      34.806
2015    3        3    12  23    4.6437   488.1    4.002      34.777
2015    3        3    12  28    4.6442   487.9    4.005      34.748
2015    3        3    12  34    4.6446   487.7    4.009      34.719
2015    3        3    12  39    4.6451   487.4    4.013      34.691
2015    3        3    12  44    4.6455   487.2    4.016      34.661
2015    3        3    12  49    4.6460   487.0    4.020      34.633
2015    3        3    12  54    4.6465   486.8    4.023      34.604
2015    3        3    13   0    4.6469   486.6    4.027      34.575
2015    3        3    13   5    4.6474   486.4    4.031      34.546
2015    3        3    13  10    4.6479   486.1    4.034      34.517
2015    3        3    13  15    4.6484   485.9    4.038      34.488
2015    3        3    13  21    4.6489   485.7    4.042      34.459
2015    3        3    13  26    4.6495   485.5    4.046      34.430
2015    3        3    13  31    4.6500   485.3    4.049      34.401
2015    3        3    13  36    4.6505   485.0    4.053      34.372
2015    3        3    13  42    4.6511   484.8    4.057      34.343
2015    3        3    13  47    4.6516   484.6    4.061      34.315
2015    3        3    13  52    4.6522   484.4    4.065      34.286
2015    3        3    13  57    4.6528   484.2    4.068      34.257
2015    3        3    14   2    4.6533   484.0    4.072      34.228
2015    3        3    14   8    4.6539   483.7    4.076      34.200
2015    3        3    14  13    4.6545   483.5    4.080      34.171
2015    3        3    14  18    4.6551   483.3    4.084      34.142
2015    3        3    14  23    4.6558   483.1    4.088      34.114
2015    3        3    14  29    4.6564   482.9    4.092      34.085
2015    3        3    14  34    4.6570   482.7    4.096      34.057
2015    3        3    14  39    4.6577   482.4    4.100      34.029
2015    3        3    14  44    4.6583   482.2    4.104      34.000
2015    3        3    14  49    4.6590   482.0    4.108      33.972
2015    3        3    14  55    4.6597   481.8    4.112      33.944
2015    3        3    15   0    4.6603   481.6    4.116      33.915
2015    3        3    15   5    4.6610   481.4    4.120      33.887
2015    3        3    15  10    4.6617   481.1    4.124      33.859
2015    3        3    15  16    4.6624   480.9    4.128      33.831
2015    3        3    15  21    4.6632   480.7    4.132      33.803
2015    3        3    15  26    4.6639   480.5    4.136      33.775
2015    3        3    15  31    4.6647   480.3    4.140      33.747
2015    3        3    15  37    4.6654   480.1    4.145      33.719
2015    3        3    15  42    4.6662   479.9    4.149      33.691
2015    3        3    15  47    4.6669   479.6    4.153      33.663
2015    3        3    15  52    4.6677   479.4    4.157      33.636
2015    3        3    15  57    4.6685   479.2    4.161      33.608
2015    3        3    16   3    4.6693   479.0    4.166      33.580
2015    3        3    16   8    4.6701   478.8    4.170      33.552
2015    3        3    16  13    4.6710   478.6    4.174      33.525
2015    3        3    16  18    4.6718   478.3    4.178      33.497
2015    3        3    16  24    4.6726   478.1    4.183      33.470
2015    3        3    16  29    4.6735   477.9    4.187      33.442
2015    3        3    16  34    4.6743   477.7    4.191      33.415
2015    3        3    16  39    4.6752   477.5    4.195      33.387
2015    3        3    16  45    4.6761   477.3    4.200      33.360
2015    3        3    16  50    4.6770   477.1    4.204      33.333
2015    3        3    16  55    4.6779   476.8    4.208      33.305
2015    3        3    17   0    4.6788   476.6    4.213      33.278
2015    3        3    17   5    4.6798   476.4    4.217      33.251
2015    3        3    17  11    4.6807   476.2    4.221      33.223
2015    3        3    17  16    4.6817   476.0    4.226      33.196
2015    3        3    17  21    4.6826   475.8    4.230      33.169
2015    3        3    17  26    4.6836   475.6    4.234      33.142
2015    3        3    17  32    4.6846   475.3    4.239      33.114
2015    3        3    17  37    4.6855   475.1    4.243      33.087
2015    3        3    17  42    4.6866   474.9    4.247      33.060
2015    3        3    17  47    4.6875   474.7    4.252      33.033
2015    3        3    17  52    4.6886   474.5    4.256      33.006
2015    3        3    17  58    4.6896   474.3    4.260      32.979
2015    3        3    18   3    4.6907   474.1    4.265      32.952
2015    3        3    18   8    4.6917   473.8    4.269      32.925
2015    3        3    18  13    4.6928   473.6    4.274      32.898
2015    3        3    18  19    4.6939   473.4    4.278      32.871
2015    3        3    18  24    4.6950   473.2    4.282      32.844
2015    3        3    18  29    4.6961   473.0    4.287      32.818
2015    3        3    18  34    4.6972   472.8    4.291      32.791
2015    3        3    18  40    4.6983   472.6    4.296      32.764
2015    3        3    18  45    4.6995   472.4    4.300      32.737
2015    3        3    18  50    4.7007   472.1    4.304      32.710
2015    3        3    18  55    4.7019   471.9    4.309      32.684
2015    3        3    19   0    4.7030   471.7    4.313      32.657
2015    3        3    19   6    4.7042   471.5    4.318      32.630
2015    3        3    19  11    4.7054   471.3    4.322      32.604
2015    3        3    19  16    4.7068   471.1    4.327      32.577
2015    3        3    19  21    4.7079   470.9    4.331      32.551
2015    3        3    19  27    4.7093   470.7    4.336      32.524
2015    3        3    19  32    4.7105   470.4    4.340      32.498
2015    3        3    19  37    4.7118   470.2    4.345      32.472
2015    3        3    19  42    4.7131   470.0    4.350      32.445
2015    3        3    19  48    4.7144   469.8    4.354      32.419
2015    3        3    19  53    4.7157   469.6    4.359      32.393
2015    3        3    19  58    4.7171   469.4    4.364      32.367
2015    3        3    20   3    4.7184   469.2    4.368      32.341
2015    3        3    20   8    4.7198   469.0    4.373      32.315
2015    3        3    20  14    4.7212   468.8    4.378      32.289
2015    3        3    20  19    4.7226   468.6    4.383      32.264
2015    3        3    20  24    4.7240   468.3    4.388      32.238
2015    3        3    20  29    4.7255   468.1    4.393      32.212
2015    3        3    20  35    4.7269   467.9    4.398      32.187
2015    3        3    20  40    4.7284   467.7    4.403      32.162
2015    3        3    20  45    4.7298   467.5    4.408      32.137
2015    3        3    20  50    4.7313   467.3    4.413      32.112
2015    3        3    20  55    4.7329   467.1    4.418      32.087
2015    3        3    21   1    4.7344   466.9    4.423      32.062
2015    3        3    21   6    4.7359   466.7    4.428      32.037
2015    3        3    21  11    4.7374   466.5    4.434      32.013
2015    3        3    21  16    4.7390   466.3    4.439      31.988
2015    3        3    21  22    4.7406   466.1    4.444      31.964
2015    3        3    21  27    4.7422   465.9    4.450      31.940
2015    3        3    21  32    4.7438   465.6    4.455      31.916
2015    3        3    21  37    4.7454   465.4    4.461      31.892
2015    3        3    21  43    4.7470   465.2    4.467      31.869
2015    3        3    21  48    4.7487   465.0    4.472      31.845
2015    3        3    21  53    4.7504   464.8    4.478      31.822
2015    3        3    21  58    4.7520   464.6    4.484      31.799
2015    3        3    22   3    4.7537   464.4    4.489      31.776
2015    3        3    22   9    4.7556   464.2    4.495      31.753
2015    3        3    22  14    4.7572   464.0    4.501      31.731
2015    3        3    22  19    4.7589   463.8    4.507      31.709
2015    3        3    22  24    4.7607   463.6    4.513      31.686
2015    3        3    22  30    4.7625   463.4    4.519      31.665
2015    3        3    22  35    4.7642   463.2    4.525      31.643
2015    3        3    22  40    4.7660   463.0    4.532      31.621
2015    3        3    22  45    4.7678   462.8    4.538      31.600
2015    3        3    22  51    4.7696   462.6    4.544      31.578
2015    3        3    22  56    4.7714   462.4    4.550      31.557
2015    3        3    23   1    4.7733   462.2    4.557      31.537
2015    3        3    23   6    4.7752   462.0    4.563      31.516
2015    3        3    23  11    4.7771   461.8    4.569      31.495
2015    3        3    23  17    4.7789   461.6    4.576      31.475
2015    3        3    23  22    4.7808   461.4    4.582      31.455
2015    3        3    23  27    4.7827   461.2    4.589      31.434
2015    3        3    23  32    4.7847   461.0    4.595      31.415
2015    3        3    23  38    4.7866   460.8    4.602      31.395
2015    3        3    23  43    4.7886   460.6    4.608      31.375
2015    3        3    23  48    4.7907   460.4    4.615      31.356
2015    3        3    23  53    4.7925   460.2    4.622      31.337
2015    3        3    23  58    4.7945   460.0    4.628      31.317
2015    3        4     0   4    4.7967   459.8    4.635      31.298
2015    3        4     0   9    4.7986   459.6    4.642      31.279
2015    3        4     0  14    4.8006   459.4    4.649      31.261
2015    3        4     0  19    4.8027   459.2    4.655      31.242
2015    3        4     0  25    4.8048   459.1    4.662      31.223
2015    3        4     0  30    4.8068   458.9    4.669      31.205
2015    3        4     0  35    4.8091   458.7    4.675      31.187
2015    3        4     0  40    4.8112   458.5    4.682      31.168
2015    3        4     0  46    4.8132   458.3    4.689      31.150
2015    3        4     0  51    4.8154   458.1    4.696      31.132
2015    3        4     0  56    4.8176   457.9    4.703      31.115
2015    3        4     1   1    4.8199   457.7    4.709      31.097
2015    3        4     1   6    4.8220   457.5    4.716      31.079
2015    3        4     1  12    4.8242   457.3    4.723      31.062
2015    3        4     1  17    4.8264   457.1    4.730      31.044
2015    3        4     1  22    4.8287   456.9    4.736      31.027
2015    3        4     1  27    4.8310   456.8    4.743      31.010
2015    3        4     1  33    4.8333   456.6    4.750      30.992
2015    3        4     1  38    4.8356   456.4    4.757      30.976
2015    3        4     1  43    4.8381   456.2    4.764      30.959
2015    3        4     1  48    4.8403   456.0    4.770      30.942
2015    3        4     1  54    4.8427   455.8    4.777      30.925
2015    3        4     1  59    4.8451   455.6    4.784      30.908
2015    3        4     2   4    4.8475   455.4    4.791      30.892
2015    3        4     2   9    4.8499   455.3    4.797      30.875
2015    3        4     2  14    4.8524   455.1    4.804      30.859
2015    3        4     2  20    4.8549   454.9    4.811      30.842
2015    3        4     2  25    4.8573   454.7    4.818      30.826
2015    3        4     2  30    4.8598   454.5    4.824      30.810
2015    3        4     2  35    4.8625   454.3    4.831      30.794
2015    3        4     2  41    4.8649   454.2    4.838      30.777
2015    3        4     2  46    4.8674   454.0    4.845      30.761
2015    3        4     2  51    4.8700   453.8    4.851      30.745
2015    3        4     2  56    4.8726   453.6    4.858      30.730
2015    3        4     3   1    4.8752   453.4    4.865      30.714
2015    3        4     3   7    4.8779   453.3    4.872      30.698
2015    3        4     3  12    4.8804   453.1    4.878      30.682
2015    3        4     3  17    4.8830   452.9    4.885      30.666
2015    3        4     3  22    4.8857   452.7    4.892      30.651
2015    3        4     3  28    4.8884   452.6    4.899      30.635
2015    3        4     3  33    4.8911   452.4    4.906      30.620
2015    3        4     3  38    4.8937   452.2    4.912      30.604
2015    3        4     3  43    4.8965   452.0    4.919      30.589
2015    3        4     3  49    4.8992   451.9    4.926      30.574
2015    3        4     3  54    4.9019   451.7    4.933      30.558
2015    3        4     3  59    4.9047   451.5    4.940      30.543
2015    3        4     4   4    4.9074   451.3    4.946      30.528
2015    3        4     4   9    4.9102   451.2    4.953      30.513
2015    3        4     4  15    4.9130   451.0    4.960      30.498
2015    3        4     4  20    4.9158   450.8    4.967      30.484
2015    3        4     4  25    4.9186   450.7    4.974      30.469
2015    3        4     4  30    4.9214   450.5    4.981      30.454
2015    3        4     4  36    4.9242   450.3    4.988      30.440
2015    3        4     4  41    4.9271   450.2    4.995      30.426
2015    3        4     4  46    4.9300   450.0    5.002      30.411
2015    3        4     4  51    4.9328   449.8    5.009      30.397
2015    3        4     4  57    4.9357   449.7    5.016      30.383
2015    3        4     5   2    4.9386   449.5    5.023      30.369
2015    3        4     5   7    4.9415   449.3    5.031      30.356
2015    3        4     5  12    4.9445   449.2    5.038      30.342
2015    3        4     5  17    4.9475   449.0    5.045      30.329
2015    3        4     5  23    4.9505   448.8    5.052      30.316
2015    3        4     5  28    4.9535   448.7    5.060      30.303
2015    3        4     5  33    4.9563   448.5    5.067      30.290
2015    3        4     5  38    4.9593   448.4    5.074      30.277
2015    3        4     5  44    4.9624   448.2    5.082      30.265
2015    3        4     5  49    4.9653   448.0    5.089      30.253
2015    3        4     5  54    4.9684   447.9    5.097      30.241
2015    3        4     5  59    4.9716   447.7    5.104      30.229
2015    3        4     6   4    4.9745   447.6    5.112      30.218
2015    3        4     6  10    4.9777   447.4    5.120      30.206
2015    3        4     6  15    4.9807   447.2    5.127      30.195
2015    3        4     6  20    4.9839   447.1    5.135      30.185
2015    3        4     6  25    4.9869   446.9    5.143      30.174
2015    3        4     6  31    4.9901   446.8    5.151      30.164
2015    3        4     6  36    4.9932   446.6    5.158      30.154
2015    3        4     6  41    4.9964   446.5    5.166      30.144
2015    3        4     6  46    4.9996   446.3    5.174      30.134
2015    3        4     6  52    5.0028   446.2    5.182      30.125
2015    3        4     6  57    5.0060   446.0    5.190      30.116
2015    3        4     7   2    5.0092   445.9    5.198      30.107
2015    3        4     7   7    5.0125   445.7    5.206      30.099
2015    3        4     7  12    5.0158   445.6    5.214      30.091
2015    3        4     7  18    5.0190   445.4    5.223      30.083
2015    3        4     7  23    5.0224   445.3    5.231      30.075
2015    3        4     7  28    5.0257   445.1    5.239      30.068
2015    3        4     7  33    5.0290   445.0    5.247      30.061
2015    3        4     7  39    5.0325   444.8    5.255      30.054
2015    3        4     7  44    5.0357   444.7    5.263      30.047
2015    3        4     7  49    5.0391   444.5    5.272      30.041
2015    3        4     7  54    5.0425   444.4    5.280      30.035
2015    3        4     8   0    5.0460   444.2    5.288      30.029
2015    3        4     8   5    5.0494   444.1    5.297      30.023
2015    3        4     8  10    5.0530   444.0    5.305      30.018
2015    3        4     8  15    5.0564   443.8    5.313      30.013
2015    3        4     8  20    5.0598   443.7    5.322      30.008
2015    3        4     8  26    5.0635   443.5    5.330      30.003
2015    3        4     8  31    5.0669   443.4    5.338      29.999
2015    3        4     8  36    5.0705   443.3    5.347      29.995
2015    3        4     8  41    5.0742   443.1    5.355      29.991
2015    3        4     8  47    5.0776   443.0    5.363      29.988
2015    3        4     8  52    5.0812   442.9    5.372      29.984
2015    3        4     8  57    5.0848   442.7    5.380      29.981
2015    3        4     9   2    5.0885   442.6    5.388      29.978
2015    3        4     9   7    5.0921   442.5    5.397      29.975
2015    3        4     9  13    5.0958   442.3    5.405      29.972
2015    3        4     9  18    5.0995   442.2    5.413      29.970
2015    3        4     9  23    5.1032   442.1    5.422      29.967
2015    3        4     9  28    5.1069   441.9    5.430      29.965
2015    3        4     9  34    5.1106   441.8    5.438      29.963
2015    3        4     9  39    5.1143   441.7    5.447      29.961
2015    3        4     9  44    5.1181   441.6    5.455      29.960
2015    3        4     9  49    5.1218   441.4    5.463      29.958
2015    3        4     9  55    5.1256   441.3    5.471      29.957
2015    3        4    10   0    5.1295   441.2    5.480      29.955
2015    3        4    10   5    5.1331   441.1    5.488      29.954
2015    3        4    10  10    5.1369   440.9    5.496      29.953
2015    3        4    10  15    5.1408   440.8    5.504      29.952
2015    3        4    10  21    5.1445   440.7    5.512      29.951
2015    3        4    10  26    5.1483   440.6    5.521      29.950
2015    3        4    10  31    5.1521   440.5    5.529      29.949
2015    3        4    10  36    5.1559   440.3    5.537      29.948
2015    3        4    10  42    5.1598   440.2    5.545      29.948
2015    3        4    10  47    5.1636   440.1    5.553      29.947
2015    3        4    10  52    5.1674   440.0    5.561      29.947
2015    3        4    10  57    5.1713   439.9    5.569      29.946
2015    3        4    11   3    5.1751   439.8    5.577      29.946
2015    3        4    11   8    5.1790   439.7    5.585      29.945
2015    3        4    11  13    5.1828   439.5    5.593      29.945
2015    3        4    11  18    5.1867   439.4    5.601      29.945
2015    3        4    11  23    5.1905   439.3    5.609      29.945
2015    3        4    11  29    5.1944   439.2    5.617      29.945
2015    3        4    11  34    5.1983   439.1    5.625      29.945
2015    3        4    11  39    5.2022   439.0    5.633      29.944
2015    3        4    11  44    5.2061   438.9    5.641      29.944
2015    3        4    11  50    5.2099   438.8    5.648      29.945
2015    3        4    11  55    5.2139   438.7    5.656      29.945
2015    3        4    12   0    5.2178   438.6    5.664      29.945
2015    3        4    12   5    5.2217   438.4    5.672      29.945
2015    3        4    12  10    5.2256   438.3    5.680      29.945
2015    3        4    12  16    5.2295   438.2    5.687      29.946
2015    3        4    12  21    5.2334   438.1    5.695      29.946
2015    3        4    12  26    5.2374   438.0    5.703      29.947
2015    3        4    12  31    5.2413   437.9    5.711      29.947
2015    3        4    12  37    5.2453   437.8    5.719      29.948
2015    3        4    12  42    5.2492   437.7    5.726      29.949
2015    3        4    12  47    5.2532   437.6    5.734      29.949
2015    3        4    12  52    5.2572   437.5    5.742      29.950
2015    3        4    12  58    5.2612   437.4    5.750      29.951
2015    3        4    13   3    5.2653   437.3    5.757      29.952
2015    3        4    13   8    5.2692   437.2    5.765      29.953
2015    3        4    13  13    5.2732   437.1    5.773      29.955
2015    3        4    13  18    5.2772   437.0    5.780      29.956
2015    3        4    13  24    5.2813   436.9    5.788      29.958
2015    3        4    13  29    5.2853   436.8    5.796      29.959
2015    3        4    13  34    5.2894   436.7    5.803      29.961
2015    3        4    13  39    5.2934   436.6    5.811      29.963
2015    3        4    13  45    5.2976   436.5    5.819      29.965
2015    3        4    13  50    5.3016   436.4    5.826      29.967
2015    3        4    13  55    5.3057   436.3    5.834      29.969
2015    3        4    14   0    5.3098   436.2    5.842      29.971
2015    3        4    14   6    5.3140   436.1    5.849      29.974
2015    3        4    14  11    5.3181   436.0    5.857      29.976
2015    3        4    14  16    5.3223   435.9    5.865      29.979
2015    3        4    14  21    5.3264   435.8    5.872      29.982
2015    3        4    14  26    5.3306   435.8    5.880      29.985
2015    3        4    14  32    5.3348   435.7    5.888      29.988
2015    3        4    14  37    5.3390   435.6    5.895      29.991
2015    3        4    14  42    5.3432   435.5    5.903      29.994
2015    3        4    14  47    5.3475   435.4    5.910      29.998
2015    3        4    14  53    5.3517   435.3    5.918      30.001
2015    3        4    14  58    5.3559   435.2    5.925      30.005
2015    3        4    15   3    5.3603   435.1    5.933      30.009
2015    3        4    15   8    5.3646   435.0    5.940      30.012
2015    3        4    15  13    5.3688   434.9    5.948      30.016
2015    3        4    15  19    5.3731   434.9    5.955      30.021
2015    3        4    15  24    5.3774   434.8    5.963      30.025
2015    3        4    15  29    5.3817   434.7    5.970      30.029
2015    3        4    15  34    5.3860   434.6    5.978      30.034
2015    3        4    15  40    5.3904   434.5    5.985      30.039
2015    3        4    15  45    5.3947   434.4    5.993      30.043
2015    3        4    15  50    5.3991   434.3    6.000      30.048
2015    3        4    15  55    5.4035   434.3    6.007      30.053
2015    3        4    16   1    5.4078   434.2    6.015      30.059
2015    3        4    16   6    5.4123   434.1    6.022      30.064
2015    3        4    16  11    5.4166   434.0    6.029      30.070
2015    3        4    16  16    5.4211   433.9    6.037      30.075
2015    3        4    16  21    5.4255   433.9    6.044      30.081
2015    3        4    16  27    5.4299   433.8    6.051      30.087
2015    3        4    16  32    5.4344   433.7    6.059      30.093
2015    3        4    16  37    5.4389   433.6    6.066      30.100
2015    3        4    16  42    5.4433   433.5    6.073      30.106
2015    3        4    16  48    5.4479   433.5    6.081      30.113
2015    3        4    16  53    5.4523   433.4    6.088      30.120
2015    3        4    16  58    5.4568   433.3    6.095      30.127
2015    3        4    17   3    5.4614   433.2    6.102      30.134
2015    3        4    17   9    5.4658   433.2    6.110      30.142
2015    3        4    17  14    5.4703   433.1    6.117      30.149
2015    3        4    17  19    5.4748   433.0    6.124      30.157
2015    3        4    17  24    5.4794   433.0    6.131      30.166
2015    3        4    17  29    5.4840   432.9    6.138      30.174
2015    3        4    17  35    5.4885   432.8    6.145      30.183
2015    3        4    17  40    5.4930   432.8    6.152      30.192
2015    3        4    17  45    5.4975   432.7    6.159      30.202
2015    3        4    17  50    5.5022   432.6    6.166      30.211
2015    3        4    17  56    5.5066   432.6    6.172      30.221
2015    3        4    18   1    5.5112   432.5    6.179      30.231
2015    3        4    18   6    5.5158   432.4    6.186      30.241
2015    3        4    18  11    5.5203   432.4    6.193      30.252
2015    3        4    18  16    5.5248   432.3    6.200      30.262
2015    3        4    18  22    5.5294   432.2    6.206      30.273
2015    3        4    18  27    5.5339   432.2    6.213      30.284
2015    3        4    18  32    5.5385   432.1    6.220      30.294
2015    3        4    18  37    5.5431   432.0    6.226      30.305
2015    3        4    18  43    5.5476   432.0    6.233      30.317
2015    3        4    18  48    5.5522   431.9    6.239      30.328
2015    3        4    18  53    5.5568   431.9    6.246      30.339
2015    3        4    18  58    5.5614   431.8    6.252      30.351
2015    3        4    19   4    5.5659   431.7    6.259      30.363
2015    3        4    19   9    5.5705   431.7    6.265      30.374
2015    3        4    19  14    5.5751   431.6    6.272      30.386
2015    3        4    19  19    5.5797   431.6    6.278      30.398
2015    3        4    19  24    5.5843   431.5    6.285      30.410
2015    3        4    19  30    5.5888   431.4    6.291      30.422
2015    3        4    19  35    5.5934   431.4    6.298      30.434
2015    3        4    19  40    5.5980   431.3    6.304      30.446
2015    3        4    19  45    5.6027   431.3    6.311      30.458
2015    3        4    19  51    5.6073   431.2    6.317      30.470
2015    3        4    19  56    5.6119   431.2    6.324      30.482
2015    3        4    20   1    5.6165   431.1    6.330      30.495
2015    3        4    20   6    5.6212   431.1    6.337      30.507
2015    3        4    20  12    5.6258   431.0    6.343      30.519
2015    3        4    20  17    5.6304   430.9    6.349      30.531
2015    3        4    20  22    5.6350   430.9    6.356      30.544
2015    3        4    20  27    5.6397   430.8    6.362      30.556
2015    3        4    20  32    5.6443   430.8    6.369      30.568
2015    3        4    20  38    5.6490   430.7    6.375      30.581
2015    3        4    20  43    5.6536   430.7    6.382      30.593
2015    3        4    20  48    5.6583   430.6    6.388      30.605
2015    3        4    20  53    5.6630   430.6    6.395      30.618
2015    3        4    20  59    5.6677   430.5    6.402      30.630
2015    3        4    21   4    5.6725   430.5    6.408      30.642
2015    3        4    21   9    5.6771   430.4    6.415      30.654
2015    3        4    21  14    5.6818   430.4    6.421      30.666
2015    3        4    21  20    5.6866   430.3    6.428      30.679
2015    3        4    21  25    5.6913   430.3    6.435      30.691
2015    3        4    21  30    5.6961   430.2    6.441      30.704
2015    3        4    21  35    5.7009   430.2    6.448      30.716
2015    3        4    21  40    5.7057   430.1    6.455      30.729
2015    3        4    21  46    5.7105   430.1    6.462      30.741
2015    3        4    21  51    5.7152   430.0    6.468      30.754
2015    3        4    21  56    5.7200   430.0    6.475      30.767
2015    3        4    22   1    5.7248   429.9    6.482      30.780
2015    3        4    22   7    5.7297   429.9    6.489      30.792
2015    3        4    22  12    5.7345   429.9    6.496      30.805
2015    3        4    22  17    5.7393   429.8    6.502      30.818
2015    3        4    22  22    5.7442   429.8    6.509      30.831
2015    3        4    22  27    5.7490   429.7    6.516      30.844
2015    3        4    22  33    5.7539   429.7    6.523      30.857
2015    3        4    22  38    5.7588   429.6    6.530      30.870
2015    3        4    22  43    5.7637   429.6    6.537      30.883
2015    3        4    22  48    5.7686   429.5    6.544      30.895
2015    3        4    22  54    5.7735   429.5    6.551      30.908
2015    3        4    22  59    5.7785   429.4    6.558      30.921
2015    3        4    23   4    5.7834   429.4    6.565      30.934
2015    3        4    23   9    5.7884   429.4    6.572      30.947
2015    3        4    23  15    5.7933   429.3    6.579      30.961
2015    3        4    23  20    5.7983   429.3    6.586      30.975
2015    3        4    23  25    5.8034   429.2    6.593      30.990
2015    3        4    23  30    5.8084   429.2    6.600      31.005
2015    3        4    23  35    5.8134   429.2    6.607      31.020
2015    3        4    23  41    5.8185   429.1    6.614      31.035
2015    3        4    23  46    5.8235   429.1    6.621      31.052
2015    3        4    23  51    5.8286   429.1    6.628      31.068
2015    3        4    23  56    5.8337   429.0    6.635      31.084
2015    3        5     0   2    5.8388   429.0    6.641      31.101
