year    month   day   hour  minute  B_enl V_enl   n_enl       T_enl
[year] [month] [day] [hour][minute] [nT]  [km/s]  [cm-3]      [kK]
2015    2        9     0   2    6.3924   509.5    5.211      59.752
2015    2        9     0   7    6.3918   509.6    5.210      59.772
2015    2        9     0  13    6.3910   509.7    5.209      59.792
2015    2        9     0  18    6.3904   509.8    5.208      59.813
2015    2        9     0  23    6.3896   509.8    5.207      59.834
2015    2        9     0  28    6.3890   509.9    5.206      59.855
2015    2        9     0  34    6.3882   510.0    5.205      59.877
2015    2        9     0  39    6.3874   510.1    5.203      59.899
2015    2        9     0  44    6.3867   510.2    5.202      59.922
2015    2        9     0  49    6.3859   510.3    5.201      59.944
2015    2        9     0  55    6.3852   510.4    5.200      59.967
2015    2        9     1   0    6.3844   510.4    5.198      59.990
2015    2        9     1   5    6.3836   510.5    5.197      60.012
2015    2        9     1  10    6.3828   510.6    5.196      60.035
2015    2        9     1  16    6.3820   510.7    5.194      60.058
2015    2        9     1  21    6.3812   510.8    5.193      60.081
2015    2        9     1  26    6.3805   510.8    5.192      60.104
2015    2        9     1  31    6.3797   510.9    5.190      60.127
2015    2        9     1  37    6.3789   511.0    5.189      60.150
2015    2        9     1  42    6.3781   511.1    5.188      60.174
2015    2        9     1  47    6.3773   511.2    5.186      60.199
2015    2        9     1  52    6.3766   511.3    5.185      60.223
2015    2        9     1  58    6.3758   511.3    5.183      60.248
2015    2        9     2   3    6.3750   511.4    5.182      60.274
2015    2        9     2   8    6.3742   511.5    5.180      60.299
2015    2        9     2  13    6.3735   511.6    5.178      60.325
2015    2        9     2  19    6.3728   511.7    5.177      60.350
2015    2        9     2  24    6.3721   511.8    5.175      60.376
2015    2        9     2  29    6.3713   511.8    5.173      60.401
2015    2        9     2  35    6.3706   511.9    5.171      60.427
2015    2        9     2  40    6.3698   512.0    5.170      60.452
2015    2        9     2  45    6.3691   512.1    5.168      60.477
2015    2        9     2  50    6.3684   512.2    5.166      60.502
2015    2        9     2  56    6.3677   512.2    5.164      60.526
2015    2        9     3   1    6.3670   512.3    5.162      60.551
2015    2        9     3   6    6.3662   512.4    5.160      60.575
2015    2        9     3  11    6.3655   512.5    5.158      60.598
2015    2        9     3  17    6.3648   512.6    5.156      60.622
2015    2        9     3  22    6.3642   512.7    5.154      60.645
2015    2        9     3  27    6.3635   512.7    5.151      60.668
2015    2        9     3  32    6.3628   512.8    5.149      60.690
2015    2        9     3  38    6.3622   512.9    5.147      60.712
2015    2        9     3  43    6.3616   513.0    5.145      60.735
2015    2        9     3  48    6.3609   513.0    5.143      60.756
2015    2        9     3  53    6.3603   513.1    5.141      60.778
2015    2        9     3  59    6.3597   513.2    5.138      60.800
2015    2        9     4   4    6.3591   513.3    5.136      60.821
2015    2        9     4   9    6.3586   513.4    5.134      60.842
2015    2        9     4  14    6.3580   513.4    5.132      60.862
2015    2        9     4  20    6.3575   513.5    5.130      60.883
2015    2        9     4  25    6.3571   513.6    5.128      60.904
2015    2        9     4  30    6.3566   513.7    5.126      60.924
2015    2        9     4  35    6.3561   513.8    5.123      60.944
2015    2        9     4  41    6.3556   513.8    5.121      60.965
2015    2        9     4  46    6.3552   513.9    5.119      60.985
2015    2        9     4  51    6.3548   514.0    5.117      61.005
2015    2        9     4  56    6.3544   514.1    5.115      61.025
2015    2        9     5   2    6.3540   514.2    5.114      61.045
2015    2        9     5   7    6.3536   514.2    5.112      61.065
2015    2        9     5  12    6.3533   514.3    5.110      61.085
2015    2        9     5  17    6.3530   514.4    5.108      61.105
2015    2        9     5  23    6.3527   514.5    5.106      61.125
2015    2        9     5  28    6.3525   514.6    5.105      61.145
2015    2        9     5  33    6.3522   514.6    5.103      61.165
2015    2        9     5  39    6.3519   514.7    5.102      61.185
2015    2        9     5  44    6.3517   514.8    5.100      61.206
2015    2        9     5  49    6.3515   514.9    5.099      61.226
2015    2        9     5  54    6.3514   515.0    5.097      61.247
2015    2        9     6   0    6.3512   515.0    5.096      61.268
2015    2        9     6   5    6.3510   515.1    5.095      61.289
2015    2        9     6  10    6.3509   515.2    5.094      61.310
2015    2        9     6  15    6.3507   515.3    5.093      61.331
2015    2        9     6  21    6.3506   515.4    5.092      61.352
2015    2        9     6  26    6.3505   515.5    5.091      61.374
2015    2        9     6  31    6.3503   515.5    5.091      61.396
2015    2        9     6  36    6.3501   515.6    5.090      61.418
2015    2        9     6  42    6.3499   515.7    5.090      61.442
2015    2        9     6  47    6.3498   515.8    5.089      61.465
2015    2        9     6  52    6.3495   515.9    5.089      61.490
2015    2        9     6  57    6.3493   516.0    5.088      61.516
2015    2        9     7   3    6.3491   516.1    5.088      61.542
2015    2        9     7   8    6.3488   516.2    5.088      61.570
2015    2        9     7  13    6.3485   516.3    5.087      61.598
2015    2        9     7  18    6.3482   516.4    5.087      61.628
2015    2        9     7  24    6.3478   516.4    5.086      61.658
2015    2        9     7  29    6.3474   516.5    5.086      61.690
2015    2        9     7  34    6.3470   516.6    5.085      61.723
2015    2        9     7  39    6.3466   516.7    5.085      61.757
2015    2        9     7  45    6.3462   516.8    5.084      61.792
2015    2        9     7  50    6.3457   516.9    5.083      61.827
2015    2        9     7  55    6.3452   517.0    5.082      61.863
2015    2        9     8   0    6.3447   517.1    5.081      61.900
2015    2        9     8   6    6.3442   517.2    5.080      61.936
2015    2        9     8  11    6.3437   517.3    5.079      61.973
2015    2        9     8  16    6.3431   517.4    5.078      62.010
2015    2        9     8  21    6.3426   517.5    5.077      62.047
2015    2        9     8  27    6.3420   517.6    5.076      62.084
2015    2        9     8  32    6.3415   517.7    5.074      62.120
2015    2        9     8  37    6.3409   517.8    5.073      62.157
2015    2        9     8  42    6.3403   517.8    5.071      62.193
2015    2        9     8  48    6.3398   517.9    5.069      62.228
2015    2        9     8  53    6.3392   518.0    5.068      62.264
2015    2        9     8  58    6.3387   518.1    5.066      62.299
2015    2        9     9   4    6.3381   518.2    5.064      62.333
2015    2        9     9   9    6.3376   518.3    5.063      62.367
2015    2        9     9  14    6.3371   518.4    5.061      62.401
2015    2        9     9  19    6.3365   518.5    5.059      62.434
2015    2        9     9  25    6.3360   518.6    5.057      62.467
2015    2        9     9  30    6.3355   518.7    5.055      62.499
2015    2        9     9  35    6.3350   518.7    5.053      62.531
2015    2        9     9  40    6.3346   518.8    5.051      62.563
2015    2        9     9  46    6.3342   518.9    5.049      62.594
2015    2        9     9  51    6.3337   519.0    5.047      62.624
2015    2        9     9  56    6.3332   519.1    5.044      62.655
2015    2        9    10   1    6.3328   519.2    5.042      62.685
2015    2        9    10   7    6.3324   519.3    5.040      62.714
2015    2        9    10  12    6.3321   519.4    5.038      62.743
2015    2        9    10  17    6.3317   519.4    5.036      62.772
2015    2        9    10  22    6.3314   519.5    5.033      62.800
2015    2        9    10  28    6.3311   519.6    5.031      62.828
2015    2        9    10  33    6.3308   519.7    5.029      62.856
2015    2        9    10  38    6.3305   519.8    5.027      62.884
2015    2        9    10  43    6.3303   519.9    5.025      62.911
2015    2        9    10  49    6.3300   520.0    5.022      62.939
2015    2        9    10  54    6.3298   520.0    5.020      62.966
2015    2        9    10  59    6.3297   520.1    5.018      62.993
2015    2        9    11   4    6.3295   520.2    5.016      63.020
2015    2        9    11  10    6.3294   520.3    5.014      63.047
2015    2        9    11  15    6.3293   520.4    5.012      63.074
2015    2        9    11  20    6.3292   520.5    5.010      63.101
2015    2        9    11  25    6.3291   520.6    5.008      63.128
2015    2        9    11  31    6.3291   520.7    5.006      63.156
2015    2        9    11  36    6.3291   520.7    5.004      63.183
2015    2        9    11  41    6.3291   520.8    5.002      63.211
2015    2        9    11  46    6.3292   520.9    5.001      63.239
2015    2        9    11  52    6.3292   521.0    4.999      63.267
2015    2        9    11  57    6.3293   521.1    4.997      63.295
2015    2        9    12   2    6.3293   521.2    4.996      63.324
2015    2        9    12   8    6.3294   521.3    4.994      63.353
2015    2        9    12  13    6.3295   521.4    4.993      63.382
2015    2        9    12  18    6.3296   521.5    4.992      63.412
2015    2        9    12  23    6.3297   521.5    4.990      63.442
2015    2        9    12  29    6.3299   521.6    4.989      63.472
2015    2        9    12  34    6.3300   521.7    4.988      63.503
2015    2        9    12  39    6.3301   521.8    4.987      63.534
2015    2        9    12  44    6.3302   521.9    4.986      63.565
2015    2        9    12  50    6.3303   522.0    4.985      63.596
2015    2        9    12  55    6.3303   522.1    4.984      63.628
2015    2        9    13   0    6.3304   522.2    4.984      63.660
2015    2        9    13   5    6.3304   522.3    4.983      63.693
2015    2        9    13  11    6.3304   522.4    4.983      63.725
2015    2        9    13  16    6.3304   522.5    4.982      63.758
2015    2        9    13  21    6.3304   522.6    4.982      63.791
2015    2        9    13  26    6.3304   522.7    4.982      63.826
2015    2        9    13  32    6.3303   522.8    4.982      63.861
2015    2        9    13  37    6.3302   522.9    4.982      63.898
2015    2        9    13  42    6.3301   523.0    4.981      63.936
2015    2        9    13  47    6.3300   523.1    4.981      63.976
2015    2        9    13  53    6.3298   523.2    4.981      64.016
2015    2        9    13  58    6.3296   523.3    4.981      64.058
2015    2        9    14   3    6.3294   523.4    4.981      64.102
2015    2        9    14   8    6.3292   523.5    4.981      64.146
2015    2        9    14  14    6.3289   523.6    4.980      64.192
2015    2        9    14  19    6.3286   523.7    4.980      64.238
2015    2        9    14  24    6.3283   523.8    4.979      64.286
2015    2        9    14  29    6.3279   523.9    4.979      64.334
2015    2        9    14  35    6.3276   524.0    4.978      64.383
2015    2        9    14  40    6.3272   524.1    4.977      64.431
2015    2        9    14  45    6.3268   524.3    4.976      64.480
2015    2        9    14  50    6.3264   524.4    4.975      64.528
2015    2        9    14  56    6.3260   524.5    4.974      64.577
2015    2        9    15   1    6.3255   524.6    4.973      64.625
2015    2        9    15   6    6.3251   524.7    4.972      64.673
2015    2        9    15  12    6.3247   524.8    4.970      64.721
2015    2        9    15  17    6.3242   524.9    4.969      64.768
2015    2        9    15  22    6.3237   525.0    4.967      64.815
2015    2        9    15  27    6.3233   525.1    4.966      64.861
2015    2        9    15  33    6.3228   525.2    4.964      64.906
2015    2        9    15  38    6.3224   525.3    4.962      64.951
2015    2        9    15  43    6.3220   525.4    4.961      64.996
2015    2        9    15  48    6.3216   525.5    4.959      65.039
2015    2        9    15  54    6.3211   525.6    4.957      65.082
2015    2        9    15  59    6.3207   525.7    4.955      65.125
2015    2        9    16   4    6.3203   525.9    4.953      65.166
2015    2        9    16   9    6.3199   526.0    4.951      65.207
2015    2        9    16  15    6.3195   526.1    4.949      65.248
2015    2        9    16  20    6.3191   526.2    4.947      65.288
2015    2        9    16  25    6.3188   526.3    4.944      65.327
2015    2        9    16  30    6.3184   526.4    4.942      65.365
2015    2        9    16  36    6.3181   526.5    4.940      65.403
2015    2        9    16  41    6.3178   526.6    4.938      65.441
2015    2        9    16  46    6.3175   526.7    4.936      65.478
2015    2        9    16  51    6.3173   526.8    4.933      65.514
2015    2        9    16  57    6.3170   526.9    4.931      65.550
2015    2        9    17   2    6.3168   527.0    4.929      65.585
2015    2        9    17   7    6.3166   527.1    4.926      65.620
2015    2        9    17  12    6.3164   527.2    4.924      65.655
2015    2        9    17  18    6.3162   527.3    4.922      65.689
2015    2        9    17  23    6.3160   527.4    4.919      65.723
2015    2        9    17  28    6.3159   527.5    4.917      65.757
2015    2        9    17  33    6.3158   527.6    4.915      65.790
2015    2        9    17  39    6.3157   527.7    4.913      65.823
2015    2        9    17  44    6.3156   527.8    4.910      65.856
2015    2        9    17  49    6.3156   527.9    4.908      65.888
2015    2        9    17  54    6.3156   528.0    4.906      65.921
2015    2        9    18   0    6.3156   528.1    4.904      65.953
2015    2        9    18   5    6.3156   528.2    4.902      65.986
2015    2        9    18  10    6.3156   528.3    4.900      66.018
2015    2        9    18  15    6.3157   528.4    4.898      66.051
2015    2        9    18  21    6.3158   528.6    4.896      66.083
2015    2        9    18  26    6.3158   528.7    4.894      66.116
2015    2        9    18  31    6.3159   528.8    4.892      66.149
2015    2        9    18  37    6.3160   528.9    4.890      66.182
2015    2        9    18  42    6.3160   529.0    4.889      66.215
2015    2        9    18  47    6.3161   529.1    4.887      66.248
2015    2        9    18  52    6.3162   529.2    4.885      66.282
2015    2        9    18  58    6.3163   529.3    4.884      66.316
2015    2        9    19   3    6.3163   529.4    4.883      66.350
2015    2        9    19   8    6.3164   529.5    4.881      66.385
2015    2        9    19  13    6.3164   529.6    4.880      66.420
2015    2        9    19  19    6.3164   529.7    4.879      66.455
2015    2        9    19  24    6.3164   529.8    4.878      66.491
2015    2        9    19  29    6.3164   530.0    4.877      66.527
2015    2        9    19  34    6.3164   530.1    4.877      66.564
2015    2        9    19  40    6.3163   530.2    4.876      66.601
2015    2        9    19  45    6.3162   530.3    4.875      66.640
2015    2        9    19  50    6.3161   530.4    4.875      66.680
2015    2        9    19  55    6.3159   530.5    4.874      66.721
2015    2        9    20   1    6.3157   530.6    4.874      66.764
2015    2        9    20   6    6.3155   530.7    4.874      66.808
2015    2        9    20  11    6.3153   530.9    4.873      66.853
2015    2        9    20  16    6.3150   531.0    4.873      66.900
2015    2        9    20  22    6.3147   531.1    4.873      66.949
2015    2        9    20  27    6.3144   531.2    4.873      66.999
2015    2        9    20  32    6.3140   531.4    4.872      67.052
2015    2        9    20  37    6.3136   531.5    4.872      67.105
2015    2        9    20  43    6.3132   531.6    4.871      67.160
2015    2        9    20  48    6.3128   531.7    4.871      67.215
2015    2        9    20  53    6.3123   531.8    4.870      67.271
2015    2        9    20  58    6.3118   532.0    4.869      67.327
2015    2        9    21   4    6.3113   532.1    4.869      67.383
2015    2        9    21   9    6.3108   532.2    4.868      67.438
2015    2        9    21  14    6.3102   532.4    4.867      67.494
2015    2        9    21  19    6.3096   532.5    4.865      67.549
2015    2        9    21  25    6.3091   532.6    4.864      67.603
2015    2        9    21  30    6.3085   532.7    4.863      67.657
2015    2        9    21  35    6.3079   532.9    4.861      67.710
2015    2        9    21  41    6.3072   533.0    4.860      67.762
2015    2        9    21  46    6.3066   533.1    4.858      67.813
2015    2        9    21  51    6.3060   533.3    4.856      67.864
2015    2        9    21  56    6.3054   533.4    4.854      67.913
2015    2        9    22   2    6.3047   533.5    4.852      67.961
2015    2        9    22   7    6.3041   533.6    4.850      68.008
2015    2        9    22  12    6.3034   533.8    4.848      68.055
2015    2        9    22  17    6.3028   533.9    4.846      68.100
2015    2        9    22  23    6.3021   534.0    4.843      68.145
2015    2        9    22  28    6.3015   534.1    4.841      68.189
2015    2        9    22  33    6.3008   534.3    4.839      68.232
2015    2        9    22  38    6.3002   534.4    4.836      68.274
2015    2        9    22  44    6.2996   534.5    4.834      68.315
2015    2        9    22  49    6.2989   534.7    4.831      68.356
2015    2        9    22  54    6.2983   534.8    4.828      68.395
2015    2        9    22  59    6.2976   534.9    4.826      68.434
2015    2        9    23   5    6.2970   535.0    4.823      68.472
2015    2        9    23  10    6.2964   535.2    4.820      68.509
2015    2        9    23  15    6.2958   535.3    4.818      68.546
2015    2        9    23  20    6.2952   535.4    4.815      68.582
2015    2        9    23  26    6.2946   535.5    4.812      68.617
2015    2        9    23  31    6.2940   535.7    4.809      68.652
2015    2        9    23  36    6.2934   535.8    4.806      68.686
2015    2        9    23  41    6.2929   535.9    4.803      68.720
2015    2        9    23  47    6.2923   536.0    4.801      68.753
2015    2        9    23  52    6.2918   536.2    4.798      68.785
2015    2        9    23  57    6.2913   536.3    4.795      68.818
2015    2       10     0   2    6.2908   536.4    4.792      68.850
2015    2       10     0   8    6.2903   536.5    4.789      68.881
2015    2       10     0  13    6.2898   536.7    4.786      68.912
2015    2       10     0  18    6.2894   536.8    4.784      68.943
2015    2       10     0  23    6.2890   536.9    4.781      68.973
2015    2       10     0  29    6.2886   537.0    4.778      69.004
2015    2       10     0  34    6.2882   537.2    4.776      69.034
2015    2       10     0  39    6.2879   537.3    4.773      69.064
2015    2       10     0  45    6.2875   537.4    4.771      69.095
2015    2       10     0  50    6.2872   537.5    4.768      69.125
2015    2       10     0  55    6.2869   537.7    4.766      69.155
2015    2       10     1   0    6.2866   537.8    4.764      69.186
2015    2       10     1   6    6.2863   537.9    4.761      69.217
2015    2       10     1  11    6.2860   538.0    4.759      69.248
2015    2       10     1  16    6.2857   538.2    4.757      69.279
2015    2       10     1  21    6.2853   538.3    4.756      69.311
2015    2       10     1  27    6.2850   538.4    4.754      69.343
2015    2       10     1  32    6.2846   538.6    4.752      69.377
2015    2       10     1  37    6.2842   538.7    4.751      69.412
2015    2       10     1  42    6.2836   538.8    4.749      69.448
2015    2       10     1  48    6.2832   539.0    4.748      69.484
2015    2       10     1  53    6.2826   539.1    4.746      69.521
2015    2       10     1  58    6.2820   539.2    4.745      69.559
2015    2       10     2   3    6.2813   539.4    4.744      69.597
2015    2       10     2   9    6.2806   539.5    4.742      69.636
2015    2       10     2  14    6.2798   539.6    4.741      69.674
2015    2       10     2  19    6.2790   539.8    4.740      69.713
2015    2       10     2  24    6.2781   539.9    4.739      69.751
2015    2       10     2  30    6.2772   540.1    4.738      69.791
2015    2       10     2  35    6.2762   540.2    4.736      69.830
2015    2       10     2  40    6.2752   540.3    4.735      69.870
2015    2       10     2  45    6.2741   540.5    4.734      69.910
2015    2       10     2  51    6.2730   540.6    4.733      69.951
2015    2       10     2  56    6.2719   540.8    4.731      69.993
2015    2       10     3   1    6.2707   540.9    4.730      70.036
2015    2       10     3   6    6.2695   541.1    4.729      70.080
2015    2       10     3  12    6.2682   541.2    4.727      70.124
2015    2       10     3  17    6.2670   541.4    4.726      70.169
2015    2       10     3  22    6.2656   541.5    4.724      70.214
2015    2       10     3  27    6.2642   541.7    4.722      70.259
2015    2       10     3  33    6.2630   541.8    4.720      70.305
2015    2       10     3  38    6.2616   542.0    4.718      70.351
2015    2       10     3  43    6.2601   542.1    4.716      70.397
2015    2       10     3  48    6.2587   542.3    4.714      70.442
2015    2       10     3  54    6.2572   542.4    4.712      70.488
2015    2       10     3  59    6.2557   542.5    4.710      70.532
2015    2       10     4   4    6.2542   542.7    4.707      70.576
2015    2       10     4  10    6.2527   542.8    4.705      70.620
2015    2       10     4  15    6.2512   543.0    4.702      70.662
2015    2       10     4  20    6.2497   543.1    4.699      70.704
2015    2       10     4  25    6.2480   543.3    4.697      70.745
2015    2       10     4  31    6.2464   543.4    4.694      70.784
2015    2       10     4  36    6.2449   543.6    4.691      70.824
2015    2       10     4  41    6.2432   543.7    4.688      70.862
2015    2       10     4  46    6.2417   543.9    4.685      70.900
2015    2       10     4  52    6.2401   544.0    4.681      70.936
2015    2       10     4  57    6.2384   544.2    4.678      70.972
2015    2       10     5   2    6.2368   544.3    4.675      71.007
2015    2       10     5   7    6.2351   544.5    4.672      71.041
2015    2       10     5  13    6.2335   544.6    4.668      71.074
2015    2       10     5  18    6.2318   544.8    4.665      71.106
2015    2       10     5  23    6.2300   544.9    4.661      71.137
2015    2       10     5  28    6.2284   545.1    4.658      71.168
2015    2       10     5  34    6.2267   545.2    4.654      71.198
2015    2       10     5  39    6.2250   545.4    4.651      71.227
2015    2       10     5  44    6.2232   545.5    4.647      71.255
2015    2       10     5  49    6.2215   545.7    4.643      71.283
2015    2       10     5  55    6.2197   545.8    4.640      71.310
2015    2       10     6   0    6.2180   546.0    4.636      71.337
2015    2       10     6   5    6.2161   546.1    4.632      71.362
2015    2       10     6  10    6.2145   546.2    4.628      71.388
2015    2       10     6  16    6.2127   546.4    4.625      71.412
2015    2       10     6  21    6.2109   546.5    4.621      71.437
2015    2       10     6  26    6.2090   546.7    4.617      71.461
2015    2       10     6  31    6.2073   546.8    4.613      71.484
2015    2       10     6  37    6.2055   547.0    4.610      71.507
2015    2       10     6  42    6.2037   547.1    4.606      71.530
2015    2       10     6  47    6.2018   547.2    4.602      71.553
2015    2       10     6  52    6.2000   547.4    4.599      71.575
2015    2       10     6  58    6.1984   547.5    4.595      71.597
2015    2       10     7   3    6.1966   547.7    4.592      71.619
2015    2       10     7   8    6.1948   547.8    4.588      71.641
2015    2       10     7  13    6.1930   547.9    4.585      71.663
2015    2       10     7  19    6.1913   548.1    4.581      71.685
2015    2       10     7  24    6.1895   548.2    4.578      71.707
2015    2       10     7  29    6.1877   548.3    4.575      71.730
2015    2       10     7  34    6.1857   548.5    4.571      71.752
2015    2       10     7  40    6.1841   548.6    4.568      71.775
2015    2       10     7  45    6.1821   548.8    4.565      71.798
2015    2       10     7  50    6.1804   548.9    4.563      71.822
2015    2       10     7  56    6.1785   549.0    4.560      71.846
2015    2       10     8   1    6.1764   549.2    4.557      71.871
2015    2       10     8   6    6.1746   549.3    4.554      71.897
2015    2       10     8  11    6.1726   549.5    4.552      71.924
2015    2       10     8  17    6.1704   549.6    4.549      71.951
2015    2       10     8  22    6.1685   549.8    4.547      71.980
2015    2       10     8  27    6.1661   549.9    4.545      72.008
2015    2       10     8  32    6.1641   550.0    4.542      72.037
2015    2       10     8  38    6.1618   550.2    4.540      72.066
2015    2       10     8  43    6.1593   550.3    4.538      72.097
2015    2       10     8  48    6.1571   550.5    4.536      72.128
2015    2       10     8  53    6.1547   550.6    4.534      72.160
2015    2       10     8  59    6.1520   550.8    4.531      72.194
2015    2       10     9   4    6.1494   550.9    4.529      72.227
2015    2       10     9   9    6.1470   551.0    4.527      72.261
2015    2       10     9  14    6.1442   551.2    4.525      72.295
2015    2       10     9  20    6.1414   551.3    4.522      72.329
2015    2       10     9  25    6.1389   551.5    4.520      72.363
2015    2       10     9  30    6.1361   551.6    4.518      72.396
2015    2       10     9  35    6.1330   551.8    4.515      72.429
2015    2       10     9  41    6.1301   551.9    4.512      72.462
2015    2       10     9  46    6.1274   552.1    4.510      72.494
2015    2       10     9  51    6.1244   552.2    4.507      72.526
2015    2       10     9  56    6.1215   552.4    4.504      72.557
2015    2       10    10   2    6.1182   552.5    4.501      72.587
2015    2       10    10   7    6.1152   552.7    4.498      72.616
2015    2       10    10  12    6.1121   552.8    4.495      72.645
2015    2       10    10  17    6.1090   552.9    4.492      72.674
2015    2       10    10  23    6.1060   553.1    4.489      72.701
2015    2       10    10  28    6.1027   553.2    4.486      72.729
2015    2       10    10  33    6.0997   553.4    4.482      72.755
2015    2       10    10  38    6.0965   553.5    4.479      72.782
2015    2       10    10  44    6.0933   553.6    4.476      72.808
2015    2       10    10  49    6.0899   553.8    4.472      72.833
2015    2       10    10  54    6.0866   553.9    4.468      72.857
2015    2       10    10  59    6.0834   554.1    4.465      72.881
2015    2       10    11   5    6.0801   554.2    4.461      72.905
2015    2       10    11  10    6.0770   554.3    4.458      72.927
2015    2       10    11  15    6.0737   554.5    4.454      72.949
2015    2       10    11  21    6.0701   554.6    4.450      72.971
2015    2       10    11  26    6.0668   554.7    4.446      72.991
2015    2       10    11  31    6.0636   554.9    4.442      73.011
2015    2       10    11  36    6.0600   555.0    4.438      73.030
2015    2       10    11  42    6.0568   555.2    4.434      73.048
2015    2       10    11  47    6.0532   555.3    4.430      73.065
2015    2       10    11  52    6.0499   555.4    4.426      73.082
2015    2       10    11  57    6.0465   555.6    4.422      73.098
2015    2       10    12   3    6.0428   555.7    4.418      73.113
2015    2       10    12   8    6.0393   555.8    4.414      73.127
2015    2       10    12  13    6.0360   555.9    4.410      73.141
2015    2       10    12  18    6.0324   556.1    4.406      73.154
2015    2       10    12  24    6.0289   556.2    4.402      73.166
2015    2       10    12  29    6.0253   556.3    4.398      73.178
2015    2       10    12  34    6.0215   556.5    4.394      73.189
2015    2       10    12  39    6.0181   556.6    4.390      73.200
2015    2       10    12  45    6.0143   556.7    4.386      73.210
2015    2       10    12  50    6.0107   556.8    4.382      73.220
2015    2       10    12  55    6.0070   557.0    4.378      73.229
2015    2       10    13   0    6.0034   557.1    4.374      73.237
2015    2       10    13   6    5.9997   557.2    4.369      73.246
2015    2       10    13  11    5.9960   557.3    4.365      73.253
2015    2       10    13  16    5.9925   557.5    4.361      73.261
2015    2       10    13  21    5.9886   557.6    4.357      73.268
2015    2       10    13  27    5.9849   557.7    4.353      73.275
2015    2       10    13  32    5.9812   557.8    4.349      73.281
2015    2       10    13  37    5.9774   557.9    4.345      73.287
2015    2       10    13  42    5.9738   558.0    4.342      73.293
2015    2       10    13  48    5.9701   558.2    4.338      73.299
2015    2       10    13  53    5.9661   558.3    4.334      73.305
2015    2       10    13  58    5.9624   558.4    4.330      73.310
2015    2       10    14   3    5.9584   558.5    4.326      73.315
2015    2       10    14   9    5.9545   558.6    4.322      73.321
2015    2       10    14  14    5.9506   558.7    4.319      73.326
2015    2       10    14  19    5.9470   558.8    4.315      73.332
2015    2       10    14  25    5.9428   559.0    4.311      73.338
2015    2       10    14  30    5.9389   559.1    4.308      73.344
2015    2       10    14  35    5.9349   559.2    4.304      73.350
2015    2       10    14  40    5.9309   559.3    4.301      73.357
2015    2       10    14  46    5.9271   559.4    4.297      73.364
2015    2       10    14  51    5.9230   559.5    4.294      73.371
2015    2       10    14  56    5.9189   559.6    4.290      73.378
2015    2       10    15   1    5.9147   559.7    4.287      73.386
2015    2       10    15   7    5.9105   559.8    4.284      73.393
2015    2       10    15  12    5.9060   559.9    4.281      73.402
2015    2       10    15  17    5.9020   560.0    4.277      73.411
2015    2       10    15  22    5.8976   560.1    4.274      73.421
2015    2       10    15  28    5.8932   560.2    4.271      73.432
2015    2       10    15  33    5.8886   560.4    4.268      73.443
2015    2       10    15  38    5.8841   560.5    4.265      73.454
2015    2       10    15  43    5.8796   560.6    4.261      73.466
2015    2       10    15  49    5.8753   560.7    4.258      73.478
2015    2       10    15  54    5.8705   560.8    4.255      73.489
2015    2       10    15  59    5.8661   560.9    4.252      73.501
2015    2       10    16   4    5.8614   561.0    4.248      73.511
2015    2       10    16  10    5.8567   561.1    4.245      73.522
2015    2       10    16  15    5.8520   561.2    4.242      73.533
2015    2       10    16  20    5.8473   561.3    4.238      73.543
2015    2       10    16  25    5.8425   561.4    4.235      73.552
2015    2       10    16  31    5.8377   561.5    4.231      73.560
2015    2       10    16  36    5.8329   561.6    4.228      73.567
2015    2       10    16  41    5.8281   561.7    4.224      73.574
2015    2       10    16  46    5.8232   561.7    4.220      73.579
2015    2       10    16  52    5.8183   561.8    4.217      73.584
2015    2       10    16  57    5.8132   561.9    4.213      73.588
2015    2       10    17   2    5.8083   562.0    4.209      73.592
2015    2       10    17   7    5.8034   562.1    4.205      73.595
2015    2       10    17  13    5.7984   562.2    4.202      73.597
2015    2       10    17  18    5.7935   562.3    4.198      73.599
2015    2       10    17  23    5.7885   562.4    4.194      73.600
2015    2       10    17  28    5.7837   562.4    4.190      73.600
2015    2       10    17  34    5.7787   562.5    4.186      73.600
2015    2       10    17  39    5.7737   562.6    4.182      73.600
2015    2       10    17  44    5.7687   562.7    4.178      73.599
2015    2       10    17  50    5.7636   562.7    4.175      73.597
2015    2       10    17  55    5.7587   562.8    4.171      73.594
2015    2       10    18   0    5.7537   562.9    4.167      73.591
2015    2       10    18   5    5.7485   563.0    4.163      73.588
2015    2       10    18  11    5.7436   563.0    4.159      73.584
2015    2       10    18  16    5.7385   563.1    4.155      73.579
2015    2       10    18  21    5.7333   563.2    4.151      73.574
2015    2       10    18  26    5.7283   563.2    4.147      73.568
2015    2       10    18  32    5.7232   563.3    4.143      73.562
2015    2       10    18  37    5.7182   563.4    4.140      73.555
2015    2       10    18  42    5.7131   563.4    4.136      73.547
2015    2       10    18  47    5.7079   563.5    4.132      73.539
2015    2       10    18  53    5.7029   563.6    4.128      73.531
2015    2       10    18  58    5.6978   563.6    4.124      73.522
2015    2       10    19   3    5.6927   563.7    4.121      73.513
2015    2       10    19   8    5.6876   563.7    4.117      73.503
2015    2       10    19  14    5.6825   563.8    4.113      73.493
2015    2       10    19  19    5.6774   563.8    4.109      73.482
2015    2       10    19  24    5.6721   563.9    4.106      73.471
2015    2       10    19  29    5.6672   563.9    4.102      73.460
2015    2       10    19  35    5.6620   564.0    4.099      73.449
2015    2       10    19  40    5.6569   564.0    4.095      73.437
2015    2       10    19  45    5.6519   564.1    4.092      73.425
2015    2       10    19  50    5.6468   564.1    4.088      73.413
2015    2       10    19  56    5.6417   564.2    4.085      73.401
2015    2       10    20   1    5.6366   564.2    4.081      73.389
2015    2       10    20   6    5.6314   564.3    4.078      73.377
2015    2       10    20  11    5.6265   564.3    4.075      73.365
2015    2       10    20  17    5.6214   564.3    4.072      73.353
2015    2       10    20  22    5.6163   564.4    4.068      73.341
2015    2       10    20  27    5.6113   564.4    4.065      73.328
2015    2       10    20  32    5.6063   564.5    4.062      73.316
2015    2       10    20  38    5.6013   564.5    4.059      73.303
2015    2       10    20  43    5.5961   564.5    4.056      73.290
2015    2       10    20  48    5.5911   564.6    4.053      73.277
2015    2       10    20  53    5.5862   564.6    4.050      73.264
2015    2       10    20  59    5.5810   564.6    4.047      73.251
2015    2       10    21   4    5.5760   564.7    4.044      73.237
2015    2       10    21   9    5.5709   564.7    4.041      73.224
2015    2       10    21  15    5.5659   564.7    4.038      73.210
2015    2       10    21  20    5.5608   564.8    4.035      73.196
2015    2       10    21  25    5.5556   564.8    4.032      73.182
2015    2       10    21  30    5.5505   564.8    4.028      73.167
2015    2       10    21  36    5.5454   564.8    4.025      73.153
2015    2       10    21  41    5.5403   564.9    4.022      73.138
2015    2       10    21  46    5.5351   564.9    4.019      73.123
2015    2       10    21  51    5.5298   564.9    4.016      73.108
2015    2       10    21  57    5.5245   564.9    4.013      73.093
2015    2       10    22   2    5.5194   565.0    4.010      73.078
2015    2       10    22   7    5.5140   565.0    4.007      73.062
2015    2       10    22  12    5.5088   565.0    4.003      73.046
2015    2       10    22  18    5.5034   565.0    4.000      73.029
2015    2       10    22  23    5.4981   565.0    3.997      73.012
2015    2       10    22  28    5.4927   565.0    3.994      72.995
2015    2       10    22  33    5.4874   565.1    3.991      72.977
2015    2       10    22  39    5.4820   565.1    3.987      72.958
2015    2       10    22  44    5.4765   565.1    3.984      72.939
2015    2       10    22  49    5.4711   565.1    3.981      72.920
2015    2       10    22  54    5.4657   565.1    3.977      72.900
2015    2       10    23   0    5.4602   565.1    3.974      72.879
2015    2       10    23   5    5.4547   565.1    3.971      72.858
2015    2       10    23  10    5.4492   565.1    3.967      72.836
2015    2       10    23  15    5.4437   565.1    3.964      72.814
2015    2       10    23  21    5.4382   565.1    3.960      72.791
2015    2       10    23  26    5.4327   565.1    3.957      72.767
2015    2       10    23  31    5.4272   565.1    3.954      72.743
2015    2       10    23  36    5.4216   565.1    3.950      72.718
2015    2       10    23  42    5.4161   565.1    3.947      72.693
2015    2       10    23  47    5.4106   565.1    3.944      72.668
2015    2       10    23  52    5.4050   565.1    3.940      72.641
2015    2       10    23  58    5.3994   565.1    3.937      72.615
2015    2       11     0   3    5.3939   565.1    3.933      72.588
2015    2       11     0   8    5.3883   565.1    3.930      72.561
2015    2       11     0  13    5.3827   565.1    3.927      72.534
2015    2       11     0  19    5.3772   565.1    3.923      72.506
2015    2       11     0  24    5.3716   565.1    3.920      72.478
2015    2       11     0  29    5.3660   565.1    3.917      72.450
2015    2       11     0  34    5.3605   565.1    3.914      72.422
2015    2       11     0  40    5.3549   565.1    3.910      72.393
2015    2       11     0  45    5.3493   565.1    3.907      72.365
2015    2       11     0  50    5.3437   565.0    3.904      72.336
2015    2       11     0  55    5.3382   565.0    3.901      72.307
2015    2       11     1   1    5.3326   565.0    3.898      72.278
2015    2       11     1   6    5.3270   565.0    3.895      72.249
2015    2       11     1  11    5.3214   565.0    3.892      72.220
2015    2       11     1  16    5.3158   565.0    3.888      72.191
2015    2       11     1  22    5.3103   564.9    3.885      72.162
2015    2       11     1  27    5.3046   564.9    3.882      72.132
2015    2       11     1  32    5.2991   564.9    3.879      72.103
2015    2       11     1  37    5.2935   564.9    3.876      72.074
2015    2       11     1  43    5.2879   564.8    3.874      72.044
2015    2       11     1  48    5.2823   564.8    3.871      72.014
2015    2       11     1  53    5.2767   564.8    3.868      71.985
2015    2       11     1  58    5.2711   564.8    3.865      71.955
2015    2       11     2   4    5.2656   564.7    3.862      71.925
2015    2       11     2   9    5.2600   564.7    3.859      71.895
2015    2       11     2  14    5.2545   564.7    3.856      71.864
2015    2       11     2  19    5.2489   564.6    3.853      71.834
2015    2       11     2  25    5.2434   564.6    3.851      71.803
2015    2       11     2  30    5.2378   564.5    3.848      71.773
2015    2       11     2  35    5.2324   564.5    3.845      71.742
2015    2       11     2  40    5.2268   564.5    3.842      71.711
2015    2       11     2  46    5.2214   564.4    3.840      71.680
2015    2       11     2  51    5.2159   564.4    3.837      71.650
2015    2       11     2  56    5.2105   564.3    3.834      71.618
2015    2       11     3   1    5.2051   564.3    3.832      71.587
2015    2       11     3   7    5.1997   564.2    3.829      71.556
2015    2       11     3  12    5.1944   564.2    3.827      71.525
2015    2       11     3  17    5.1890   564.1    3.824      71.493
2015    2       11     3  23    5.1836   564.1    3.822      71.461
2015    2       11     3  28    5.1783   564.0    3.819      71.430
2015    2       11     3  33    5.1730   564.0    3.817      71.398
2015    2       11     3  38    5.1677   563.9    3.814      71.366
2015    2       11     3  44    5.1624   563.9    3.812      71.333
2015    2       11     3  49    5.1572   563.8    3.809      71.300
2015    2       11     3  54    5.1519   563.8    3.807      71.267
2015    2       11     3  59    5.1466   563.7    3.804      71.233
2015    2       11     4   5    5.1413   563.7    3.802      71.199
2015    2       11     4  10    5.1360   563.6    3.800      71.165
2015    2       11     4  15    5.1307   563.5    3.797      71.129
2015    2       11     4  20    5.1255   563.5    3.794      71.094
2015    2       11     4  26    5.1201   563.4    3.792      71.057
2015    2       11     4  31    5.1149   563.4    3.789      71.021
2015    2       11     4  36    5.1095   563.3    3.787      70.983
2015    2       11     4  41    5.1042   563.2    3.784      70.945
2015    2       11     4  47    5.0989   563.2    3.782      70.906
2015    2       11     4  52    5.0935   563.1    3.779      70.867
2015    2       11     4  57    5.0882   563.0    3.776      70.827
2015    2       11     5   2    5.0829   563.0    3.774      70.787
2015    2       11     5   8    5.0775   562.9    3.771      70.746
2015    2       11     5  13    5.0721   562.8    3.768      70.704
2015    2       11     5  18    5.0667   562.8    3.765      70.662
2015    2       11     5  23    5.0613   562.7    3.763      70.619
2015    2       11     5  29    5.0559   562.6    3.760      70.576
2015    2       11     5  34    5.0504   562.6    3.757      70.532
2015    2       11     5  39    5.0450   562.5    3.754      70.487
2015    2       11     5  44    5.0396   562.4    3.752      70.443
2015    2       11     5  50    5.0341   562.3    3.749      70.398
2015    2       11     5  55    5.0287   562.3    3.746      70.352
2015    2       11     6   0    5.0232   562.2    3.743      70.306
2015    2       11     6   5    5.0177   562.1    3.741      70.260
2015    2       11     6  11    5.0122   562.0    3.738      70.214
2015    2       11     6  16    5.0068   561.9    3.735      70.168
2015    2       11     6  21    5.0013   561.9    3.732      70.122
2015    2       11     6  27    4.9958   561.8    3.730      70.075
2015    2       11     6  32    4.9903   561.7    3.727      70.029
2015    2       11     6  37    4.9849   561.6    3.725      69.982
2015    2       11     6  42    4.9794   561.5    3.722      69.936
2015    2       11     6  48    4.9740   561.4    3.720      69.890
2015    2       11     6  53    4.9686   561.3    3.717      69.845
2015    2       11     6  58    4.9631   561.3    3.715      69.800
2015    2       11     7   3    4.9577   561.2    3.713      69.755
2015    2       11     7   9    4.9523   561.1    3.710      69.711
2015    2       11     7  14    4.9470   561.0    3.708      69.667
2015    2       11     7  19    4.9416   560.9    3.706      69.624
2015    2       11     7  24    4.9362   560.8    3.704      69.581
2015    2       11     7  30    4.9309   560.7    3.702      69.539
2015    2       11     7  35    4.9255   560.6    3.700      69.498
2015    2       11     7  40    4.9202   560.5    3.698      69.457
2015    2       11     7  45    4.9149   560.4    3.697      69.416
2015    2       11     7  51    4.9096   560.3    3.695      69.377
2015    2       11     7  56    4.9043   560.2    3.693      69.338
2015    2       11     8   1    4.8990   560.1    3.692      69.299
2015    2       11     8   6    4.8937   560.0    3.690      69.261
2015    2       11     8  12    4.8884   559.9    3.689      69.224
2015    2       11     8  17    4.8831   559.8    3.687      69.187
2015    2       11     8  22    4.8779   559.7    3.685      69.151
2015    2       11     8  27    4.8726   559.6    3.684      69.115
2015    2       11     8  33    4.8674   559.5    3.682      69.079
2015    2       11     8  38    4.8622   559.4    3.681      69.043
2015    2       11     8  43    4.8568   559.3    3.679      69.007
2015    2       11     8  48    4.8516   559.2    3.678      68.971
2015    2       11     8  54    4.8464   559.0    3.676      68.935
2015    2       11     8  59    4.8411   558.9    3.675      68.898
2015    2       11     9   4    4.8360   558.8    3.673      68.862
2015    2       11     9   9    4.8308   558.7    3.672      68.825
2015    2       11     9  15    4.8256   558.6    3.670      68.787
2015    2       11     9  20    4.8204   558.5    3.669      68.750
2015    2       11     9  25    4.8151   558.4    3.667      68.711
2015    2       11     9  30    4.8100   558.2    3.665      68.672
2015    2       11     9  36    4.8049   558.1    3.664      68.632
2015    2       11     9  41    4.7996   558.0    3.662      68.592
2015    2       11     9  46    4.7946   557.9    3.660      68.550
2015    2       11     9  52    4.7894   557.8    3.659      68.508
2015    2       11     9  57    4.7843   557.6    3.657      68.466
2015    2       11    10   2    4.7793   557.5    3.655      68.422
2015    2       11    10   7    4.7741   557.4    3.653      68.378
2015    2       11    10  13    4.7691   557.3    3.652      68.333
2015    2       11    10  18    4.7639   557.1    3.650      68.287
2015    2       11    10  23    4.7589   557.0    3.648      68.241
2015    2       11    10  28    4.7538   556.9    3.646      68.193
2015    2       11    10  34    4.7488   556.8    3.644      68.145
2015    2       11    10  39    4.7436   556.6    3.642      68.096
2015    2       11    10  44    4.7386   556.5    3.640      68.046
2015    2       11    10  49    4.7334   556.4    3.639      67.996
2015    2       11    10  55    4.7283   556.2    3.637      67.945
2015    2       11    11   0    4.7233   556.1    3.635      67.893
2015    2       11    11   5    4.7182   556.0    3.633      67.841
2015    2       11    11  10    4.7130   555.8    3.631      67.788
2015    2       11    11  16    4.7080   555.7    3.628      67.734
2015    2       11    11  21    4.7028   555.6    3.626      67.680
2015    2       11    11  26    4.6977   555.4    3.624      67.625
2015    2       11    11  31    4.6925   555.3    3.622      67.569
2015    2       11    11  37    4.6874   555.2    3.620      67.513
2015    2       11    11  42    4.6822   555.0    3.618      67.457
2015    2       11    11  47    4.6771   554.9    3.616      67.400
2015    2       11    11  52    4.6720   554.7    3.614      67.342
2015    2       11    11  58    4.6667   554.6    3.611      67.284
2015    2       11    12   3    4.6615   554.5    3.609      67.226
2015    2       11    12   8    4.6563   554.3    3.607      67.167
2015    2       11    12  13    4.6512   554.2    3.605      67.107
2015    2       11    12  19    4.6460   554.0    3.602      67.047
2015    2       11    12  24    4.6408   553.9    3.600      66.987
2015    2       11    12  29    4.6356   553.7    3.598      66.927
2015    2       11    12  34    4.6303   553.6    3.596      66.866
2015    2       11    12  40    4.6252   553.4    3.593      66.805
2015    2       11    12  45    4.6200   553.3    3.591      66.743
2015    2       11    12  50    4.6147   553.1    3.589      66.681
2015    2       11    12  56    4.6095   553.0    3.587      66.619
2015    2       11    13   1    4.6043   552.8    3.584      66.557
2015    2       11    13   6    4.5991   552.6    3.582      66.495
2015    2       11    13  11    4.5940   552.5    3.580      66.433
2015    2       11    13  17    4.5887   552.3    3.578      66.371
2015    2       11    13  22    4.5836   552.2    3.576      66.309
2015    2       11    13  27    4.5784   552.0    3.574      66.247
2015    2       11    13  32    4.5733   551.8    3.572      66.186
2015    2       11    13  38    4.5682   551.7    3.570      66.124
2015    2       11    13  43    4.5631   551.5    3.568      66.064
2015    2       11    13  48    4.5580   551.3    3.566      66.004
2015    2       11    13  53    4.5530   551.2    3.564      65.944
2015    2       11    13  59    4.5480   551.0    3.562      65.885
2015    2       11    14   4    4.5430   550.8    3.560      65.827
2015    2       11    14   9    4.5380   550.6    3.559      65.770
2015    2       11    14  14    4.5330   550.5    3.557      65.713
2015    2       11    14  20    4.5282   550.3    3.556      65.658
2015    2       11    14  25    4.5232   550.1    3.554      65.603
2015    2       11    14  30    4.5183   550.0    3.553      65.549
2015    2       11    14  35    4.5135   549.8    3.552      65.496
2015    2       11    14  41    4.5087   549.6    3.550      65.443
2015    2       11    14  46    4.5038   549.4    3.549      65.392
2015    2       11    14  51    4.4991   549.3    3.548      65.341
2015    2       11    14  56    4.4943   549.1    3.547      65.291
2015    2       11    15   2    4.4895   548.9    3.546      65.242
2015    2       11    15   7    4.4848   548.7    3.545      65.193
2015    2       11    15  12    4.4801   548.6    3.544      65.145
2015    2       11    15  17    4.4753   548.4    3.543      65.098
2015    2       11    15  23    4.4706   548.2    3.542      65.051
2015    2       11    15  28    4.4659   548.0    3.542      65.004
2015    2       11    15  33    4.4611   547.8    3.541      64.957
2015    2       11    15  38    4.4564   547.7    3.540      64.910
2015    2       11    15  44    4.4517   547.5    3.539      64.864
2015    2       11    15  49    4.4470   547.3    3.539      64.817
2015    2       11    15  54    4.4423   547.1    3.538      64.770
2015    2       11    15  59    4.4376   546.9    3.537      64.723
2015    2       11    16   5    4.4329   546.8    3.537      64.675
2015    2       11    16  10    4.4282   546.6    3.536      64.627
2015    2       11    16  15    4.4235   546.4    3.535      64.579
2015    2       11    16  21    4.4188   546.2    3.535      64.531
2015    2       11    16  26    4.4141   546.0    3.534      64.482
2015    2       11    16  31    4.4094   545.8    3.533      64.432
2015    2       11    16  36    4.4047   545.6    3.533      64.382
2015    2       11    16  42    4.4000   545.5    3.532      64.332
2015    2       11    16  47    4.3953   545.3    3.531      64.281
2015    2       11    16  52    4.3907   545.1    3.531      64.230
2015    2       11    16  57    4.3860   544.9    3.530      64.178
2015    2       11    17   3    4.3813   544.7    3.529      64.126
2015    2       11    17   8    4.3766   544.5    3.529      64.074
2015    2       11    17  13    4.3719   544.3    3.528      64.021
2015    2       11    17  18    4.3672   544.1    3.527      63.967
2015    2       11    17  24    4.3625   543.9    3.527      63.914
2015    2       11    17  29    4.3579   543.7    3.526      63.860
2015    2       11    17  34    4.3532   543.6    3.526      63.805
2015    2       11    17  39    4.3486   543.4    3.525      63.750
2015    2       11    17  45    4.3439   543.2    3.524      63.695
2015    2       11    17  50    4.3392   543.0    3.524      63.640
2015    2       11    17  55    4.3346   542.8    3.523      63.584
2015    2       11    18   0    4.3299   542.6    3.523      63.528
2015    2       11    18   6    4.3253   542.4    3.522      63.472
2015    2       11    18  11    4.3206   542.2    3.522      63.415
2015    2       11    18  16    4.3159   542.0    3.521      63.358
2015    2       11    18  21    4.3113   541.8    3.520      63.301
2015    2       11    18  27    4.3066   541.6    3.520      63.243
2015    2       11    18  32    4.3019   541.4    3.519      63.185
2015    2       11    18  37    4.2973   541.2    3.518      63.127
2015    2       11    18  42    4.2927   541.0    3.518      63.068
2015    2       11    18  48    4.2880   540.8    3.517      63.008
2015    2       11    18  53    4.2833   540.6    3.516      62.949
2015    2       11    18  58    4.2786   540.4    3.516      62.889
2015    2       11    19   3    4.2739   540.1    3.515      62.828
2015    2       11    19   9    4.2693   539.9    3.514      62.767
2015    2       11    19  14    4.2646   539.7    3.514      62.705
2015    2       11    19  19    4.2600   539.5    3.513      62.643
2015    2       11    19  25    4.2553   539.3    3.512      62.581
2015    2       11    19  30    4.2506   539.1    3.511      62.518
2015    2       11    19  35    4.2458   538.9    3.510      62.454
2015    2       11    19  40    4.2412   538.6    3.509      62.390
2015    2       11    19  46    4.2365   538.4    3.508      62.326
2015    2       11    19  51    4.2319   538.2    3.507      62.261
2015    2       11    19  56    4.2271   538.0    3.507      62.196
2015    2       11    20   1    4.2226   537.8    3.506      62.130
2015    2       11    20   7    4.2179   537.5    3.505      62.064
2015    2       11    20  12    4.2133   537.3    3.504      61.998
2015    2       11    20  17    4.2085   537.1    3.503      61.932
2015    2       11    20  22    4.2040   536.9    3.502      61.865
2015    2       11    20  28    4.1994   536.6    3.500      61.798
2015    2       11    20  33    4.1947   536.4    3.499      61.731
2015    2       11    20  38    4.1902   536.2    3.498      61.664
2015    2       11    20  43    4.1855   535.9    3.497      61.597
2015    2       11    20  49    4.1809   535.7    3.496      61.529
2015    2       11    20  54    4.1764   535.5    3.495      61.462
2015    2       11    20  59    4.1718   535.2    3.494      61.395
2015    2       11    21   4    4.1674   535.0    3.493      61.328
2015    2       11    21  10    4.1628   534.8    3.492      61.261
2015    2       11    21  15    4.1584   534.5    3.491      61.194
2015    2       11    21  20    4.1539   534.3    3.490      61.127
2015    2       11    21  25    4.1494   534.0    3.490      61.060
2015    2       11    21  31    4.1449   533.8    3.489      60.994
2015    2       11    21  36    4.1406   533.6    3.488      60.928
2015    2       11    21  41    4.1362   533.3    3.487      60.861
2015    2       11    21  46    4.1317   533.1    3.486      60.796
2015    2       11    21  52    4.1274   532.9    3.485      60.730
2015    2       11    21  57    4.1230   532.6    3.484      60.665
2015    2       11    22   2    4.1186   532.4    3.484      60.600
2015    2       11    22   7    4.1143   532.1    3.483      60.535
2015    2       11    22  13    4.1100   531.9    3.482      60.470
2015    2       11    22  18    4.1056   531.7    3.481      60.405
2015    2       11    22  23    4.1012   531.4    3.480      60.340
2015    2       11    22  28    4.0969   531.2    3.480      60.275
2015    2       11    22  34    4.0926   530.9    3.479      60.211
2015    2       11    22  39    4.0882   530.7    3.478      60.146
2015    2       11    22  44    4.0839   530.5    3.478      60.081
2015    2       11    22  50    4.0796   530.2    3.477      60.017
2015    2       11    22  55    4.0753   530.0    3.476      59.952
2015    2       11    23   0    4.0710   529.7    3.476      59.887
2015    2       11    23   5    4.0666   529.5    3.475      59.823
2015    2       11    23  11    4.0623   529.2    3.474      59.758
2015    2       11    23  16    4.0580   529.0    3.474      59.693
2015    2       11    23  21    4.0537   528.8    3.473      59.629
2015    2       11    23  26    4.0494   528.5    3.472      59.564
2015    2       11    23  32    4.0450   528.3    3.472      59.499
2015    2       11    23  37    4.0407   528.0    3.471      59.434
2015    2       11    23  42    4.0364   527.8    3.470      59.369
2015    2       11    23  47    4.0321   527.5    3.470      59.303
2015    2       11    23  53    4.0278   527.3    3.469      59.238
2015    2       11    23  58    4.0235   527.0    3.469      59.173
2015    2       12     0   3    4.0192   526.8    3.468      59.107
2015    2       12     0   8    4.0149   526.6    3.468      59.042
2015    2       12     0  14    4.0106   526.3    3.467      58.977
2015    2       12     0  19    4.0063   526.1    3.467      58.911
2015    2       12     0  24    4.0020   525.8    3.466      58.846
2015    2       12     0  29    3.9978   525.6    3.466      58.780
2015    2       12     0  35    3.9936   525.3    3.465      58.715
2015    2       12     0  40    3.9893   525.1    3.465      58.650
2015    2       12     0  45    3.9851   524.8    3.465      58.585
2015    2       12     0  50    3.9809   524.6    3.464      58.520
2015    2       12     0  56    3.9767   524.3    3.464      58.455
2015    2       12     1   1    3.9725   524.1    3.464      58.390
2015    2       12     1   6    3.9684   523.8    3.463      58.326
2015    2       12     1  11    3.9642   523.5    3.463      58.261
2015    2       12     1  17    3.9601   523.3    3.463      58.197
2015    2       12     1  22    3.9559   523.0    3.463      58.133
2015    2       12     1  27    3.9518   522.8    3.463      58.070
2015    2       12     1  32    3.9478   522.5    3.463      58.007
2015    2       12     1  38    3.9437   522.3    3.463      57.944
2015    2       12     1  43    3.9396   522.0    3.463      57.881
2015    2       12     1  48    3.9356   521.8    3.463      57.818
2015    2       12     1  53    3.9316   521.5    3.463      57.756
2015    2       12     1  59    3.9276   521.3    3.463      57.694
2015    2       12     2   4    3.9235   521.0    3.463      57.632
2015    2       12     2   9    3.9196   520.7    3.464      57.571
2015    2       12     2  15    3.9156   520.5    3.464      57.509
2015    2       12     2  20    3.9116   520.2    3.464      57.448
2015    2       12     2  25    3.9077   520.0    3.464      57.387
2015    2       12     2  30    3.9037   519.7    3.465      57.326
2015    2       12     2  36    3.8998   519.4    3.465      57.266
2015    2       12     2  41    3.8959   519.2    3.465      57.205
2015    2       12     2  46    3.8920   518.9    3.466      57.144
2015    2       12     2  51    3.8881   518.7    3.466      57.084
2015    2       12     2  57    3.8841   518.4    3.466      57.023
2015    2       12     3   2    3.8802   518.1    3.467      56.963
2015    2       12     3   7    3.8763   517.9    3.467      56.903
2015    2       12     3  12    3.8723   517.6    3.467      56.842
2015    2       12     3  18    3.8684   517.3    3.468      56.781
2015    2       12     3  23    3.8645   517.1    3.468      56.720
2015    2       12     3  28    3.8605   516.8    3.468      56.659
2015    2       12     3  33    3.8566   516.6    3.469      56.597
2015    2       12     3  39    3.8526   516.3    3.469      56.536
2015    2       12     3  44    3.8486   516.0    3.469      56.474
2015    2       12     3  49    3.8447   515.8    3.470      56.411
2015    2       12     3  54    3.8407   515.5    3.470      56.348
2015    2       12     4   0    3.8367   515.2    3.470      56.285
2015    2       12     4   5    3.8327   514.9    3.470      56.222
2015    2       12     4  10    3.8287   514.7    3.470      56.158
2015    2       12     4  15    3.8247   514.4    3.470      56.094
2015    2       12     4  21    3.8207   514.1    3.471      56.029
2015    2       12     4  26    3.8167   513.9    3.471      55.964
2015    2       12     4  31    3.8127   513.6    3.471      55.898
2015    2       12     4  36    3.8087   513.3    3.471      55.832
2015    2       12     4  42    3.8047   513.0    3.471      55.766
2015    2       12     4  47    3.8007   512.7    3.471      55.699
2015    2       12     4  52    3.7967   512.5    3.471      55.632
2015    2       12     4  57    3.7927   512.2    3.471      55.564
2015    2       12     5   3    3.7887   511.9    3.470      55.496
2015    2       12     5   8    3.7847   511.6    3.470      55.428
2015    2       12     5  13    3.7807   511.3    3.470      55.360
2015    2       12     5  19    3.7768   511.1    3.470      55.291
2015    2       12     5  24    3.7727   510.8    3.470      55.222
2015    2       12     5  29    3.7688   510.5    3.470      55.153
2015    2       12     5  34    3.7648   510.2    3.470      55.083
2015    2       12     5  40    3.7609   509.9    3.470      55.013
2015    2       12     5  45    3.7569   509.6    3.469      54.943
2015    2       12     5  50    3.7530   509.3    3.469      54.872
2015    2       12     5  55    3.7490   509.0    3.469      54.802
2015    2       12     6   1    3.7452   508.7    3.469      54.731
2015    2       12     6   6    3.7412   508.5    3.469      54.660
2015    2       12     6  11    3.7374   508.2    3.469      54.589
2015    2       12     6  16    3.7336   507.9    3.468      54.518
2015    2       12     6  22    3.7297   507.6    3.468      54.447
2015    2       12     6  27    3.7258   507.3    3.468      54.376
2015    2       12     6  32    3.7220   507.0    3.468      54.305
2015    2       12     6  37    3.7182   506.7    3.468      54.234
2015    2       12     6  43    3.7146   506.4    3.468      54.163
2015    2       12     6  48    3.7108   506.1    3.468      54.092
2015    2       12     6  53    3.7071   505.8    3.468      54.022
2015    2       12     6  58    3.7034   505.5    3.468      53.951
2015    2       12     7   4    3.6998   505.2    3.468      53.881
2015    2       12     7   9    3.6962   504.9    3.468      53.811
2015    2       12     7  14    3.6925   504.6    3.468      53.741
2015    2       12     7  19    3.6890   504.3    3.469      53.671
2015    2       12     7  25    3.6855   504.0    3.469      53.602
2015    2       12     7  30    3.6820   503.7    3.469      53.533
2015    2       12     7  35    3.6785   503.4    3.470      53.465
2015    2       12     7  40    3.6750   503.1    3.470      53.396
2015    2       12     7  46    3.6717   502.8    3.470      53.328
2015    2       12     7  51    3.6683   502.5    3.471      53.261
2015    2       12     7  56    3.6649   502.2    3.471      53.194
2015    2       12     8   1    3.6615   501.9    3.472      53.127
2015    2       12     8   7    3.6582   501.6    3.472      53.061
2015    2       12     8  12    3.6549   501.3    3.473      52.995
2015    2       12     8  17    3.6517   501.0    3.474      52.929
2015    2       12     8  22    3.6484   500.7    3.474      52.864
2015    2       12     8  28    3.6453   500.4    3.475      52.799
2015    2       12     8  33    3.6420   500.1    3.476      52.735
2015    2       12     8  38    3.6389   499.8    3.477      52.671
2015    2       12     8  44    3.6358   499.5    3.477      52.607
2015    2       12     8  49    3.6326   499.2    3.478      52.544
2015    2       12     8  54    3.6294   498.9    3.479      52.481
2015    2       12     8  59    3.6263   498.6    3.480      52.418
2015    2       12     9   5    3.6232   498.3    3.481      52.355
2015    2       12     9  10    3.6202   498.0    3.482      52.293
2015    2       12     9  15    3.6170   497.7    3.483      52.231
2015    2       12     9  20    3.6139   497.4    3.483      52.169
2015    2       12     9  26    3.6109   497.1    3.484      52.107
2015    2       12     9  31    3.6078   496.8    3.485      52.045
2015    2       12     9  36    3.6047   496.5    3.486      51.984
2015    2       12     9  41    3.6015   496.2    3.487      51.923
2015    2       12     9  47    3.5984   495.8    3.488      51.862
2015    2       12     9  52    3.5954   495.5    3.489      51.802
2015    2       12     9  57    3.5924   495.2    3.490      51.742
2015    2       12    10   2    3.5893   494.9    3.491      51.681
2015    2       12    10   8    3.5862   494.6    3.492      51.621
2015    2       12    10  13    3.5831   494.3    3.493      51.561
2015    2       12    10  18    3.5799   494.0    3.494      51.501
2015    2       12    10  23    3.5769   493.7    3.495      51.441
2015    2       12    10  29    3.5738   493.4    3.496      51.380
2015    2       12    10  34    3.5707   493.1    3.497      51.320
2015    2       12    10  39    3.5676   492.8    3.498      51.259
2015    2       12    10  44    3.5644   492.5    3.499      51.198
2015    2       12    10  50    3.5614   492.2    3.500      51.137
2015    2       12    10  55    3.5582   491.9    3.501      51.076
2015    2       12    11   0    3.5551   491.6    3.502      51.014
2015    2       12    11   5    3.5519   491.2    3.502      50.952
2015    2       12    11  11    3.5488   490.9    3.503      50.890
2015    2       12    11  16    3.5457   490.6    3.504      50.827
2015    2       12    11  21    3.5425   490.3    3.505      50.764
2015    2       12    11  26    3.5394   490.0    3.506      50.700
2015    2       12    11  32    3.5363   489.7    3.507      50.637
2015    2       12    11  37    3.5331   489.3    3.507      50.573
2015    2       12    11  42    3.5300   489.0    3.508      50.508
2015    2       12    11  48    3.5270   488.7    3.509      50.443
2015    2       12    11  53    3.5238   488.4    3.510      50.378
2015    2       12    11  58    3.5207   488.1    3.510      50.313
2015    2       12    12   3    3.5176   487.7    3.511      50.247
2015    2       12    12   9    3.5145   487.4    3.512      50.181
2015    2       12    12  14    3.5115   487.1    3.513      50.114
2015    2       12    12  19    3.5084   486.8    3.513      50.048
2015    2       12    12  24    3.5053   486.4    3.514      49.981
2015    2       12    12  30    3.5022   486.1    3.515      49.914
2015    2       12    12  35    3.4993   485.8    3.516      49.846
2015    2       12    12  40    3.4963   485.4    3.517      49.778
2015    2       12    12  45    3.4933   485.1    3.517      49.711
2015    2       12    12  51    3.4902   484.8    3.518      49.643
2015    2       12    12  56    3.4874   484.4    3.519      49.575
2015    2       12    13   1    3.4844   484.1    3.520      49.506
2015    2       12    13   6    3.4815   483.8    3.521      49.438
2015    2       12    13  12    3.4787   483.4    3.522      49.370
2015    2       12    13  17    3.4758   483.1    3.523      49.301
2015    2       12    13  22    3.4730   482.8    3.524      49.233
2015    2       12    13  27    3.4702   482.4    3.525      49.165
2015    2       12    13  33    3.4674   482.1    3.526      49.097
2015    2       12    13  38    3.4647   481.7    3.527      49.029
2015    2       12    13  43    3.4620   481.4    3.528      48.961
2015    2       12    13  48    3.4593   481.0    3.529      48.894
2015    2       12    13  54    3.4567   480.7    3.531      48.826
2015    2       12    13  59    3.4540   480.4    3.532      48.759
2015    2       12    14   4    3.4514   480.0    3.533      48.693
2015    2       12    14   9    3.4490   479.7    3.535      48.626
2015    2       12    14  15    3.4465   479.3    3.536      48.560
2015    2       12    14  20    3.4440   479.0    3.538      48.495
2015    2       12    14  25    3.4416   478.6    3.540      48.430
2015    2       12    14  30    3.4391   478.3    3.541      48.365
2015    2       12    14  36    3.4369   477.9    3.543      48.301
2015    2       12    14  41    3.4345   477.6    3.545      48.238
2015    2       12    14  46    3.4322   477.2    3.547      48.175
2015    2       12    14  52    3.4301   476.9    3.549      48.113
2015    2       12    14  57    3.4279   476.5    3.551      48.052
2015    2       12    15   2    3.4257   476.2    3.554      47.991
2015    2       12    15   7    3.4236   475.8    3.556      47.931
2015    2       12    15  13    3.4215   475.5    3.558      47.872
2015    2       12    15  18    3.4195   475.2    3.561      47.813
2015    2       12    15  23    3.4175   474.8    3.563      47.755
2015    2       12    15  28    3.4155   474.5    3.566      47.698
2015    2       12    15  34    3.4136   474.1    3.569      47.641
2015    2       12    15  39    3.4117   473.8    3.571      47.585
2015    2       12    15  44    3.4097   473.4    3.574      47.529
2015    2       12    15  49    3.4078   473.1    3.577      47.474
2015    2       12    15  55    3.4060   472.7    3.580      47.419
2015    2       12    16   0    3.4040   472.4    3.583      47.365
2015    2       12    16   5    3.4023   472.0    3.586      47.311
2015    2       12    16  10    3.4004   471.7    3.589      47.257
2015    2       12    16  16    3.3986   471.3    3.592      47.203
2015    2       12    16  21    3.3967   471.0    3.595      47.150
2015    2       12    16  26    3.3950   470.6    3.599      47.097
2015    2       12    16  31    3.3932   470.3    3.602      47.044
2015    2       12    16  37    3.3914   469.9    3.605      46.991
2015    2       12    16  42    3.3896   469.6    3.608      46.938
2015    2       12    16  47    3.3878   469.2    3.612      46.886
2015    2       12    16  52    3.3861   468.9    3.615      46.834
2015    2       12    16  58    3.3844   468.5    3.618      46.782
2015    2       12    17   3    3.3827   468.1    3.622      46.731
2015    2       12    17   8    3.3811   467.8    3.625      46.679
2015    2       12    17  13    3.3794   467.4    3.629      46.628
2015    2       12    17  19    3.3778   467.1    3.632      46.577
2015    2       12    17  24    3.3763   466.7    3.636      46.526
2015    2       12    17  29    3.3747   466.3    3.639      46.476
2015    2       12    17  34    3.3732   466.0    3.643      46.426
2015    2       12    17  40    3.3718   465.6    3.646      46.376
2015    2       12    17  45    3.3703   465.3    3.650      46.326
2015    2       12    17  50    3.3690   464.9    3.654      46.276
2015    2       12    17  55    3.3677   464.6    3.658      46.227
2015    2       12    18   1    3.3662   464.2    3.661      46.178
2015    2       12    18   6    3.3650   463.8    3.665      46.129
2015    2       12    18  11    3.3637   463.5    3.669      46.080
2015    2       12    18  17    3.3624   463.1    3.673      46.031
2015    2       12    18  22    3.3611   462.8    3.677      45.982
2015    2       12    18  27    3.3601   462.4    3.681      45.933
2015    2       12    18  32    3.3589   462.0    3.685      45.885
2015    2       12    18  38    3.3577   461.7    3.688      45.836
2015    2       12    18  43    3.3566   461.3    3.692      45.788
2015    2       12    18  48    3.3556   461.0    3.696      45.739
2015    2       12    18  53    3.3544   460.6    3.700      45.691
2015    2       12    18  59    3.3535   460.3    3.704      45.642
2015    2       12    19   4    3.3523   459.9    3.708      45.594
2015    2       12    19   9    3.3515   459.5    3.712      45.545
2015    2       12    19  14    3.3504   459.2    3.716      45.497
2015    2       12    19  20    3.3496   458.8    3.720      45.449
2015    2       12    19  25    3.3485   458.5    3.725      45.400
2015    2       12    19  30    3.3478   458.1    3.729      45.351
2015    2       12    19  35    3.3468   457.8    3.733      45.303
2015    2       12    19  41    3.3460   457.4    3.737      45.254
2015    2       12    19  46    3.3453   457.1    3.741      45.205
2015    2       12    19  51    3.3443   456.7    3.745      45.156
2015    2       12    19  56    3.3436   456.4    3.749      45.107
2015    2       12    20   2    3.3430   456.0    3.753      45.058
2015    2       12    20   7    3.3421   455.7    3.757      45.009
2015    2       12    20  12    3.3416   455.3    3.762      44.960
2015    2       12    20  17    3.3409   455.0    3.766      44.910
2015    2       12    20  23    3.3402   454.6    3.770      44.861
2015    2       12    20  28    3.3394   454.2    3.774      44.811
2015    2       12    20  33    3.3390   453.9    3.778      44.761
2015    2       12    20  38    3.3384   453.5    3.782      44.711
2015    2       12    20  44    3.3378   453.2    3.787      44.661
2015    2       12    20  49    3.3371   452.8    3.791      44.611
2015    2       12    20  54    3.3368   452.5    3.795      44.561
2015    2       12    20  59    3.3363   452.1    3.799      44.511
2015    2       12    21   5    3.3358   451.8    3.804      44.461
2015    2       12    21  10    3.3353   451.4    3.808      44.411
2015    2       12    21  15    3.3347   451.1    3.812      44.360
2015    2       12    21  21    3.3343   450.7    3.817      44.310
2015    2       12    21  26    3.3341   450.4    3.821      44.260
2015    2       12    21  31    3.3336   450.0    3.825      44.209
2015    2       12    21  36    3.3333   449.7    3.830      44.159
2015    2       12    21  42    3.3332   449.3    3.834      44.109
2015    2       12    21  47    3.3329   449.0    3.839      44.059
2015    2       12    21  52    3.3326   448.7    3.843      44.009
2015    2       12    21  57    3.3322   448.3    3.848      43.959
2015    2       12    22   3    3.3322   448.0    3.852      43.909
2015    2       12    22   8    3.3319   447.6    3.857      43.859
2015    2       12    22  13    3.3317   447.3    3.861      43.809
2015    2       12    22  18    3.3316   446.9    3.866      43.760
2015    2       12    22  24    3.3316   446.6    3.871      43.710
2015    2       12    22  29    3.3315   446.2    3.875      43.661
2015    2       12    22  34    3.3315   445.9    3.880      43.612
2015    2       12    22  39    3.3317   445.5    3.885      43.563
2015    2       12    22  45    3.3317   445.2    3.889      43.514
2015    2       12    22  50    3.3316   444.8    3.894      43.465
2015    2       12    22  55    3.3318   444.5    3.899      43.416
2015    2       12    23   0    3.3321   444.1    3.904      43.368
2015    2       12    23   6    3.3321   443.8    3.909      43.320
2015    2       12    23  11    3.3324   443.4    3.914      43.272
2015    2       12    23  16    3.3328   443.1    3.919      43.224
2015    2       12    23  21    3.3331   442.8    3.924      43.177
2015    2       12    23  27    3.3335   442.4    3.929      43.130
2015    2       12    23  32    3.3338   442.1    3.934      43.083
2015    2       12    23  37    3.3344   441.7    3.939      43.036
2015    2       12    23  42    3.3347   441.4    3.944      42.990
2015    2       12    23  48    3.3355   441.0    3.950      42.944
2015    2       12    23  53    3.3359   440.7    3.955      42.899
2015    2       12    23  58    3.3368   440.3    3.960      42.854
2015    2       13     0   3    3.3373   440.0    3.966      42.809
2015    2       13     0   9    3.3381   439.7    3.971      42.765
2015    2       13     0  14    3.3392   439.3    3.977      42.721
2015    2       13     0  19    3.3399   439.0    3.983      42.678
2015    2       13     0  24    3.3409   438.6    3.988      42.635
2015    2       13     0  30    3.3420   438.3    3.994      42.593
2015    2       13     0  35    3.3434   438.0    4.000      42.551
2015    2       13     0  40    3.3446   437.6    4.006      42.510
2015    2       13     0  46    3.3459   437.3    4.012      42.470
2015    2       13     0  51    3.3473   436.9    4.019      42.430
2015    2       13     0  56    3.3488   436.6    4.025      42.391
2015    2       13     1   1    3.3504   436.3    4.031      42.353
2015    2       13     1   7    3.3519   435.9    4.038      42.316
2015    2       13     1  12    3.3538   435.6    4.045      42.279
2015    2       13     1  17    3.3557   435.3    4.051      42.243
2015    2       13     1  22    3.3577   435.0    4.058      42.208
2015    2       13     1  28    3.3595   434.6    4.065      42.173
2015    2       13     1  33    3.3617   434.3    4.072      42.139
2015    2       13     1  38    3.3640   434.0    4.079      42.107
2015    2       13     1  43    3.3664   433.7    4.087      42.075
2015    2       13     1  49    3.3689   433.3    4.094      42.044
2015    2       13     1  54    3.3714   433.0    4.102      42.014
2015    2       13     1  59    3.3744   432.7    4.110      41.984
2015    2       13     2   4    3.3770   432.4    4.118      41.956
2015    2       13     2  10    3.3799   432.1    4.126      41.928
2015    2       13     2  15    3.3832   431.8    4.134      41.901
2015    2       13     2  20    3.3862   431.4    4.142      41.876
2015    2       13     2  25    3.3895   431.1    4.150      41.850
2015    2       13     2  31    3.3931   430.8    4.159      41.826
2015    2       13     2  36    3.3967   430.5    4.168      41.803
2015    2       13     2  41    3.4003   430.2    4.177      41.781
2015    2       13     2  46    3.4041   429.9    4.186      41.759
2015    2       13     2  52    3.4080   429.6    4.195      41.739
2015    2       13     2  57    3.4118   429.3    4.204      41.719
2015    2       13     3   2    3.4163   429.0    4.213      41.700
2015    2       13     3   7    3.4202   428.7    4.223      41.682
2015    2       13     3  13    3.4247   428.4    4.233      41.665
2015    2       13     3  18    3.4295   428.1    4.242      41.648
2015    2       13     3  23    3.4343   427.9    4.252      41.633
2015    2       13     3  28    3.4387   427.6    4.262      41.618
2015    2       13     3  34    3.4441   427.3    4.273      41.605
2015    2       13     3  39    3.4488   427.0    4.283      41.592
2015    2       13     3  44    3.4541   426.7    4.294      41.579
2015    2       13     3  49    3.4598   426.4    4.304      41.568
2015    2       13     3  55    3.4651   426.2    4.315      41.558
2015    2       13     4   0    3.4711   425.9    4.326      41.548
2015    2       13     4   5    3.4766   425.6    4.337      41.539
2015    2       13     4  11    3.4826   425.3    4.349      41.531
2015    2       13     4  16    3.4892   425.1    4.360      41.524
2015    2       13     4  21    3.4951   424.8    4.372      41.518
2015    2       13     4  26    3.5021   424.5    4.384      41.513
2015    2       13     4  32    3.5088   424.3    4.396      41.508
2015    2       13     4  37    3.5152   424.0    4.408      41.504
2015    2       13     4  42    3.5227   423.7    4.420      41.502
2015    2       13     4  47    3.5295   423.5    4.433      41.500
2015    2       13     4  53    3.5374   423.2    4.446      41.499
2015    2       13     4  58    3.5450   423.0    4.459      41.499
2015    2       13     5   3    3.5528   422.7    4.472      41.501
2015    2       13     5   8    3.5609   422.5    4.485      41.503
2015    2       13     5  14    3.5691   422.2    4.499      41.506
2015    2       13     5  19    3.5770   422.0    4.512      41.510
2015    2       13     5  24    3.5856   421.8    4.526      41.516
2015    2       13     5  29    3.5951   421.5    4.540      41.522
2015    2       13     5  35    3.6036   421.3    4.555      41.529
2015    2       13     5  40    3.6135   421.1    4.569      41.538
2015    2       13     5  45    3.6225   420.8    4.584      41.547
2015    2       13     5  50    3.6323   420.6    4.599      41.558
2015    2       13     5  56    3.6430   420.4    4.614      41.570
2015    2       13     6   1    3.6533   420.2    4.630      41.583
2015    2       13     6   6    3.6638   420.0    4.646      41.596
2015    2       13     6  11    3.6746   419.8    4.661      41.611
2015    2       13     6  17    3.6849   419.5    4.677      41.627
2015    2       13     6  22    3.6961   419.4    4.694      41.644
2015    2       13     6  27    3.7083   419.2    4.710      41.661
2015    2       13     6  32    3.7199   419.0    4.727      41.679
2015    2       13     6  38    3.7318   418.8    4.744      41.699
2015    2       13     6  43    3.7440   418.6    4.760      41.718
2015    2       13     6  48    3.7563   418.4    4.777      41.738
2015    2       13     6  53    3.7688   418.2    4.795      41.758
2015    2       13     6  59    3.7814   418.1    4.812      41.778
2015    2       13     7   4    3.7942   417.9    4.829      41.797
2015    2       13     7   9    3.8071   417.7    4.846      41.816
2015    2       13     7  14    3.8201   417.5    4.863      41.833
2015    2       13     7  20    3.8324   417.3    4.880      41.850
2015    2       13     7  25    3.8455   417.1    4.897      41.866
2015    2       13     7  30    3.8594   417.0    4.915      41.881
2015    2       13     7  36    3.8719   416.8    4.931      41.894
2015    2       13     7  41    3.8851   416.6    4.948      41.907
2015    2       13     7  46    3.8990   416.4    4.965      41.918
2015    2       13     7  51    3.9114   416.2    4.982      41.928
2015    2       13     7  57    3.9252   416.0    4.998      41.936
2015    2       13     8   2    3.9383   415.8    5.015      41.944
2015    2       13     8   7    3.9513   415.6    5.031      41.950
2015    2       13     8  12    3.9642   415.4    5.047      41.956
2015    2       13     8  18    3.9771   415.2    5.063      41.960
2015    2       13     8  23    3.9898   415.0    5.079      41.963
2015    2       13     8  28    4.0025   414.7    5.095      41.965
2015    2       13     8  33    4.0150   414.5    5.111      41.966
2015    2       13     8  39    4.0275   414.3    5.127      41.966
2015    2       13     8  44    4.0398   414.1    5.142      41.965
2015    2       13     8  49    4.0520   413.9    5.157      41.963
2015    2       13     8  54    4.0640   413.7    5.173      41.960
2015    2       13     9   0    4.0752   413.4    5.188      41.956
2015    2       13     9   5    4.0870   413.2    5.203      41.950
2015    2       13     9  10    4.0986   413.0    5.217      41.944
2015    2       13     9  15    4.1100   412.8    5.232      41.937
2015    2       13     9  21    4.1212   412.5    5.247      41.929
2015    2       13     9  26    4.1323   412.3    5.261      41.920
2015    2       13     9  31    4.1438   412.1    5.275      41.910
2015    2       13     9  36    4.1545   411.9    5.289      41.899
2015    2       13     9  42    4.1651   411.6    5.303      41.888
2015    2       13     9  47    4.1755   411.4    5.317      41.876
2015    2       13     9  52    4.1852   411.2    5.331      41.862
2015    2       13     9  57    4.1957   410.9    5.345      41.849
2015    2       13    10   3    4.2051   410.7    5.358      41.834
2015    2       13    10   8    4.2148   410.5    5.372      41.819
2015    2       13    10  13    4.2243   410.2    5.385      41.802
2015    2       13    10  18    4.2337   410.0    5.398      41.786
2015    2       13    10  24    4.2432   409.8    5.412      41.768
2015    2       13    10  29    4.2518   409.5    5.425      41.750
2015    2       13    10  34    4.2610   409.3    5.437      41.731
2015    2       13    10  39    4.2692   409.1    5.450      41.712
2015    2       13    10  45    4.2776   408.8    5.463      41.692
2015    2       13    10  50    4.2859   408.6    5.476      41.671
2015    2       13    10  55    4.2943   408.3    5.488      41.650
2015    2       13    11   1    4.3022   408.1    5.501      41.628
2015    2       13    11   6    4.3096   407.9    5.513      41.606
2015    2       13    11  11    4.3174   407.6    5.525      41.583
2015    2       13    11  16    4.3248   407.4    5.537      41.560
2015    2       13    11  22    4.3318   407.1    5.549      41.536
2015    2       13    11  27    4.3388   406.9    5.561      41.512
2015    2       13    11  32    4.3457   406.7    5.573      41.488
2015    2       13    11  37    4.3524   406.4    5.585      41.463
2015    2       13    11  43    4.3590   406.2    5.597      41.437
2015    2       13    11  48    4.3654   406.0    5.608      41.412
2015    2       13    11  53    4.3717   405.7    5.620      41.386
2015    2       13    11  58    4.3778   405.5    5.631      41.360
2015    2       13    12   4    4.3838   405.2    5.643      41.333
2015    2       13    12   9    4.3897   405.0    5.654      41.307
2015    2       13    12  14    4.3953   404.8    5.666      41.280
2015    2       13    12  19    4.4009   404.5    5.677      41.253
2015    2       13    12  25    4.4064   404.3    5.688      41.226
2015    2       13    12  30    4.4115   404.1    5.699      41.199
2015    2       13    12  35    4.4168   403.8    5.710      41.172
2015    2       13    12  40    4.4218   403.6    5.721      41.145
2015    2       13    12  46    4.4268   403.4    5.732      41.117
2015    2       13    12  51    4.4316   403.1    5.743      41.090
2015    2       13    12  56    4.4363   402.9    5.754      41.063
2015    2       13    13   1    4.4409   402.7    5.764      41.036
2015    2       13    13   7    4.4454   402.4    5.775      41.009
2015    2       13    13  12    4.4499   402.2    5.786      40.983
2015    2       13    13  17    4.4542   402.0    5.796      40.956
2015    2       13    13  22    4.4584   401.7    5.807      40.930
2015    2       13    13  28    4.4626   401.5    5.817      40.904
2015    2       13    13  33    4.4667   401.3    5.828      40.878
2015    2       13    13  38    4.4707   401.1    5.838      40.852
2015    2       13    13  43    4.4746   400.8    5.849      40.827
2015    2       13    13  49    4.4785   400.6    5.859      40.802
2015    2       13    13  54    4.4823   400.4    5.869      40.777
2015    2       13    13  59    4.4861   400.2    5.880      40.753
2015    2       13    14   4    4.4898   399.9    5.890      40.729
2015    2       13    14  10    4.4935   399.7    5.900      40.705
2015    2       13    14  15    4.4970   399.5    5.910      40.682
2015    2       13    14  20    4.5006   399.3    5.921      40.659
2015    2       13    14  26    4.5041   399.1    5.931      40.637
2015    2       13    14  31    4.5076   398.8    5.941      40.615
2015    2       13    14  36    4.5111   398.6    5.951      40.593
2015    2       13    14  41    4.5145   398.4    5.962      40.572
2015    2       13    14  47    4.5179   398.2    5.972      40.552
2015    2       13    14  52    4.5213   398.0    5.982      40.531
2015    2       13    14  57    4.5247   397.8    5.992      40.512
2015    2       13    15   2    4.5280   397.6    6.002      40.492
2015    2       13    15   8    4.5313   397.4    6.012      40.474
2015    2       13    15  13    4.5346   397.2    6.023      40.455
2015    2       13    15  18    4.5379   397.0    6.033      40.438
2015    2       13    15  23    4.5411   396.8    6.043      40.420
2015    2       13    15  29    4.5444   396.5    6.053      40.403
2015    2       13    15  34    4.5478   396.3    6.064      40.387
2015    2       13    15  39    4.5511   396.1    6.074      40.371
2015    2       13    15  44    4.5543   395.9    6.084      40.356
2015    2       13    15  50    4.5576   395.8    6.094      40.341
2015    2       13    15  55    4.5609   395.6    6.105      40.327
2015    2       13    16   0    4.5642   395.4    6.115      40.314
2015    2       13    16   5    4.5676   395.2    6.125      40.301
2015    2       13    16  11    4.5710   395.0    6.136      40.288
2015    2       13    16  16    4.5744   394.8    6.146      40.276
2015    2       13    16  21    4.5778   394.6    6.156      40.265
2015    2       13    16  26    4.5812   394.4    6.167      40.255
2015    2       13    16  32    4.5847   394.2    6.177      40.244
2015    2       13    16  37    4.5882   394.1    6.188      40.235
2015    2       13    16  42    4.5918   393.9    6.198      40.226
2015    2       13    16  47    4.5954   393.7    6.209      40.217
2015    2       13    16  53    4.5991   393.5    6.219      40.209
2015    2       13    16  58    4.6028   393.3    6.230      40.202
2015    2       13    17   3    4.6065   393.2    6.241      40.194
2015    2       13    17   8    4.6103   393.0    6.251      40.188
2015    2       13    17  14    4.6142   392.8    6.262      40.182
2015    2       13    17  19    4.6182   392.6    6.273      40.177
2015    2       13    17  24    4.6223   392.5    6.284      40.172
2015    2       13    17  29    4.6263   392.3    6.295      40.168
2015    2       13    17  35    4.6306   392.2    6.306      40.164
2015    2       13    17  40    4.6349   392.0    6.318      40.162
2015    2       13    17  45    4.6393   391.8    6.329      40.159
2015    2       13    17  51    4.6437   391.7    6.340      40.158
2015    2       13    17  56    4.6483   391.5    6.352      40.157
2015    2       13    18   1    4.6530   391.4    6.364      40.157
2015    2       13    18   6    4.6579   391.2    6.376      40.157
2015    2       13    18  12    4.6628   391.1    6.388      40.158
2015    2       13    18  17    4.6678   390.9    6.400      40.160
2015    2       13    18  22    4.6730   390.8    6.413      40.163
2015    2       13    18  27    4.6783   390.6    6.425      40.166
2015    2       13    18  33    4.6838   390.5    6.438      40.170
2015    2       13    18  38    4.6894   390.4    6.451      40.175
2015    2       13    18  43    4.6951   390.2    6.464      40.181
2015    2       13    18  48    4.7009   390.1    6.478      40.187
2015    2       13    18  54    4.7069   390.0    6.491      40.195
2015    2       13    18  59    4.7131   389.8    6.505      40.203
2015    2       13    19   4    4.7194   389.7    6.519      40.212
2015    2       13    19   9    4.7258   389.6    6.533      40.222
2015    2       13    19  15    4.7324   389.5    6.548      40.232
2015    2       13    19  20    4.7391   389.4    6.562      40.244
2015    2       13    19  25    4.7461   389.3    6.577      40.256
2015    2       13    19  30    4.7531   389.1    6.592      40.269
2015    2       13    19  36    4.7603   389.0    6.608      40.283
2015    2       13    19  41    4.7676   388.9    6.623      40.298
2015    2       13    19  46    4.7749   388.8    6.639      40.314
2015    2       13    19  51    4.7826   388.7    6.655      40.330
2015    2       13    19  57    4.7903   388.6    6.671      40.347
2015    2       13    20   2    4.7982   388.5    6.687      40.365
2015    2       13    20   7    4.8062   388.4    6.704      40.384
2015    2       13    20  12    4.8143   388.3    6.721      40.403
2015    2       13    20  18    4.8225   388.3    6.738      40.423
2015    2       13    20  23    4.8307   388.2    6.755      40.444
2015    2       13    20  28    4.8391   388.1    6.772      40.466
2015    2       13    20  33    4.8477   388.0    6.790      40.488
2015    2       13    20  39    4.8562   387.9    6.807      40.511
2015    2       13    20  44    4.8649   387.8    6.825      40.534
2015    2       13    20  49    4.8738   387.8    6.843      40.558
2015    2       13    20  55    4.8825   387.7    6.861      40.582
2015    2       13    21   0    4.8914   387.6    6.880      40.607
2015    2       13    21   5    4.9005   387.5    6.898      40.633
2015    2       13    21  10    4.9093   387.5    6.916      40.659
2015    2       13    21  16    4.9184   387.4    6.935      40.685
2015    2       13    21  21    4.9275   387.3    6.954      40.712
2015    2       13    21  26    4.9368   387.3    6.973      40.739
2015    2       13    21  31    4.9458   387.2    6.992      40.767
2015    2       13    21  37    4.9551   387.1    7.011      40.795
2015    2       13    21  42    4.9643   387.1    7.030      40.824
2015    2       13    21  47    4.9734   387.0    7.049      40.853
2015    2       13    21  52    4.9829   387.0    7.068      40.883
2015    2       13    21  58    4.9921   386.9    7.088      40.913
2015    2       13    22   3    5.0013   386.8    7.108      40.943
2015    2       13    22   8    5.0108   386.8    7.127      40.974
2015    2       13    22  13    5.0201   386.7    7.147      41.005
2015    2       13    22  19    5.0294   386.7    7.167      41.036
2015    2       13    22  24    5.0387   386.6    7.187      41.069
2015    2       13    22  29    5.0480   386.6    7.207      41.102
2015    2       13    22  34    5.0573   386.5    7.227      41.135
2015    2       13    22  40    5.0667   386.5    7.247      41.170
2015    2       13    22  45    5.0758   386.4    7.267      41.205
2015    2       13    22  50    5.0852   386.4    7.287      41.241
2015    2       13    22  55    5.0944   386.4    7.307      41.278
2015    2       13    23   1    5.1036   386.3    7.327      41.315
2015    2       13    23   6    5.1129   386.3    7.347      41.353
2015    2       13    23  11    5.1220   386.2    7.367      41.392
2015    2       13    23  16    5.1312   386.2    7.387      41.431
2015    2       13    23  22    5.1405   386.2    7.407      41.471
2015    2       13    23  27    5.1496   386.2    7.427      41.511
2015    2       13    23  32    5.1587   386.1    7.447      41.552
2015    2       13    23  37    5.1678   386.1    7.466      41.593
2015    2       13    23  43    5.1768   386.1    7.486      41.634
2015    2       13    23  48    5.1859   386.0    7.506      41.675
2015    2       13    23  53    5.1948   386.0    7.525      41.717
2015    2       13    23  59    5.2038   386.0    7.545      41.759
2015    2       14     0   4    5.2129   386.0    7.564      41.800
2015    2       14     0   9    5.2218   386.0    7.584      41.842
2015    2       14     0  14    5.2307   385.9    7.603      41.884
2015    2       14     0  20    5.2397   385.9    7.623      41.926
2015    2       14     0  25    5.2486   385.9    7.642      41.967
2015    2       14     0  30    5.2575   385.9    7.661      42.008
2015    2       14     0  35    5.2664   385.9    7.680      42.050
2015    2       14     0  41    5.2752   385.9    7.700      42.091
2015    2       14     0  46    5.2841   385.8    7.719      42.132
2015    2       14     0  51    5.2930   385.8    7.738      42.172
2015    2       14     0  56    5.3017   385.8    7.757      42.213
2015    2       14     1   2    5.3106   385.8    7.776      42.254
2015    2       14     1   7    5.3195   385.8    7.795      42.294
2015    2       14     1  12    5.3283   385.8    7.814      42.334
2015    2       14     1  17    5.3371   385.8    7.833      42.374
2015    2       14     1  23    5.3460   385.8    7.852      42.414
2015    2       14     1  28    5.3547   385.8    7.871      42.454
2015    2       14     1  33    5.3636   385.8    7.890      42.494
2015    2       14     1  38    5.3724   385.7    7.909      42.534
2015    2       14     1  44    5.3813   385.7    7.928      42.573
2015    2       14     1  49    5.3902   385.7    7.947      42.612
2015    2       14     1  54    5.3992   385.7    7.965      42.651
2015    2       14     1  59    5.4081   385.7    7.984      42.691
2015    2       14     2   5    5.4171   385.7    8.003      42.729
2015    2       14     2  10    5.4261   385.7    8.022      42.768
2015    2       14     2  15    5.4351   385.7    8.040      42.807
2015    2       14     2  21    5.4441   385.7    8.059      42.846
2015    2       14     2  26    5.4532   385.7    8.078      42.884
2015    2       14     2  31    5.4624   385.7    8.097      42.922
2015    2       14     2  36    5.4716   385.7    8.116      42.961
2015    2       14     2  42    5.4809   385.7    8.135      43.000
2015    2       14     2  47    5.4903   385.7    8.154      43.039
2015    2       14     2  52    5.4997   385.7    8.173      43.078
2015    2       14     2  57    5.5092   385.7    8.192      43.117
2015    2       14     3   3    5.5187   385.7    8.211      43.157
2015    2       14     3   8    5.5283   385.8    8.230      43.197
2015    2       14     3  13    5.5381   385.8    8.249      43.238
2015    2       14     3  18    5.5480   385.8    8.268      43.279
2015    2       14     3  24    5.5578   385.8    8.288      43.320
2015    2       14     3  29    5.5677   385.8    8.307      43.361
2015    2       14     3  34    5.5779   385.8    8.327      43.402
2015    2       14     3  39    5.5881   385.8    8.346      43.444
2015    2       14     3  45    5.5983   385.8    8.366      43.487
2015    2       14     3  50    5.6086   385.9    8.386      43.531
2015    2       14     3  55    5.6192   385.9    8.406      43.575
2015    2       14     4   0    5.6296   385.9    8.425      43.621
2015    2       14     4   6    5.6403   385.9    8.445      43.668
2015    2       14     4  11    5.6509   386.0    8.465      43.716
2015    2       14     4  16    5.6616   386.0    8.484      43.764
2015    2       14     4  22    5.6723   386.0    8.504      43.813
2015    2       14     4  27    5.6830   386.1    8.523      43.862
2015    2       14     4  32    5.6936   386.1    8.542      43.912
2015    2       14     4  37    5.7043   386.2    8.561      43.962
2015    2       14     4  43    5.7149   386.2    8.580      44.012
2015    2       14     4  48    5.7255   386.2    8.598      44.062
2015    2       14     4  53    5.7360   386.3    8.616      44.113
2015    2       14     4  58    5.7465   386.3    8.634      44.164
2015    2       14     5   4    5.7568   386.4    8.651      44.215
2015    2       14     5   9    5.7670   386.4    8.668      44.265
2015    2       14     5  14    5.7773   386.5    8.685      44.315
2015    2       14     5  19    5.7873   386.5    8.702      44.364
2015    2       14     5  25    5.7974   386.6    8.718      44.412
2015    2       14     5  30    5.8075   386.6    8.734      44.460
2015    2       14     5  35    5.8173   386.7    8.750      44.507
2015    2       14     5  40    5.8270   386.7    8.765      44.553
2015    2       14     5  46    5.8368   386.8    8.781      44.598
2015    2       14     5  51    5.8464   386.8    8.796      44.643
2015    2       14     5  56    5.8560   386.9    8.811      44.688
2015    2       14     6   2    5.8655   386.9    8.825      44.731
2015    2       14     6   7    5.8749   386.9    8.840      44.774
2015    2       14     6  12    5.8843   387.0    8.854      44.817
2015    2       14     6  17    5.8935   387.0    8.868      44.859
2015    2       14     6  23    5.9028   387.1    8.882      44.900
2015    2       14     6  28    5.9120   387.1    8.896      44.941
2015    2       14     6  33    5.9211   387.1    8.910      44.982
2015    2       14     6  38    5.9302   387.2    8.924      45.022
2015    2       14     6  44    5.9393   387.2    8.937      45.062
2015    2       14     6  49    5.9483   387.3    8.951      45.101
2015    2       14     6  54    5.9573   387.3    8.964      45.140
2015    2       14     6  59    5.9663   387.3    8.978      45.179
2015    2       14     7   5    5.9753   387.4    8.991      45.218
2015    2       14     7  10    5.9842   387.4    9.005      45.256
2015    2       14     7  15    5.9931   387.5    9.018      45.294
2015    2       14     7  20    6.0020   387.5    9.031      45.332
2015    2       14     7  26    6.0108   387.5    9.045      45.370
2015    2       14     7  31    6.0197   387.6    9.058      45.408
2015    2       14     7  36    6.0285   387.6    9.071      45.445
2015    2       14     7  41    6.0374   387.7    9.085      45.483
2015    2       14     7  47    6.0463   387.7    9.098      45.520
2015    2       14     7  52    6.0551   387.8    9.112      45.558
2015    2       14     7  57    6.0638   387.8    9.125      45.596
2015    2       14     8   2    6.0726   387.8    9.139      45.634
2015    2       14     8   8    6.0814   387.9    9.153      45.672
2015    2       14     8  13    6.0902   387.9    9.167      45.710
2015    2       14     8  18    6.0992   388.0    9.181      45.749
2015    2       14     8  24    6.1079   388.0    9.195      45.788
2015    2       14     8  29    6.1167   388.1    9.209      45.827
2015    2       14     8  34    6.1258   388.1    9.224      45.867
2015    2       14     8  39    6.1345   388.2    9.239      45.907
2015    2       14     8  45    6.1436   388.2    9.254      45.948
2015    2       14     8  50    6.1525   388.3    9.269      45.989
2015    2       14     8  55    6.1615   388.3    9.285      46.031
2015    2       14     9   0    6.1703   388.4    9.300      46.074
2015    2       14     9   6    6.1795   388.4    9.317      46.117
2015    2       14     9  11    6.1883   388.5    9.333      46.161
2015    2       14     9  16    6.1974   388.6    9.350      46.206
2015    2       14     9  21    6.2066   388.6    9.368      46.251
2015    2       14     9  27    6.2157   388.7    9.386      46.298
2015    2       14     9  32    6.2252   388.7    9.404      46.346
2015    2       14     9  37    6.2342   388.8    9.423      46.396
2015    2       14     9  42    6.2435   388.9    9.442      46.446
2015    2       14     9  48    6.2529   388.9    9.462      46.498
2015    2       14     9  53    6.2626   389.0    9.483      46.551
2015    2       14     9  58    6.2718   389.1    9.504      46.606
2015    2       14    10   3    6.2816   389.2    9.525      46.664
2015    2       14    10   9    6.2912   389.2    9.547      46.724
2015    2       14    10  14    6.3006   389.3    9.570      46.786
2015    2       14    10  19    6.3102   389.4    9.593      46.850
2015    2       14    10  24    6.3199   389.5    9.616      46.916
2015    2       14    10  30    6.3297   389.6    9.640      46.985
2015    2       14    10  35    6.3397   389.7    9.664      47.058
2015    2       14    10  40    6.3496   389.8    9.688      47.134
2015    2       14    10  45    6.3594   389.9    9.712      47.214
2015    2       14    10  51    6.3692   390.0    9.737      47.296
2015    2       14    10  56    6.3791   390.1    9.761      47.380
2015    2       14    11   1    6.3891   390.2    9.785      47.466
2015    2       14    11   6    6.3991   390.4    9.808      47.554
2015    2       14    11  12    6.4092   390.5    9.832      47.644
2015    2       14    11  17    6.4194   390.6    9.854      47.734
2015    2       14    11  22    6.4294   390.7    9.877      47.826
2015    2       14    11  28    6.4395   390.9    9.899      47.917
2015    2       14    11  33    6.4498   391.0    9.920      48.009
2015    2       14    11  38    6.4600   391.1    9.941      48.100
2015    2       14    11  43    6.4700   391.3    9.961      48.192
2015    2       14    11  49    6.4803   391.4    9.981      48.282
2015    2       14    11  54    6.4905   391.6   10.000      48.373
2015    2       14    11  59    6.5008   391.7   10.018      48.462
2015    2       14    12   4    6.5111   391.9   10.035      48.550
2015    2       14    12  10    6.5213   392.0   10.052      48.636
2015    2       14    12  15    6.5316   392.1   10.069      48.720
2015    2       14    12  20    6.5419   392.3   10.084      48.803
2015    2       14    12  25    6.5522   392.4   10.099      48.884
2015    2       14    12  31    6.5626   392.6   10.114      48.964
2015    2       14    12  36    6.5728   392.7   10.128      49.042
2015    2       14    12  41    6.5831   392.8   10.141      49.118
2015    2       14    12  46    6.5934   393.0   10.154      49.194
2015    2       14    12  52    6.6037   393.1   10.166      49.268
2015    2       14    12  57    6.6140   393.3   10.178      49.341
2015    2       14    13   2    6.6243   393.4   10.189      49.413
2015    2       14    13   7    6.6346   393.5   10.199      49.483
2015    2       14    13  13    6.6448   393.7   10.209      49.552
2015    2       14    13  18    6.6551   393.8   10.219      49.620
2015    2       14    13  23    6.6653   394.0   10.228      49.687
2015    2       14    13  28    6.6755   394.1   10.237      49.753
2015    2       14    13  34    6.6857   394.2   10.245      49.818
2015    2       14    13  39    6.6959   394.4   10.253      49.881
2015    2       14    13  44    6.7061   394.5   10.260      49.944
2015    2       14    13  49    6.7160   394.7   10.267      50.005
2015    2       14    13  55    6.7262   394.8   10.273      50.066
2015    2       14    14   0    6.7360   395.0   10.279      50.125
2015    2       14    14   5    6.7460   395.1   10.285      50.184
2015    2       14    14  10    6.7560   395.2   10.290      50.241
2015    2       14    14  16    6.7658   395.4   10.294      50.298
2015    2       14    14  21    6.7756   395.5   10.299      50.353
2015    2       14    14  26    6.7853   395.7   10.303      50.408
2015    2       14    14  31    6.7949   395.8   10.306      50.462
2015    2       14    14  37    6.8045   396.0   10.310      50.515
2015    2       14    14  42    6.8140   396.1   10.313      50.567
2015    2       14    14  47    6.8235   396.2   10.315      50.619
2015    2       14    14  53    6.8329   396.4   10.317      50.669
2015    2       14    14  58    6.8423   396.5   10.320      50.719
2015    2       14    15   3    6.8516   396.7   10.321      50.768
2015    2       14    15   8    6.8608   396.8   10.323      50.816
2015    2       14    15  14    6.8700   396.9   10.324      50.864
2015    2       14    15  19    6.8792   397.1   10.326      50.911
2015    2       14    15  24    6.8883   397.2   10.327      50.957
2015    2       14    15  29    6.8973   397.4   10.327      51.003
2015    2       14    15  35    6.9064   397.5   10.328      51.048
2015    2       14    15  40    6.9154   397.6   10.328      51.093
2015    2       14    15  45    6.9244   397.8   10.329      51.137
2015    2       14    15  50    6.9333   397.9   10.329      51.180
2015    2       14    15  56    6.9422   398.0   10.329      51.224
2015    2       14    16   1    6.9512   398.2   10.329      51.266
2015    2       14    16   6    6.9601   398.3   10.329      51.309
2015    2       14    16  11    6.9690   398.4   10.329      51.351
2015    2       14    16  17    6.9779   398.6   10.329      51.393
2015    2       14    16  22    6.9868   398.7   10.329      51.435
2015    2       14    16  27    6.9957   398.8   10.329      51.477
2015    2       14    16  32    7.0046   399.0   10.329      51.518
2015    2       14    16  38    7.0135   399.1   10.329      51.560
2015    2       14    16  43    7.0224   399.2   10.328      51.601
2015    2       14    16  48    7.0313   399.4   10.328      51.643
2015    2       14    16  53    7.0403   399.5   10.328      51.685
2015    2       14    16  59    7.0493   399.6   10.328      51.727
2015    2       14    17   4    7.0583   399.8   10.328      51.769
2015    2       14    17   9    7.0672   399.9   10.329      51.811
2015    2       14    17  14    7.0763   400.0   10.329      51.854
2015    2       14    17  20    7.0854   400.2   10.329      51.897
2015    2       14    17  25    7.0945   400.3   10.330      51.940
2015    2       14    17  30    7.1037   400.5   10.331      51.984
2015    2       14    17  35    7.1129   400.6   10.332      52.029
2015    2       14    17  41    7.1221   400.7   10.333      52.074
2015    2       14    17  46    7.1314   400.9   10.334      52.119
2015    2       14    17  51    7.1407   401.0   10.336      52.166
2015    2       14    17  56    7.1501   401.2   10.338      52.213
2015    2       14    18   2    7.1595   401.3   10.340      52.262
2015    2       14    18   7    7.1692   401.4   10.343      52.311
2015    2       14    18  12    7.1788   401.6   10.346      52.361
2015    2       14    18  17    7.1885   401.7   10.349      52.412
2015    2       14    18  23    7.1981   401.9   10.353      52.463
2015    2       14    18  28    7.2079   402.0   10.357      52.516
2015    2       14    18  33    7.2177   402.2   10.362      52.572
2015    2       14    18  38    7.2278   402.3   10.367      52.629
2015    2       14    18  44    7.2377   402.5   10.372      52.688
2015    2       14    18  49    7.2478   402.6   10.378      52.749
2015    2       14    18  54    7.2579   402.8   10.384      52.812
2015    2       14    19   0    7.2684   403.0   10.390      52.876
2015    2       14    19   5    7.2784   403.1   10.396      52.942
2015    2       14    19  10    7.2888   403.3   10.402      53.009
2015    2       14    19  15    7.2994   403.5   10.409      53.077
2015    2       14    19  21    7.3098   403.6   10.416      53.147
2015    2       14    19  26    7.3202   403.8   10.423      53.217
2015    2       14    19  31    7.3307   404.0   10.430      53.288
2015    2       14    19  36    7.3412   404.1   10.437      53.360
2015    2       14    19  42    7.3516   404.3   10.444      53.434
2015    2       14    19  47    7.3618   404.5   10.451      53.508
2015    2       14    19  52    7.3723   404.7   10.458      53.584
2015    2       14    19  57    7.3828   404.9   10.465      53.660
2015    2       14    20   3    7.3933   405.1   10.472      53.737
2015    2       14    20   8    7.4039   405.2   10.479      53.813
2015    2       14    20  13    7.4144   405.4   10.487      53.890
2015    2       14    20  18    7.4250   405.6   10.495      53.968
2015    2       14    20  24    7.4359   405.8   10.502      54.047
2015    2       14    20  29    7.4464   406.0   10.510      54.128
2015    2       14    20  34    7.4566   406.2   10.518      54.210
2015    2       14    20  39    7.4675   406.4   10.527      54.294
2015    2       14    20  45    7.4777   406.6   10.535      54.380
2015    2       14    20  50    7.4882   406.8   10.543      54.466
2015    2       14    20  55    7.4987   407.0   10.552      54.553
2015    2       14    21   0    7.5095   407.2   10.561      54.640
2015    2       14    21   6    7.5199   407.4   10.570      54.730
2015    2       14    21  11    7.5302   407.6   10.578      54.821
2015    2       14    21  16    7.5404   407.8   10.587      54.914
2015    2       14    21  21    7.5502   408.1   10.595      55.009
2015    2       14    21  27    7.5604   408.3   10.603      55.105
2015    2       14    21  32    7.5699   408.5   10.611      55.202
2015    2       14    21  37    7.5798   408.7   10.618      55.299
2015    2       14    21  42    7.5889   409.0   10.625      55.397
2015    2       14    21  48    7.5985   409.2   10.631      55.495
2015    2       14    21  53    7.6076   409.4   10.636      55.592
2015    2       14    21  58    7.6161   409.7   10.641      55.688
2015    2       14    22   3    7.6251   409.9   10.646      55.783
2015    2       14    22   9    7.6332   410.1   10.649      55.877
2015    2       14    22  14    7.6418   410.4   10.652      55.970
2015    2       14    22  19    7.6498   410.6   10.655      56.063
2015    2       14    22  24    7.6573   410.9   10.656      56.155
2015    2       14    22  30    7.6649   411.1   10.657      56.246
2015    2       14    22  35    7.6723   411.3   10.657      56.336
2015    2       14    22  40    7.6796   411.6   10.656      56.423
2015    2       14    22  45    7.6870   411.8   10.655      56.509
2015    2       14    22  51    7.6936   412.1   10.653      56.593
2015    2       14    22  56    7.7008   412.3   10.651      56.676
2015    2       14    23   1    7.7071   412.5   10.648      56.757
2015    2       14    23   7    7.7137   412.8   10.644      56.837
2015    2       14    23  12    7.7204   413.0   10.640      56.916
2015    2       14    23  17    7.7265   413.3   10.636      56.993
2015    2       14    23  22    7.7328   413.5   10.631      57.070
2015    2       14    23  28    7.7390   413.7   10.625      57.145
2015    2       14    23  33    7.7451   414.0   10.619      57.220
2015    2       14    23  38    7.7515   414.2   10.613      57.293
2015    2       14    23  43    7.7576   414.5   10.607      57.366
2015    2       14    23  49    7.7636   414.7   10.600      57.438
2015    2       14    23  54    7.7693   415.0   10.593      57.509
2015    2       14    23  59    7.7753   415.2   10.585      57.580
2015    2       15     0   4    7.7812   415.5   10.578      57.649
2015    2       15     0  10    7.7872   415.7   10.570      57.718
2015    2       15     0  15    7.7934   415.9   10.562      57.786
2015    2       15     0  20    7.7994   416.2   10.554      57.854
2015    2       15     0  25    7.8052   416.4   10.546      57.921
2015    2       15     0  31    7.8115   416.7   10.538      57.988
2015    2       15     0  36    7.8174   416.9   10.529      58.055
2015    2       15     0  41    7.8238   417.2   10.521      58.121
2015    2       15     0  46    7.8301   417.4   10.513      58.188
2015    2       15     0  52    7.8366   417.7   10.505      58.254
2015    2       15     0  57    7.8430   417.9   10.497      58.321
2015    2       15     1   2    7.8498   418.2   10.490      58.388
2015    2       15     1   7    7.8566   418.5   10.482      58.456
2015    2       15     1  13    7.8636   418.7   10.474      58.525
2015    2       15     1  18    7.8706   419.0   10.467      58.595
2015    2       15     1  23    7.8778   419.3   10.459      58.667
2015    2       15     1  28    7.8849   419.5   10.452      58.741
2015    2       15     1  34    7.8921   419.8   10.444      58.817
2015    2       15     1  39    7.8993   420.1   10.437      58.895
2015    2       15     1  44    7.9066   420.4   10.429      58.974
2015    2       15     1  49    7.9138   420.7   10.421      59.055
2015    2       15     1  55    7.9209   421.0   10.413      59.137
2015    2       15     2   0    7.9280   421.3   10.405      59.221
2015    2       15     2   5    7.9350   421.6   10.397      59.305
2015    2       15     2  10    7.9417   421.9   10.388      59.389
2015    2       15     2  16    7.9485   422.2   10.380      59.475
2015    2       15     2  21    7.9550   422.5   10.371      59.561
2015    2       15     2  26    7.9614   422.8   10.362      59.648
2015    2       15     2  31    7.9676   423.1   10.352      59.734
2015    2       15     2  37    7.9737   423.4   10.343      59.821
2015    2       15     2  42    7.9797   423.7   10.333      59.908
2015    2       15     2  47    7.9855   424.0   10.323      59.995
2015    2       15     2  53    7.9912   424.3   10.313      60.083
2015    2       15     2  58    7.9969   424.6   10.304      60.169
2015    2       15     3   3    8.0023   424.9   10.294      60.257
2015    2       15     3   8    8.0077   425.2   10.284      60.344
2015    2       15     3  14    8.0131   425.5   10.274      60.431
2015    2       15     3  19    8.0183   425.8   10.264      60.519
2015    2       15     3  24    8.0235   426.1   10.254      60.606
2015    2       15     3  29    8.0286   426.4   10.244      60.695
2015    2       15     3  35    8.0336   426.7   10.235      60.783
2015    2       15     3  40    8.0386   426.9   10.225      60.873
2015    2       15     3  45    8.0437   427.2   10.216      60.963
2015    2       15     3  50    8.0485   427.5   10.207      61.054
2015    2       15     3  56    8.0535   427.8   10.198      61.146
2015    2       15     4   1    8.0584   428.1   10.189      61.239
2015    2       15     4   6    8.0633   428.4   10.181      61.333
2015    2       15     4  11    8.0682   428.7   10.173      61.428
2015    2       15     4  17    8.0730   429.0   10.164      61.524
2015    2       15     4  22    8.0778   429.3   10.157      61.622
2015    2       15     4  27    8.0827   429.6   10.149      61.722
2015    2       15     4  32    8.0873   429.8   10.142      61.823
2015    2       15     4  38    8.0922   430.1   10.135      61.926
2015    2       15     4  43    8.0970   430.4   10.128      62.031
2015    2       15     4  48    8.1016   430.7   10.121      62.137
2015    2       15     4  53    8.1063   431.0   10.115      62.245
2015    2       15     4  59    8.1110   431.3   10.109      62.354
2015    2       15     5   4    8.1157   431.6   10.103      62.465
2015    2       15     5   9    8.1206   431.9   10.097      62.577
2015    2       15     5  14    8.1253   432.2   10.092      62.690
2015    2       15     5  20    8.1300   432.5   10.086      62.803
2015    2       15     5  25    8.1347   432.8   10.081      62.917
2015    2       15     5  30    8.1394   433.1   10.077      63.032
2015    2       15     5  35    8.1438   433.4   10.072      63.149
2015    2       15     5  41    8.1485   433.7   10.067      63.268
2015    2       15     5  46    8.1534   434.0   10.063      63.388
2015    2       15     5  51    8.1580   434.3   10.058      63.508
2015    2       15     5  56    8.1623   434.6   10.053      63.630
2015    2       15     6   2    8.1671   434.9   10.048      63.751
2015    2       15     6   7    8.1713   435.2   10.044      63.874
2015    2       15     6  12    8.1761   435.5   10.038      63.996
2015    2       15     6  17    8.1805   435.8   10.033      64.119
2015    2       15     6  23    8.1848   436.2   10.028      64.242
2015    2       15     6  28    8.1887   436.5   10.022      64.364
2015    2       15     6  33    8.1933   436.8   10.016      64.486
2015    2       15     6  38    8.1974   437.1   10.009      64.607
2015    2       15     6  44    8.2011   437.5   10.003      64.728
2015    2       15     6  49    8.2055   437.8    9.996      64.849
2015    2       15     6  54    8.2091   438.1    9.988      64.970
2015    2       15     7   0    8.2134   438.5    9.981      65.090
2015    2       15     7   5    8.2168   438.8    9.973      65.209
2015    2       15     7  10    8.2206   439.2    9.964      65.326
2015    2       15     7  15    8.2244   439.5    9.956      65.443
2015    2       15     7  21    8.2285   439.9    9.947      65.558
2015    2       15     7  26    8.2318   440.2    9.938      65.672
2015    2       15     7  31    8.2355   440.6    9.929      65.786
2015    2       15     7  36    8.2391   440.9    9.919      65.898
2015    2       15     7  42    8.2432   441.3    9.910      66.010
2015    2       15     7  47    8.2463   441.7    9.900      66.121
2015    2       15     7  52    8.2504   442.0    9.890      66.232
2015    2       15     7  57    8.2539   442.4    9.879      66.342
2015    2       15     8   3    8.2570   442.8    9.869      66.451
2015    2       15     8   8    8.2606   443.2    9.858      66.560
2015    2       15     8  13    8.2646   443.5    9.847      66.668
2015    2       15     8  18    8.2681   443.9    9.836      66.776
2015    2       15     8  24    8.2716   444.3    9.825      66.884
2015    2       15     8  29    8.2750   444.7    9.813      66.992
2015    2       15     8  34    8.2779   445.1    9.802      67.099
2015    2       15     8  39    8.2817   445.5    9.790      67.206
2015    2       15     8  45    8.2850   445.9    9.777      67.312
2015    2       15     8  50    8.2881   446.3    9.765      67.419
2015    2       15     8  55    8.2912   446.7    9.752      67.525
2015    2       15     9   0    8.2936   447.1    9.739      67.632
2015    2       15     9   6    8.2964   447.5    9.725      67.738
2015    2       15     9  11    8.2997   447.9    9.711      67.844
2015    2       15     9  16    8.3023   448.4    9.697      67.950
2015    2       15     9  21    8.3042   448.8    9.683      68.056
2015    2       15     9  27    8.3071   449.2    9.668      68.162
2015    2       15     9  32    8.3093   449.6    9.652      68.267
2015    2       15     9  37    8.3113   450.0    9.637      68.373
2015    2       15     9  42    8.3127   450.5    9.621      68.478
2015    2       15     9  48    8.3150   450.9    9.605      68.584
2015    2       15     9  53    8.3166   451.3    9.589      68.689
2015    2       15     9  58    8.3177   451.8    9.572      68.794
2015    2       15    10   3    8.3190   452.2    9.556      68.900
2015    2       15    10   9    8.3203   452.6    9.539      69.005
2015    2       15    10  14    8.3215   453.1    9.522      69.111
2015    2       15    10  19    8.3226   453.5    9.504      69.217
2015    2       15    10  25    8.3241   453.9    9.487      69.322
2015    2       15    10  30    8.3245   454.4    9.469      69.428
2015    2       15    10  35    8.3253   454.8    9.452      69.534
2015    2       15    10  40    8.3261   455.2    9.434      69.639
2015    2       15    10  46    8.3273   455.7    9.416      69.745
2015    2       15    10  51    8.3279   456.1    9.399      69.851
2015    2       15    10  56    8.3285   456.5    9.381      69.958
2015    2       15    11   1    8.3285   457.0    9.363      70.064
2015    2       15    11   7    8.3290   457.4    9.345      70.171
2015    2       15    11  12    8.3295   457.9    9.327      70.278
2015    2       15    11  17    8.3299   458.3    9.309      70.386
2015    2       15    11  22    8.3303   458.8    9.290      70.494
2015    2       15    11  28    8.3311   459.2    9.272      70.602
2015    2       15    11  33    8.3309   459.7    9.254      70.712
2015    2       15    11  38    8.3311   460.1    9.235      70.822
2015    2       15    11  43    8.3312   460.6    9.217      70.932
2015    2       15    11  49    8.3313   461.1    9.198      71.044
2015    2       15    11  54    8.3318   461.6    9.179      71.157
2015    2       15    11  59    8.3316   462.0    9.159      71.271
2015    2       15    12   4    8.3308   462.5    9.140      71.386
2015    2       15    12  10    8.3309   463.0    9.120      71.503
2015    2       15    12  15    8.3303   463.5    9.100      71.622
2015    2       15    12  20    8.3295   464.0    9.079      71.742
2015    2       15    12  25    8.3278   464.4    9.058      71.863
2015    2       15    12  31    8.3272   464.9    9.037      71.986
2015    2       15    12  36    8.3256   465.4    9.015      72.109
2015    2       15    12  41    8.3230   465.9    8.992      72.232
2015    2       15    12  46    8.3208   466.4    8.969      72.354
2015    2       15    12  52    8.3189   466.9    8.945      72.476
2015    2       15    12  57    8.3153   467.4    8.920      72.598
2015    2       15    13   2    8.3120   467.9    8.895      72.718
2015    2       15    13   7    8.3084   468.4    8.869      72.836
2015    2       15    13  13    8.3044   468.8    8.842      72.952
2015    2       15    13  18    8.3010   469.3    8.815      73.063
2015    2       15    13  23    8.2964   469.8    8.788      73.170
2015    2       15    13  28    8.2909   470.2    8.760      73.272
2015    2       15    13  34    8.2867   470.7    8.732      73.370
2015    2       15    13  39    8.2815   471.1    8.704      73.463
2015    2       15    13  44    8.2753   471.6    8.676      73.550
2015    2       15    13  50    8.2707   472.0    8.647      73.634
2015    2       15    13  55    8.2642   472.5    8.619      73.713
2015    2       15    14   0    8.2594   472.9    8.591      73.790
2015    2       15    14   5    8.2527   473.3    8.562      73.865
2015    2       15    14  11    8.2478   473.8    8.534      73.936
2015    2       15    14  16    8.2418   474.2    8.506      74.004
2015    2       15    14  21    8.2360   474.6    8.479      74.069
2015    2       15    14  26    8.2300   475.0    8.452      74.131
2015    2       15    14  32    8.2233   475.4    8.425      74.191
2015    2       15    14  37    8.2183   475.9    8.398      74.250
2015    2       15    14  42    8.2125   476.3    8.372      74.308
2015    2       15    14  47    8.2066   476.7    8.346      74.367
2015    2       15    14  53    8.2008   477.1    8.320      74.425
2015    2       15    14  58    8.1941   477.5    8.295      74.483
2015    2       15    15   3    8.1893   478.0    8.270      74.541
2015    2       15    15   8    8.1826   478.4    8.246      74.598
2015    2       15    15  14    8.1778   478.8    8.222      74.654
2015    2       15    15  19    8.1712   479.2    8.198      74.711
2015    2       15    15  24    8.1657   479.6    8.175      74.768
2015    2       15    15  29    8.1610   480.0    8.152      74.824
2015    2       15    15  35    8.1556   480.4    8.130      74.880
2015    2       15    15  40    8.1492   480.9    8.108      74.936
2015    2       15    15  45    8.1440   481.3    8.086      74.993
2015    2       15    15  50    8.1387   481.7    8.065      75.050
2015    2       15    15  56    8.1345   482.1    8.045      75.108
2015    2       15    16   1    8.1285   482.5    8.024      75.167
2015    2       15    16   6    8.1245   482.9    8.005      75.226
2015    2       15    16  11    8.1186   483.3    7.986      75.286
2015    2       15    16  17    8.1147   483.6    7.967      75.348
2015    2       15    16  22    8.1089   484.0    7.948      75.411
2015    2       15    16  27    8.1043   484.4    7.930      75.474
2015    2       15    16  32    8.0996   484.8    7.913      75.538
2015    2       15    16  38    8.0951   485.2    7.895      75.603
2015    2       15    16  43    8.0915   485.6    7.878      75.669
2015    2       15    16  48    8.0871   486.0    7.862      75.737
2015    2       15    16  53    8.0817   486.4    7.846      75.806
2015    2       15    16  59    8.0773   486.7    7.830      75.877
2015    2       15    17   4    8.0729   487.1    7.814      75.951
2015    2       15    17   9    8.0686   487.5    7.799      76.026
2015    2       15    17  15    8.0651   487.9    7.783      76.106
2015    2       15    17  20    8.0598   488.3    7.768      76.189
2015    2       15    17  25    8.0554   488.7    7.753      76.276
2015    2       15    17  30    8.0510   489.1    7.738      76.365
2015    2       15    17  36    8.0465   489.5    7.723      76.456
2015    2       15    17  41    8.0421   489.9    7.709      76.549
2015    2       15    17  46    8.0375   490.3    7.694      76.642
2015    2       15    17  51    8.0329   490.7    7.679      76.737
2015    2       15    17  57    8.0283   491.1    7.665      76.832
2015    2       15    18   2    8.0236   491.5    7.650      76.927
2015    2       15    18   7    8.0197   491.9    7.635      77.022
2015    2       15    18  12    8.0148   492.3    7.621      77.116
2015    2       15    18  18    8.0099   492.7    7.606      77.210
2015    2       15    18  23    8.0048   493.1    7.591      77.303
2015    2       15    18  28    7.9988   493.6    7.575      77.395
2015    2       15    18  33    7.9936   494.0    7.560      77.486
2015    2       15    18  39    7.9883   494.4    7.544      77.572
2015    2       15    18  44    7.9838   494.8    7.529      77.657
2015    2       15    18  49    7.9782   495.2    7.513      77.738
2015    2       15    18  54    7.9715   495.7    7.496      77.817
2015    2       15    19   0    7.9656   496.1    7.480      77.894
2015    2       15    19   5    7.9605   496.5    7.463      77.969
2015    2       15    19  10    7.9543   497.0    7.446      78.041
2015    2       15    19  15    7.9478   497.4    7.428      78.111
2015    2       15    19  21    7.9411   497.9    7.410      78.177
2015    2       15    19  26    7.9341   498.3    7.391      78.242
2015    2       15    19  31    7.9259   498.8    7.372      78.306
2015    2       15    19  36    7.9183   499.3    7.352      78.369
2015    2       15    19  42    7.9112   499.8    7.331      78.427
2015    2       15    19  47    7.9027   500.3    7.310      78.479
2015    2       15    19  52    7.8938   500.8    7.288      78.527
2015    2       15    19  57    7.8847   501.3    7.265      78.571
2015    2       15    20   3    7.8751   501.8    7.242      78.612
2015    2       15    20   8    7.8643   502.2    7.219      78.649
2015    2       15    20  13    7.8552   502.7    7.195      78.682
2015    2       15    20  18    7.8448   503.2    7.170      78.712
2015    2       15    20  24    7.8341   503.7    7.145      78.737
2015    2       15    20  29    7.8231   504.1    7.120      78.760
2015    2       15    20  34    7.8119   504.6    7.093      78.783
2015    2       15    20  40    7.7994   505.1    7.066      78.804
2015    2       15    20  45    7.7874   505.6    7.039      78.816
2015    2       15    20  50    7.7753   506.0    7.011      78.820
2015    2       15    20  55    7.7639   506.4    6.984      78.818
2015    2       15    21   1    7.7514   506.9    6.956      78.812
2015    2       15    21   6    7.7389   507.3    6.928      78.803
2015    2       15    21  11    7.7254   507.7    6.901      78.790
2015    2       15    21  16    7.7138   508.0    6.874      78.774
2015    2       15    21  22    7.7013   508.4    6.847      78.755
2015    2       15    21  27    7.6887   508.8    6.821      78.733
2015    2       15    21  32    7.6763   509.2    6.795      78.710
2015    2       15    21  37    7.6639   509.5    6.769      78.685
2015    2       15    21  43    7.6508   509.9    6.744      78.660
2015    2       15    21  48    7.6385   510.2    6.720      78.633
2015    2       15    21  53    7.6273   510.6    6.696      78.606
2015    2       15    21  58    7.6153   510.9    6.673      78.577
2015    2       15    22   4    7.6028   511.2    6.650      78.549
2015    2       15    22   9    7.5920   511.5    6.629      78.525
2015    2       15    22  14    7.5799   511.9    6.608      78.504
2015    2       15    22  19    7.5694   512.2    6.587      78.486
2015    2       15    22  25    7.5584   512.6    6.567      78.470
2015    2       15    22  30    7.5475   512.9    6.548      78.457
2015    2       15    22  35    7.5368   513.2    6.530      78.445
2015    2       15    22  40    7.5255   513.5    6.511      78.436
2015    2       15    22  46    7.5157   513.9    6.494      78.429
2015    2       15    22  51    7.5054   514.2    6.476      78.423
2015    2       15    22  56    7.4945   514.5    6.460      78.419
2015    2       15    23   1    7.4844   514.9    6.443      78.417
2015    2       15    23   7    7.4744   515.2    6.428      78.418
2015    2       15    23  12    7.4651   515.5    6.412      78.420
2015    2       15    23  17    7.4547   515.8    6.397      78.425
2015    2       15    23  22    7.4449   516.2    6.382      78.432
2015    2       15    23  28    7.4353   516.5    6.368      78.439
2015    2       15    23  33    7.4256   516.8    6.353      78.448
2015    2       15    23  38    7.4167   517.1    6.339      78.457
2015    2       15    23  44    7.4066   517.4    6.325      78.467
2015    2       15    23  49    7.3976   517.7    6.312      78.478
2015    2       15    23  54    7.3881   518.0    6.298      78.488
2015    2       15    23  59    7.3786   518.3    6.285      78.498
2015    2       16     0   5    7.3690   518.6    6.272      78.507
2015    2       16     0  10    7.3590   519.0    6.259      78.516
2015    2       16     0  15    7.3500   519.3    6.246      78.526
2015    2       16     0  20    7.3399   519.6    6.232      78.537
2015    2       16     0  26    7.3303   519.9    6.219      78.547
2015    2       16     0  31    7.3212   520.2    6.206      78.556
2015    2       16     0  36    7.3110   520.5    6.193      78.567
2015    2       16     0  41    7.3018   520.8    6.180      78.578
2015    2       16     0  47    7.2921   521.0    6.168      78.588
2015    2       16     0  52    7.2819   521.3    6.155      78.599
2015    2       16     0  57    7.2722   521.6    6.142      78.608
2015    2       16     1   2    7.2626   521.9    6.129      78.616
2015    2       16     1   8    7.2528   522.2    6.116      78.623
2015    2       16     1  13    7.2436   522.4    6.104      78.629
2015    2       16     1  18    7.2339   522.7    6.091      78.633
2015    2       16     1  23    7.2243   522.9    6.079      78.635
2015    2       16     1  29    7.2146   523.2    6.066      78.636
2015    2       16     1  34    7.2046   523.4    6.054      78.637
2015    2       16     1  39    7.1955   523.7    6.042      78.638
2015    2       16     1  44    7.1860   524.0    6.030      78.641
2015    2       16     1  50    7.1764   524.2    6.018      78.644
2015    2       16     1  55    7.1668   524.5    6.005      78.649
2015    2       16     2   0    7.1569   524.8    5.993      78.654
2015    2       16     2   5    7.1472   525.1    5.981      78.660
2015    2       16     2  11    7.1377   525.5    5.968      78.664
2015    2       16     2  16    7.1275   525.8    5.956      78.665
2015    2       16     2  21    7.1174   526.1    5.942      78.666
2015    2       16     2  26    7.1074   526.4    5.929      78.665
2015    2       16     2  32    7.0966   526.8    5.915      78.660
2015    2       16     2  37    7.0860   527.1    5.901      78.650
2015    2       16     2  42    7.0748   527.4    5.886      78.633
2015    2       16     2  47    7.0635   527.7    5.871      78.613
2015    2       16     2  53    7.0521   528.0    5.856      78.587
2015    2       16     2  58    7.0406   528.3    5.841      78.556
2015    2       16     3   3    7.0289   528.6    5.826      78.519
2015    2       16     3   9    7.0171   528.9    5.811      78.477
2015    2       16     3  14    7.0052   529.1    5.796      78.432
2015    2       16     3  19    6.9934   529.4    5.781      78.383
2015    2       16     3  24    6.9816   529.6    5.766      78.330
2015    2       16     3  30    6.9697   529.8    5.752      78.276
2015    2       16     3  35    6.9580   530.0    5.738      78.219
2015    2       16     3  40    6.9464   530.3    5.724      78.161
2015    2       16     3  45    6.9348   530.5    5.710      78.104
2015    2       16     3  51    6.9233   530.7    5.697      78.048
2015    2       16     3  56    6.9122   530.9    5.684      77.993
2015    2       16     4   1    6.9011   531.0    5.671      77.939
2015    2       16     4   6    6.8902   531.2    5.659      77.885
2015    2       16     4  12    6.8793   531.4    5.647      77.833
2015    2       16     4  17    6.8687   531.6    5.636      77.782
2015    2       16     4  22    6.8585   531.7    5.624      77.733
2015    2       16     4  27    6.8481   531.9    5.614      77.684
2015    2       16     4  33    6.8380   532.0    5.603      77.637
2015    2       16     4  38    6.8281   532.2    5.592      77.591
2015    2       16     4  43    6.8182   532.3    5.582      77.546
2015    2       16     4  48    6.8086   532.5    5.572      77.503
2015    2       16     4  54    6.7990   532.7    5.562      77.461
2015    2       16     4  59    6.7895   532.8    5.553      77.421
2015    2       16     5   4    6.7805   533.0    5.543      77.383
2015    2       16     5   9    6.7710   533.1    5.534      77.348
2015    2       16     5  15    6.7622   533.3    5.525      77.315
2015    2       16     5  20    6.7532   533.5    5.517      77.286
2015    2       16     5  25    6.7440   533.7    5.508      77.259
2015    2       16     5  30    6.7355   533.9    5.500      77.234
2015    2       16     5  36    6.7267   534.0    5.491      77.211
2015    2       16     5  41    6.7180   534.3    5.483      77.190
2015    2       16     5  46    6.7093   534.5    5.475      77.170
2015    2       16     5  51    6.7007   534.7    5.467      77.151
2015    2       16     5  57    6.6918   534.9    5.459      77.132
2015    2       16     6   2    6.6831   535.1    5.451      77.112
2015    2       16     6   7    6.6748   535.3    5.443      77.092
2015    2       16     6  13    6.6662   535.5    5.435      77.072
2015    2       16     6  18    6.6571   535.7    5.427      77.053
2015    2       16     6  23    6.6485   535.9    5.419      77.032
2015    2       16     6  28    6.6400   536.1    5.411      77.009
2015    2       16     6  34    6.6309   536.3    5.402      76.985
2015    2       16     6  39    6.6224   536.5    5.394      76.960
2015    2       16     6  44    6.6132   536.7    5.386      76.934
2015    2       16     6  49    6.6046   536.9    5.377      76.907
2015    2       16     6  55    6.5957   537.1    5.369      76.880
2015    2       16     7   0    6.5867   537.3    5.360      76.854
2015    2       16     7   5    6.5777   537.5    5.352      76.829
2015    2       16     7  10    6.5684   537.7    5.343      76.803
2015    2       16     7  16    6.5594   537.9    5.334      76.776
2015    2       16     7  21    6.5507   538.1    5.325      76.748
2015    2       16     7  26    6.5417   538.4    5.316      76.719
2015    2       16     7  31    6.5326   538.6    5.307      76.689
2015    2       16     7  37    6.5237   538.8    5.298      76.657
2015    2       16     7  42    6.5147   538.9    5.289      76.624
2015    2       16     7  47    6.5055   539.1    5.280      76.589
2015    2       16     7  52    6.4969   539.3    5.271      76.553
2015    2       16     7  58    6.4878   539.5    5.262      76.516
2015    2       16     8   3    6.4790   539.6    5.254      76.477
2015    2       16     8   8    6.4703   539.8    5.245      76.436
2015    2       16     8  13    6.4617   539.9    5.237      76.394
2015    2       16     8  19    6.4532   540.1    5.229      76.352
2015    2       16     8  24    6.4451   540.2    5.221      76.312
2015    2       16     8  29    6.4367   540.3    5.213      76.274
2015    2       16     8  34    6.4281   540.5    5.205      76.239
2015    2       16     8  40    6.4202   540.6    5.197      76.206
2015    2       16     8  45    6.4117   540.8    5.190      76.173
2015    2       16     8  50    6.4036   540.9    5.182      76.142
2015    2       16     8  55    6.3955   541.1    5.175      76.112
2015    2       16     9   1    6.3874   541.2    5.168      76.083
2015    2       16     9   6    6.3793   541.4    5.161      76.053
2015    2       16     9  11    6.3715   541.6    5.154      76.023
2015    2       16     9  17    6.3631   541.7    5.147      75.991
2015    2       16     9  22    6.3552   541.9    5.139      75.959
2015    2       16     9  27    6.3467   542.1    5.132      75.927
2015    2       16     9  32    6.3386   542.2    5.125      75.894
2015    2       16     9  38    6.3303   542.4    5.118      75.861
2015    2       16     9  43    6.3216   542.6    5.110      75.826
2015    2       16     9  48    6.3134   542.7    5.103      75.790
2015    2       16     9  53    6.3047   542.9    5.096      75.752
2015    2       16     9  59    6.2961   543.0    5.088      75.712
2015    2       16    10   4    6.2879   543.2    5.081      75.671
2015    2       16    10   9    6.2790   543.3    5.074      75.629
2015    2       16    10  14    6.2705   543.5    5.066      75.586
2015    2       16    10  20    6.2619   543.6    5.059      75.542
2015    2       16    10  25    6.2535   543.7    5.052      75.498
2015    2       16    10  30    6.2450   543.9    5.044      75.454
2015    2       16    10  35    6.2364   544.0    5.037      75.409
2015    2       16    10  41    6.2276   544.1    5.030      75.365
2015    2       16    10  46    6.2194   544.2    5.023      75.321
2015    2       16    10  51    6.2107   544.4    5.016      75.276
2015    2       16    10  56    6.2022   544.5    5.009      75.233
2015    2       16    11   2    6.1938   544.6    5.002      75.191
2015    2       16    11   7    6.1858   544.7    4.995      75.150
2015    2       16    11  12    6.1775   544.9    4.988      75.109
2015    2       16    11  17    6.1693   545.0    4.982      75.069
2015    2       16    11  23    6.1608   545.1    4.975      75.030
2015    2       16    11  28    6.1529   545.2    4.968      74.991
2015    2       16    11  33    6.1445   545.4    4.962      74.952
2015    2       16    11  38    6.1364   545.5    4.956      74.913
2015    2       16    11  44    6.1286   545.6    4.949      74.874
2015    2       16    11  49    6.1202   545.7    4.943      74.836
2015    2       16    11  54    6.1124   545.9    4.936      74.797
2015    2       16    11  59    6.1044   546.0    4.930      74.757
2015    2       16    12   5    6.0964   546.1    4.924      74.718
2015    2       16    12  10    6.0885   546.2    4.917      74.678
2015    2       16    12  15    6.0805   546.4    4.911      74.638
2015    2       16    12  21    6.0723   546.5    4.905      74.597
2015    2       16    12  26    6.0647   546.6    4.899      74.555
2015    2       16    12  31    6.0568   546.7    4.892      74.512
2015    2       16    12  36    6.0490   546.8    4.886      74.469
2015    2       16    12  42    6.0408   546.9    4.880      74.425
2015    2       16    12  47    6.0334   547.0    4.874      74.381
2015    2       16    12  52    6.0253   547.1    4.867      74.336
2015    2       16    12  57    6.0176   547.2    4.861      74.292
2015    2       16    13   3    6.0099   547.3    4.855      74.247
2015    2       16    13   8    6.0023   547.4    4.849      74.201
2015    2       16    13  13    5.9950   547.4    4.843      74.156
2015    2       16    13  18    5.9874   547.5    4.838      74.111
2015    2       16    13  24    5.9796   547.6    4.832      74.067
2015    2       16    13  29    5.9721   547.7    4.826      74.022
2015    2       16    13  34    5.9647   547.8    4.821      73.978
2015    2       16    13  39    5.9573   547.8    4.815      73.935
2015    2       16    13  45    5.9499   547.9    4.810      73.892
2015    2       16    13  50    5.9426   548.0    4.804      73.849
2015    2       16    13  55    5.9353   548.1    4.799      73.807
2015    2       16    14   0    5.9280   548.1    4.794      73.766
2015    2       16    14   6    5.9211   548.2    4.789      73.724
2015    2       16    14  11    5.9138   548.3    4.784      73.684
2015    2       16    14  16    5.9064   548.3    4.779      73.643
2015    2       16    14  21    5.8992   548.4    4.774      73.603
2015    2       16    14  27    5.8923   548.5    4.770      73.563
2015    2       16    14  32    5.8849   548.5    4.765      73.523
2015    2       16    14  37    5.8779   548.6    4.761      73.483
2015    2       16    14  42    5.8708   548.6    4.756      73.443
2015    2       16    14  48    5.8638   548.7    4.751      73.403
2015    2       16    14  53    5.8571   548.8    4.747      73.363
2015    2       16    14  58    5.8498   548.8    4.743      73.323
2015    2       16    15   3    5.8429   548.9    4.738      73.283
2015    2       16    15   9    5.8360   548.9    4.734      73.243
2015    2       16    15  14    5.8291   549.0    4.729      73.203
2015    2       16    15  19    5.8226   549.1    4.725      73.162
2015    2       16    15  25    5.8158   549.1    4.721      73.122
2015    2       16    15  30    5.8090   549.2    4.716      73.081
2015    2       16    15  35    5.8022   549.2    4.712      73.040
2015    2       16    15  40    5.7955   549.3    4.708      72.999
2015    2       16    15  46    5.7888   549.3    4.704      72.958
2015    2       16    15  51    5.7821   549.4    4.700      72.917
2015    2       16    15  56    5.7752   549.4    4.695      72.876
2015    2       16    16   1    5.7689   549.5    4.691      72.834
2015    2       16    16   7    5.7622   549.5    4.687      72.793
2015    2       16    16  12    5.7557   549.6    4.683      72.752
2015    2       16    16  17    5.7491   549.6    4.679      72.710
2015    2       16    16  22    5.7425   549.7    4.675      72.669
2015    2       16    16  28    5.7360   549.7    4.671      72.628
2015    2       16    16  33    5.7295   549.8    4.667      72.587
2015    2       16    16  38    5.7230   549.8    4.663      72.546
2015    2       16    16  43    5.7163   549.9    4.659      72.505
2015    2       16    16  49    5.7098   549.9    4.655      72.465
2015    2       16    16  54    5.7036   549.9    4.652      72.424
2015    2       16    16  59    5.6972   550.0    4.648      72.383
2015    2       16    17   4    5.6905   550.0    4.644      72.343
2015    2       16    17  10    5.6844   550.1    4.640      72.303
2015    2       16    17  15    5.6780   550.1    4.637      72.263
2015    2       16    17  20    5.6716   550.1    4.633      72.223
2015    2       16    17  25    5.6652   550.2    4.630      72.183
2015    2       16    17  31    5.6586   550.2    4.626      72.143
2015    2       16    17  36    5.6525   550.2    4.623      72.104
2015    2       16    17  41    5.6459   550.3    4.619      72.064
2015    2       16    17  46    5.6396   550.3    4.616      72.025
2015    2       16    17  52    5.6335   550.3    4.612      71.986
2015    2       16    17  57    5.6272   550.4    4.609      71.947
2015    2       16    18   2    5.6207   550.4    4.606      71.908
2015    2       16    18   7    5.6146   550.4    4.602      71.869
2015    2       16    18  13    5.6081   550.4    4.599      71.830
2015    2       16    18  18    5.6018   550.5    4.596      71.792
2015    2       16    18  23    5.5956   550.5    4.593      71.754
2015    2       16    18  29    5.5896   550.5    4.590      71.715
2015    2       16    18  34    5.5831   550.5    4.586      71.677
2015    2       16    18  39    5.5771   550.6    4.583      71.639
2015    2       16    18  44    5.5709   550.6    4.580      71.601
2015    2       16    18  50    5.5645   550.6    4.577      71.563
2015    2       16    18  55    5.5586   550.6    4.574      71.525
2015    2       16    19   0    5.5524   550.6    4.571      71.487
2015    2       16    19   5    5.5463   550.6    4.568      71.449
2015    2       16    19  11    5.5402   550.7    4.565      71.411
2015    2       16    19  16    5.5338   550.7    4.562      71.373
2015    2       16    19  21    5.5277   550.7    4.559      71.334
2015    2       16    19  26    5.5217   550.7    4.556      71.295
2015    2       16    19  32    5.5159   550.7    4.553      71.256
2015    2       16    19  37    5.5099   550.7    4.550      71.217
2015    2       16    19  42    5.5036   550.7    4.547      71.177
2015    2       16    19  47    5.4976   550.7    4.544      71.137
2015    2       16    19  53    5.4919   550.7    4.541      71.097
2015    2       16    19  58    5.4857   550.8    4.538      71.056
2015    2       16    20   3    5.4798   550.8    4.535      71.015
2015    2       16    20   8    5.4742   550.8    4.531      70.973
2015    2       16    20  14    5.4681   550.8    4.528      70.931
2015    2       16    20  19    5.4622   550.8    4.525      70.889
2015    2       16    20  24    5.4564   550.8    4.522      70.847
2015    2       16    20  29    5.4509   550.8    4.519      70.804
2015    2       16    20  35    5.4449   550.8    4.516      70.760
2015    2       16    20  40    5.4392   550.8    4.513      70.717
2015    2       16    20  45    5.4336   550.7    4.510      70.673
2015    2       16    20  50    5.4279   550.7    4.507      70.628
2015    2       16    20  56    5.4223   550.7    4.504      70.584
2015    2       16    21   1    5.4168   550.7    4.501      70.539
2015    2       16    21   6    5.4112   550.7    4.498      70.494
2015    2       16    21  11    5.4057   550.7    4.495      70.449
2015    2       16    21  17    5.4005   550.7    4.492      70.403
2015    2       16    21  22    5.3948   550.7    4.489      70.357
2015    2       16    21  27    5.3897   550.7    4.486      70.312
2015    2       16    21  33    5.3841   550.7    4.483      70.266
2015    2       16    21  38    5.3787   550.6    4.480      70.220
2015    2       16    21  43    5.3734   550.6    4.477      70.174
2015    2       16    21  48    5.3682   550.6    4.474      70.127
2015    2       16    21  54    5.3632   550.6    4.472      70.081
2015    2       16    21  59    5.3578   550.6    4.469      70.035
2015    2       16    22   4    5.3526   550.5    4.466      69.989
2015    2       16    22   9    5.3477   550.5    4.464      69.943
2015    2       16    22  15    5.3426   550.5    4.461      69.896
2015    2       16    22  20    5.3373   550.5    4.458      69.850
2015    2       16    22  25    5.3322   550.5    4.456      69.804
2015    2       16    22  30    5.3272   550.4    4.453      69.758
2015    2       16    22  36    5.3224   550.4    4.451      69.713
2015    2       16    22  41    5.3172   550.4    4.448      69.667
2015    2       16    22  46    5.3122   550.4    4.446      69.621
2015    2       16    22  51    5.3075   550.4    4.443      69.576
2015    2       16    22  57    5.3025   550.3    4.441      69.530
2015    2       16    23   2    5.2976   550.3    4.439      69.485
2015    2       16    23   7    5.2924   550.3    4.436      69.440
2015    2       16    23  12    5.2877   550.2    4.434      69.395
2015    2       16    23  18    5.2828   550.2    4.432      69.350
2015    2       16    23  23    5.2776   550.2    4.430      69.306
2015    2       16    23  28    5.2730   550.2    4.428      69.262
2015    2       16    23  33    5.2681   550.1    4.425      69.218
2015    2       16    23  39    5.2629   550.1    4.423      69.174
2015    2       16    23  44    5.2581   550.1    4.421      69.130
2015    2       16    23  49    5.2534   550.0    4.419      69.087
2015    2       16    23  54    5.2485   550.0    4.417      69.043
2015    2       17     0   0    5.2434   550.0    4.415      69.001
2015    2       17     0   5    5.2387   549.9    4.413      68.958
2015    2       17     0  10    5.2336   549.9    4.411      68.915
2015    2       17     0  15    5.2287   549.9    4.409      68.873
2015    2       17     0  21    5.2239   549.8    4.407      68.831
2015    2       17     0  26    5.2190   549.8    4.405      68.789
2015    2       17     0  31    5.2141   549.8    4.403      68.747
2015    2       17     0  37    5.2092   549.7    4.401      68.706
2015    2       17     0  42    5.2046   549.7    4.399      68.664
2015    2       17     0  47    5.1997   549.6    4.397      68.623
2015    2       17     0  52    5.1946   549.6    4.395      68.583
2015    2       17     0  58    5.1897   549.6    4.393      68.542
2015    2       17     1   3    5.1851   549.5    4.391      68.502
2015    2       17     1   8    5.1800   549.5    4.389      68.462
2015    2       17     1  13    5.1754   549.4    4.388      68.422
2015    2       17     1  19    5.1706   549.4    4.386      68.382
2015    2       17     1  24    5.1655   549.3    4.384      68.343
2015    2       17     1  29    5.1609   549.3    4.382      68.304
2015    2       17     1  34    5.1559   549.2    4.380      68.265
2015    2       17     1  40    5.1513   549.2    4.378      68.226
2015    2       17     1  45    5.1466   549.1    4.376      68.187
2015    2       17     1  50    5.1418   549.1    4.375      68.149
2015    2       17     1  55    5.1371   549.0    4.373      68.110
2015    2       17     2   1    5.1323   549.0    4.371      68.072
2015    2       17     2   6    5.1274   548.9    4.369      68.034
2015    2       17     2  11    5.1227   548.9    4.367      67.995
2015    2       17     2  16    5.1182   548.8    4.366      67.957
2015    2       17     2  22    5.1134   548.8    4.364      67.918
2015    2       17     2  27    5.1089   548.7    4.362      67.880
2015    2       17     2  32    5.1043   548.7    4.360      67.841
2015    2       17     2  37    5.0996   548.6    4.358      67.802
2015    2       17     2  43    5.0950   548.6    4.357      67.763
2015    2       17     2  48    5.0904   548.5    4.355      67.723
2015    2       17     2  53    5.0859   548.5    4.353      67.683
2015    2       17     2  58    5.0813   548.4    4.351      67.643
2015    2       17     3   4    5.0768   548.3    4.349      67.603
2015    2       17     3   9    5.0721   548.3    4.347      67.562
2015    2       17     3  14    5.0675   548.2    4.346      67.520
2015    2       17     3  19    5.0630   548.2    4.344      67.479
2015    2       17     3  25    5.0586   548.1    4.342      67.437
2015    2       17     3  30    5.0541   548.0    4.340      67.394
2015    2       17     3  35    5.0498   548.0    4.338      67.352
2015    2       17     3  41    5.0452   547.9    4.336      67.308
2015    2       17     3  46    5.0410   547.9    4.334      67.265
2015    2       17     3  51    5.0366   547.8    4.333      67.221
2015    2       17     3  56    5.0322   547.7    4.331      67.176
2015    2       17     4   2    5.0277   547.7    4.329      67.132
2015    2       17     4   7    5.0233   547.6    4.327      67.087
2015    2       17     4  12    5.0190   547.5    4.325      67.041
2015    2       17     4  17    5.0147   547.5    4.324      66.996
2015    2       17     4  23    5.0104   547.4    4.322      66.950
2015    2       17     4  28    5.0063   547.3    4.320      66.903
2015    2       17     4  33    5.0019   547.2    4.318      66.857
2015    2       17     4  38    4.9978   547.2    4.317      66.810
2015    2       17     4  44    4.9936   547.1    4.315      66.763
2015    2       17     4  49    4.9894   547.0    4.313      66.717
2015    2       17     4  54    4.9852   547.0    4.312      66.670
2015    2       17     4  59    4.9810   546.9    4.310      66.623
2015    2       17     5   5    4.9769   546.8    4.309      66.576
2015    2       17     5  10    4.9729   546.7    4.307      66.529
2015    2       17     5  15    4.9688   546.6    4.306      66.482
2015    2       17     5  20    4.9647   546.6    4.305      66.435
2015    2       17     5  26    4.9608   546.5    4.303      66.389
2015    2       17     5  31    4.9568   546.4    4.302      66.342
2015    2       17     5  36    4.9527   546.3    4.301      66.296
2015    2       17     5  41    4.9488   546.3    4.300      66.251
2015    2       17     5  47    4.9448   546.2    4.299      66.205
2015    2       17     5  52    4.9409   546.1    4.298      66.160
2015    2       17     5  57    4.9368   546.0    4.297      66.116
2015    2       17     6   2    4.9330   545.9    4.296      66.071
2015    2       17     6   8    4.9290   545.8    4.295      66.027
2015    2       17     6  13    4.9250   545.8    4.294      65.984
2015    2       17     6  18    4.9212   545.7    4.294      65.940
2015    2       17     6  23    4.9171   545.6    4.293      65.897
2015    2       17     6  29    4.9132   545.5    4.292      65.855
2015    2       17     6  34    4.9092   545.4    4.292      65.813
2015    2       17     6  39    4.9053   545.4    4.291      65.771
2015    2       17     6  45    4.9012   545.3    4.291      65.729
2015    2       17     6  50    4.8972   545.2    4.290      65.687
2015    2       17     6  55    4.8932   545.1    4.289      65.646
2015    2       17     7   0    4.8892   545.0    4.289      65.605
2015    2       17     7   6    4.8853   544.9    4.288      65.564
2015    2       17     7  11    4.8812   544.8    4.288      65.523
2015    2       17     7  16    4.8771   544.7    4.287      65.482
2015    2       17     7  21    4.8731   544.7    4.286      65.442
2015    2       17     7  27    4.8690   544.6    4.286      65.401
2015    2       17     7  32    4.8650   544.5    4.285      65.361
2015    2       17     7  37    4.8611   544.4    4.284      65.320
2015    2       17     7  42    4.8571   544.3    4.284      65.280
2015    2       17     7  48    4.8530   544.2    4.283      65.239
2015    2       17     7  53    4.8490   544.1    4.282      65.199
2015    2       17     7  58    4.8450   544.0    4.281      65.159
2015    2       17     8   3    4.8410   543.9    4.281      65.119
2015    2       17     8   9    4.8372   543.8    4.280      65.079
2015    2       17     8  14    4.8331   543.7    4.279      65.040
2015    2       17     8  19    4.8291   543.6    4.278      65.000
2015    2       17     8  24    4.8252   543.5    4.277      64.960
2015    2       17     8  30    4.8213   543.4    4.276      64.921
2015    2       17     8  35    4.8174   543.3    4.275      64.881
2015    2       17     8  40    4.8136   543.2    4.274      64.842
2015    2       17     8  45    4.8097   543.1    4.273      64.802
2015    2       17     8  51    4.8058   543.0    4.272      64.762
2015    2       17     8  56    4.8020   542.9    4.271      64.722
2015    2       17     9   1    4.7980   542.8    4.270      64.682
2015    2       17     9   6    4.7942   542.7    4.269      64.642
2015    2       17     9  12    4.7904   542.6    4.268      64.601
2015    2       17     9  17    4.7866   542.5    4.267      64.560
2015    2       17     9  22    4.7829   542.4    4.266      64.519
2015    2       17     9  27    4.7790   542.3    4.265      64.477
2015    2       17     9  33    4.7752   542.2    4.263      64.435
2015    2       17     9  38    4.7715   542.1    4.262      64.393
2015    2       17     9  43    4.7677   542.0    4.261      64.350
2015    2       17     9  49    4.7641   541.8    4.260      64.306
2015    2       17     9  54    4.7603   541.7    4.258      64.263
2015    2       17     9  59    4.7567   541.6    4.257      64.218
2015    2       17    10   4    4.7528   541.5    4.256      64.173
2015    2       17    10  10    4.7491   541.4    4.254      64.128
2015    2       17    10  15    4.7455   541.3    4.253      64.082
2015    2       17    10  20    4.7419   541.2    4.251      64.036
2015    2       17    10  25    4.7382   541.1    4.250      63.989
2015    2       17    10  31    4.7343   541.0    4.249      63.941
2015    2       17    10  36    4.7307   540.8    4.247      63.893
2015    2       17    10  41    4.7271   540.7    4.246      63.845
2015    2       17    10  46    4.7233   540.6    4.244      63.796
2015    2       17    10  52    4.7197   540.5    4.243      63.746
2015    2       17    10  57    4.7162   540.4    4.241      63.696
2015    2       17    11   2    4.7124   540.3    4.240      63.646
2015    2       17    11   7    4.7088   540.1    4.238      63.595
2015    2       17    11  13    4.7051   540.0    4.236      63.543
2015    2       17    11  18    4.7016   539.9    4.235      63.492
2015    2       17    11  23    4.6978   539.8    4.233      63.439
2015    2       17    11  28    4.6943   539.7    4.232      63.386
2015    2       17    11  34    4.6905   539.5    4.230      63.333
2015    2       17    11  39    4.6870   539.4    4.229      63.280
2015    2       17    11  44    4.6834   539.3    4.227      63.226
2015    2       17    11  49    4.6796   539.2    4.225      63.172
2015    2       17    11  55    4.6761   539.0    4.224      63.118
2015    2       17    12   0    4.6725   538.9    4.222      63.063
2015    2       17    12   5    4.6689   538.8    4.221      63.009
2015    2       17    12  10    4.6653   538.6    4.220      62.954
2015    2       17    12  16    4.6616   538.5    4.218      62.899
2015    2       17    12  21    4.6582   538.4    4.217      62.844
2015    2       17    12  26    4.6545   538.2    4.215      62.790
2015    2       17    12  31    4.6510   538.1    4.214      62.735
2015    2       17    12  37    4.6475   538.0    4.213      62.681
2015    2       17    12  42    4.6440   537.8    4.212      62.627
2015    2       17    12  47    4.6406   537.7    4.211      62.574
2015    2       17    12  53    4.6372   537.6    4.210      62.520
2015    2       17    12  58    4.6337   537.4    4.209      62.468
2015    2       17    13   3    4.6303   537.3    4.208      62.416
2015    2       17    13   8    4.6269   537.2    4.207      62.364
2015    2       17    13  14    4.6235   537.0    4.206      62.313
2015    2       17    13  19    4.6202   536.9    4.205      62.262
2015    2       17    13  24    4.6168   536.8    4.205      62.212
2015    2       17    13  29    4.6135   536.6    4.204      62.163
2015    2       17    13  35    4.6102   536.5    4.204      62.114
2015    2       17    13  40    4.6069   536.4    4.204      62.066
2015    2       17    13  45    4.6036   536.2    4.203      62.019
2015    2       17    13  50    4.6003   536.1    4.203      61.972
2015    2       17    13  56    4.5970   536.0    4.203      61.925
2015    2       17    14   1    4.5938   535.8    4.203      61.880
2015    2       17    14   6    4.5904   535.7    4.203      61.835
2015    2       17    14  11    4.5872   535.6    4.203      61.790
2015    2       17    14  17    4.5839   535.4    4.203      61.746
2015    2       17    14  22    4.5806   535.3    4.203      61.703
2015    2       17    14  27    4.5772   535.2    4.203      61.660
2015    2       17    14  32    4.5740   535.0    4.203      61.618
2015    2       17    14  38    4.5706   534.9    4.203      61.577
2015    2       17    14  43    4.5673   534.7    4.203      61.535
2015    2       17    14  48    4.5640   534.6    4.203      61.495
2015    2       17    14  53    4.5607   534.5    4.203      61.454
2015    2       17    14  59    4.5574   534.3    4.203      61.414
2015    2       17    15   4    4.5541   534.2    4.203      61.375
2015    2       17    15   9    4.5507   534.0    4.203      61.335
2015    2       17    15  14    4.5474   533.9    4.204      61.296
2015    2       17    15  20    4.5441   533.8    4.204      61.256
2015    2       17    15  25    4.5408   533.6    4.204      61.217
2015    2       17    15  30    4.5375   533.5    4.204      61.177
2015    2       17    15  36    4.5342   533.3    4.204      61.138
2015    2       17    15  41    4.5309   533.2    4.204      61.098
2015    2       17    15  46    4.5276   533.0    4.204      61.058
2015    2       17    15  51    4.5243   532.9    4.204      61.018
2015    2       17    15  57    4.5210   532.7    4.204      60.978
2015    2       17    16   2    4.5177   532.6    4.204      60.937
2015    2       17    16   7    4.5144   532.4    4.204      60.896
2015    2       17    16  12    4.5111   532.3    4.205      60.855
2015    2       17    16  18    4.5079   532.1    4.205      60.814
2015    2       17    16  23    4.5046   532.0    4.205      60.772
2015    2       17    16  28    4.5014   531.8    4.205      60.730
2015    2       17    16  33    4.4981   531.6    4.205      60.688
2015    2       17    16  39    4.4950   531.5    4.205      60.646
2015    2       17    16  44    4.4917   531.3    4.205      60.604
2015    2       17    16  49    4.4886   531.2    4.205      60.562
2015    2       17    16  54    4.4854   531.0    4.205      60.519
2015    2       17    17   0    4.4823   530.9    4.206      60.477
2015    2       17    17   5    4.4792   530.7    4.206      60.434
2015    2       17    17  10    4.4761   530.5    4.206      60.391
2015    2       17    17  15    4.4730   530.4    4.206      60.348
2015    2       17    17  21    4.4699   530.2    4.206      60.305
2015    2       17    17  26    4.4669   530.1    4.206      60.262
2015    2       17    17  31    4.4640   529.9    4.207      60.218
2015    2       17    17  36    4.4610   529.7    4.207      60.175
2015    2       17    17  42    4.4581   529.6    4.207      60.133
2015    2       17    17  47    4.4551   529.4    4.207      60.090
2015    2       17    17  52    4.4523   529.2    4.208      60.047
2015    2       17    17  57    4.4494   529.1    4.208      60.005
2015    2       17    18   3    4.4466   528.9    4.208      59.962
2015    2       17    18   8    4.4438   528.8    4.209      59.920
2015    2       17    18  13    4.4410   528.6    4.209      59.878
2015    2       17    18  18    4.4382   528.4    4.209      59.836
2015    2       17    18  24    4.4354   528.3    4.209      59.793
2015    2       17    18  29    4.4326   528.1    4.209      59.750
2015    2       17    18  34    4.4297   528.0    4.209      59.708
2015    2       17    18  40    4.4269   527.8    4.209      59.665
2015    2       17    18  45    4.4240   527.6    4.209      59.621
2015    2       17    18  50    4.4212   527.5    4.209      59.578
2015    2       17    18  55    4.4184   527.3    4.209      59.534
2015    2       17    19   1    4.4155   527.2    4.209      59.489
2015    2       17    19   6    4.4125   527.0    4.209      59.444
2015    2       17    19  11    4.4097   526.9    4.209      59.399
2015    2       17    19  16    4.4068   526.7    4.208      59.353
2015    2       17    19  22    4.4039   526.5    4.208      59.306
2015    2       17    19  27    4.4008   526.4    4.207      59.260
2015    2       17    19  32    4.3979   526.2    4.207      59.212
2015    2       17    19  37    4.3951   526.0    4.206      59.164
2015    2       17    19  43    4.3920   525.9    4.206      59.116
2015    2       17    19  48    4.3890   525.7    4.205      59.067
2015    2       17    19  53    4.3862   525.6    4.205      59.017
2015    2       17    19  58    4.3831   525.4    4.204      58.967
2015    2       17    20   4    4.3801   525.2    4.203      58.917
2015    2       17    20   9    4.3772   525.1    4.203      58.866
2015    2       17    20  14    4.3741   524.9    4.202      58.814
2015    2       17    20  19    4.3713   524.7    4.201      58.762
2015    2       17    20  25    4.3682   524.6    4.200      58.710
2015    2       17    20  30    4.3653   524.4    4.200      58.657
2015    2       17    20  35    4.3624   524.2    4.199      58.605
2015    2       17    20  40    4.3594   524.0    4.198      58.551
2015    2       17    20  46    4.3563   523.9    4.197      58.498
2015    2       17    20  51    4.3535   523.7    4.197      58.444
2015    2       17    20  56    4.3505   523.5    4.196      58.390
2015    2       17    21   1    4.3476   523.4    4.195      58.336
2015    2       17    21   7    4.3446   523.2    4.194      58.282
2015    2       17    21  12    4.3417   523.0    4.194      58.227
2015    2       17    21  17    4.3388   522.8    4.193      58.173
2015    2       17    21  22    4.3357   522.6    4.192      58.118
2015    2       17    21  28    4.3330   522.5    4.192      58.064
2015    2       17    21  33    4.3301   522.3    4.191      58.009
2015    2       17    21  38    4.3272   522.1    4.191      57.954
2015    2       17    21  44    4.3243   521.9    4.190      57.900
2015    2       17    21  49    4.3213   521.8    4.189      57.845
2015    2       17    21  54    4.3186   521.6    4.189      57.791
2015    2       17    21  59    4.3156   521.4    4.188      57.737
2015    2       17    22   5    4.3128   521.2    4.188      57.682
2015    2       17    22  10    4.3099   521.0    4.188      57.628
2015    2       17    22  15    4.3072   520.8    4.187      57.575
2015    2       17    22  20    4.3043   520.6    4.187      57.521
2015    2       17    22  26    4.3015   520.5    4.187      57.467
2015    2       17    22  31    4.2988   520.3    4.186      57.413
2015    2       17    22  36    4.2959   520.1    4.186      57.360
2015    2       17    22  41    4.2932   519.9    4.186      57.307
2015    2       17    22  47    4.2903   519.7    4.186      57.253
2015    2       17    22  52    4.2875   519.5    4.185      57.200
2015    2       17    22  57    4.2848   519.3    4.185      57.147
2015    2       17    23   2    4.2821   519.1    4.185      57.094
2015    2       17    23   8    4.2792   518.9    4.185      57.041
2015    2       17    23  13    4.2765   518.7    4.185      56.988
2015    2       17    23  18    4.2738   518.5    4.185      56.936
2015    2       17    23  23    4.2710   518.3    4.185      56.883
2015    2       17    23  29    4.2682   518.1    4.185      56.830
2015    2       17    23  34    4.2656   517.9    4.185      56.778
2015    2       17    23  39    4.2628   517.7    4.185      56.726
2015    2       17    23  44    4.2601   517.5    4.185      56.673
2015    2       17    23  50    4.2574   517.3    4.185      56.621
2015    2       17    23  55    4.2547   517.1    4.185      56.570
2015    2       18     0   0    4.2521   516.9    4.185      56.518
2015    2       18     0   5    4.2495   516.7    4.186      56.467
2015    2       18     0  11    4.2469   516.5    4.186      56.416
2015    2       18     0  16    4.2443   516.3    4.186      56.366
2015    2       18     0  21    4.2418   516.0    4.187      56.316
2015    2       18     0  26    4.2393   515.8    4.187      56.266
2015    2       18     0  32    4.2369   515.6    4.188      56.217
2015    2       18     0  37    4.2344   515.4    4.188      56.169
2015    2       18     0  42    4.2321   515.2    4.189      56.121
2015    2       18     0  48    4.2297   515.0    4.190      56.075
2015    2       18     0  53    4.2275   514.8    4.191      56.029
2015    2       18     0  58    4.2253   514.5    4.192      55.984
2015    2       18     1   3    4.2232   514.3    4.193      55.941
2015    2       18     1   9    4.2210   514.1    4.194      55.898
2015    2       18     1  14    4.2190   513.9    4.195      55.856
2015    2       18     1  19    4.2169   513.7    4.197      55.815
2015    2       18     1  24    4.2150   513.5    4.198      55.775
2015    2       18     1  30    4.2130   513.3    4.200      55.735
2015    2       18     1  35    4.2111   513.1    4.201      55.696
2015    2       18     1  40    4.2092   512.9    4.203      55.658
2015    2       18     1  45    4.2073   512.7    4.205      55.621
2015    2       18     1  51    4.2054   512.5    4.207      55.584
2015    2       18     1  56    4.2036   512.3    4.209      55.547
2015    2       18     2   1    4.2018   512.1    4.210      55.511
2015    2       18     2   6    4.2000   511.9    4.212      55.475
2015    2       18     2  12    4.1982   511.7    4.214      55.439
2015    2       18     2  17    4.1964   511.5    4.216      55.403
2015    2       18     2  22    4.1946   511.3    4.218      55.368
2015    2       18     2  27    4.1927   511.1    4.220      55.332
2015    2       18     2  33    4.1909   510.9    4.223      55.297
2015    2       18     2  38    4.1891   510.7    4.225      55.261
2015    2       18     2  43    4.1873   510.5    4.227      55.225
2015    2       18     2  48    4.1854   510.3    4.229      55.190
2015    2       18     2  54    4.1836   510.1    4.231      55.154
2015    2       18     2  59    4.1817   509.9    4.233      55.118
2015    2       18     3   4    4.1798   509.7    4.235      55.081
2015    2       18     3   9    4.1779   509.5    4.237      55.044
2015    2       18     3  15    4.1760   509.3    4.239      55.007
2015    2       18     3  20    4.1740   509.0    4.241      54.970
2015    2       18     3  25    4.1721   508.8    4.242      54.933
2015    2       18     3  30    4.1701   508.6    4.244      54.895
2015    2       18     3  36    4.1683   508.4    4.246      54.857
2015    2       18     3  41    4.1662   508.2    4.248      54.818
2015    2       18     3  46    4.1643   508.0    4.249      54.780
2015    2       18     3  52    4.1623   507.8    4.251      54.741
2015    2       18     3  57    4.1604   507.6    4.253      54.701
2015    2       18     4   2    4.1585   507.3    4.254      54.662
2015    2       18     4   7    4.1565   507.1    4.256      54.622
2015    2       18     4  13    4.1545   506.9    4.257      54.581
2015    2       18     4  18    4.1526   506.7    4.259      54.541
2015    2       18     4  23    4.1507   506.5    4.260      54.499
2015    2       18     4  28    4.1488   506.3    4.261      54.458
2015    2       18     4  34    4.1468   506.0    4.263      54.416
2015    2       18     4  39    4.1448   505.8    4.264      54.374
2015    2       18     4  44    4.1430   505.6    4.265      54.331
2015    2       18     4  49    4.1410   505.4    4.266      54.288
2015    2       18     4  55    4.1391   505.2    4.267      54.244
2015    2       18     5   0    4.1372   504.9    4.268      54.200
2015    2       18     5   5    4.1354   504.7    4.269      54.156
2015    2       18     5  10    4.1335   504.5    4.270      54.111
2015    2       18     5  16    4.1316   504.3    4.271      54.065
2015    2       18     5  21    4.1296   504.1    4.272      54.020
2015    2       18     5  26    4.1277   503.8    4.273      53.974
2015    2       18     5  31    4.1260   503.6    4.274      53.927
2015    2       18     5  37    4.1241   503.4    4.275      53.880
2015    2       18     5  42    4.1222   503.2    4.276      53.833
2015    2       18     5  47    4.1204   502.9    4.276      53.785
2015    2       18     5  52    4.1186   502.7    4.277      53.737
2015    2       18     5  58    4.1167   502.5    4.278      53.689
2015    2       18     6   3    4.1148   502.2    4.278      53.640
2015    2       18     6   8    4.1130   502.0    4.279      53.591
2015    2       18     6  13    4.1113   501.8    4.280      53.541
2015    2       18     6  19    4.1094   501.6    4.280      53.491
2015    2       18     6  24    4.1076   501.3    4.281      53.441
2015    2       18     6  29    4.1060   501.1    4.282      53.391
2015    2       18     6  34    4.1043   500.8    4.282      53.340
2015    2       18     6  40    4.1024   500.6    4.283      53.289
2015    2       18     6  45    4.1008   500.4    4.284      53.238
2015    2       18     6  50    4.0991   500.1    4.284      53.187
2015    2       18     6  56    4.0975   499.9    4.285      53.135
2015    2       18     7   1    4.0958   499.7    4.286      53.084
2015    2       18     7   6    4.0942   499.4    4.286      53.032
2015    2       18     7  11    4.0926   499.2    4.287      52.981
2015    2       18     7  17    4.0910   498.9    4.288      52.930
2015    2       18     7  22    4.0896   498.7    4.289      52.879
2015    2       18     7  27    4.0879   498.5    4.290      52.828
2015    2       18     7  32    4.0865   498.2    4.290      52.777
2015    2       18     7  38    4.0852   498.0    4.292      52.726
2015    2       18     7  43    4.0838   497.7    4.293      52.675
2015    2       18     7  48    4.0824   497.5    4.294      52.625
2015    2       18     7  53    4.0810   497.2    4.295      52.575
2015    2       18     7  59    4.0797   497.0    4.296      52.526
2015    2       18     8   4    4.0784   496.8    4.298      52.477
2015    2       18     8   9    4.0773   496.5    4.299      52.428
2015    2       18     8  14    4.0761   496.3    4.301      52.380
2015    2       18     8  20    4.0750   496.0    4.303      52.332
2015    2       18     8  25    4.0740   495.8    4.305      52.285
2015    2       18     8  30    4.0730   495.5    4.306      52.239
2015    2       18     8  35    4.0719   495.3    4.309      52.192
2015    2       18     8  41    4.0711   495.1    4.311      52.147
2015    2       18     8  46    4.0701   494.8    4.313      52.102
2015    2       18     8  51    4.0692   494.6    4.315      52.058
2015    2       18     8  56    4.0684   494.3    4.318      52.014
2015    2       18     9   2    4.0677   494.1    4.320      51.971
2015    2       18     9   7    4.0669   493.8    4.323      51.929
2015    2       18     9  12    4.0664   493.6    4.326      51.888
2015    2       18     9  17    4.0656   493.3    4.329      51.847
2015    2       18     9  23    4.0652   493.1    4.332      51.807
2015    2       18     9  28    4.0645   492.9    4.335      51.768
2015    2       18     9  33    4.0641   492.6    4.339      51.730
2015    2       18     9  38    4.0637   492.4    4.342      51.692
2015    2       18     9  44    4.0632   492.1    4.346      51.656
2015    2       18     9  49    4.0629   491.9    4.349      51.620
2015    2       18     9  54    4.0625   491.7    4.353      51.584
2015    2       18    10   0    4.0623   491.4    4.357      51.550
2015    2       18    10   5    4.0620   491.2    4.361      51.517
2015    2       18    10  10    4.0617   491.0    4.365      51.484
2015    2       18    10  15    4.0614   490.7    4.369      51.452
2015    2       18    10  21    4.0613   490.5    4.373      51.421
2015    2       18    10  26    4.0612   490.3    4.377      51.390
2015    2       18    10  31    4.0610   490.0    4.382      51.360
2015    2       18    10  36    4.0609   489.8    4.386      51.331
2015    2       18    10  42    4.0607   489.6    4.391      51.302
2015    2       18    10  47    4.0606   489.3    4.395      51.274
2015    2       18    10  52    4.0606   489.1    4.399      51.246
2015    2       18    10  57    4.0606   488.9    4.404      51.219
2015    2       18    11   3    4.0605   488.6    4.409      51.193
2015    2       18    11   8    4.0604   488.4    4.413      51.166
2015    2       18    11  13    4.0603   488.2    4.418      51.141
2015    2       18    11  18    4.0603   488.0    4.422      51.115
2015    2       18    11  24    4.0603   487.7    4.427      51.090
2015    2       18    11  29    4.0605   487.5    4.431      51.065
2015    2       18    11  34    4.0605   487.3    4.436      51.040
2015    2       18    11  39    4.0605   487.1    4.441      51.015
2015    2       18    11  45    4.0604   486.8    4.445      50.990
2015    2       18    11  50    4.0604   486.6    4.450      50.966
2015    2       18    11  55    4.0606   486.4    4.454      50.941
2015    2       18    12   0    4.0606   486.1    4.459      50.917
2015    2       18    12   6    4.0608   485.9    4.463      50.892
2015    2       18    12  11    4.0609   485.7    4.468      50.868
2015    2       18    12  16    4.0610   485.5    4.472      50.843
2015    2       18    12  21    4.0611   485.3    4.476      50.819
2015    2       18    12  27    4.0612   485.0    4.481      50.794
2015    2       18    12  32    4.0614   484.8    4.485      50.769
2015    2       18    12  37    4.0613   484.6    4.490      50.744
2015    2       18    12  42    4.0615   484.4    4.494      50.719
2015    2       18    12  48    4.0618   484.1    4.498      50.693
2015    2       18    12  53    4.0620   483.9    4.502      50.668
2015    2       18    12  58    4.0620   483.7    4.507      50.642
2015    2       18    13   4    4.0625   483.5    4.511      50.616
2015    2       18    13   9    4.0627   483.3    4.515      50.590
2015    2       18    13  14    4.0629   483.1    4.519      50.564
2015    2       18    13  19    4.0630   482.8    4.523      50.538
2015    2       18    13  25    4.0635   482.6    4.527      50.512
2015    2       18    13  30    4.0638   482.4    4.531      50.485
2015    2       18    13  35    4.0641   482.2    4.536      50.458
2015    2       18    13  40    4.0644   482.0    4.540      50.431
2015    2       18    13  46    4.0646   481.8    4.544      50.404
2015    2       18    13  51    4.0651   481.5    4.547      50.377
2015    2       18    13  56    4.0653   481.3    4.551      50.349
2015    2       18    14   1    4.0659   481.1    4.555      50.322
2015    2       18    14   7    4.0663   480.9    4.559      50.294
2015    2       18    14  12    4.0667   480.7    4.563      50.266
2015    2       18    14  17    4.0671   480.5    4.567      50.238
2015    2       18    14  22    4.0673   480.3    4.571      50.209
2015    2       18    14  28    4.0679   480.1    4.574      50.181
2015    2       18    14  33    4.0682   479.9    4.578      50.152
2015    2       18    14  38    4.0689   479.6    4.582      50.123
2015    2       18    14  43    4.0691   479.4    4.585      50.093
2015    2       18    14  49    4.0698   479.2    4.589      50.064
2015    2       18    14  54    4.0701   479.0    4.593      50.034
2015    2       18    14  59    4.0709   478.8    4.596      50.005
2015    2       18    15   4    4.0714   478.6    4.600      49.975
2015    2       18    15  10    4.0718   478.4    4.603      49.944
2015    2       18    15  15    4.0724   478.2    4.607      49.914
2015    2       18    15  20    4.0730   478.0    4.611      49.884
2015    2       18    15  25    4.0738   477.7    4.614      49.854
2015    2       18    15  31    4.0745   477.5    4.618      49.824
2015    2       18    15  36    4.0749   477.3    4.621      49.793
2015    2       18    15  41    4.0758   477.1    4.625      49.763
2015    2       18    15  47    4.0766   476.9    4.628      49.733
2015    2       18    15  52    4.0773   476.7    4.632      49.703
2015    2       18    15  57    4.0781   476.5    4.636      49.673
2015    2       18    16   2    4.0787   476.3    4.639      49.643
2015    2       18    16   8    4.0797   476.1    4.643      49.613
2015    2       18    16  13    4.0803   475.9    4.647      49.584
2015    2       18    16  18    4.0814   475.7    4.651      49.555
2015    2       18    16  23    4.0823   475.5    4.654      49.526
2015    2       18    16  29    4.0832   475.3    4.658      49.497
2015    2       18    16  34    4.0842   475.1    4.662      49.469
2015    2       18    16  39    4.0850   474.9    4.666      49.441
2015    2       18    16  44    4.0860   474.7    4.670      49.414
2015    2       18    16  50    4.0873   474.5    4.674      49.387
2015    2       18    16  55    4.0884   474.3    4.678      49.361
2015    2       18    17   0    4.0895   474.1    4.682      49.334
2015    2       18    17   5    4.0904   473.9    4.687      49.309
2015    2       18    17  11    4.0917   473.7    4.691      49.284
2015    2       18    17  16    4.0929   473.5    4.695      49.259
2015    2       18    17  21    4.0939   473.3    4.700      49.235
2015    2       18    17  26    4.0953   473.1    4.704      49.211
2015    2       18    17  32    4.0966   472.9    4.709      49.188
2015    2       18    17  37    4.0977   472.7    4.713      49.165
2015    2       18    17  42    4.0990   472.6    4.718      49.142
2015    2       18    17  47    4.1005   472.4    4.722      49.120
2015    2       18    17  53    4.1018   472.2    4.727      49.099
2015    2       18    17  58    4.1030   472.0    4.732      49.078
2015    2       18    18   3    4.1045   471.8    4.736      49.058
2015    2       18    18   8    4.1059   471.6    4.741      49.038
2015    2       18    18  14    4.1071   471.5    4.746      49.018
2015    2       18    18  19    4.1085   471.3    4.751      48.999
2015    2       18    18  24    4.1100   471.1    4.756      48.980
2015    2       18    18  29    4.1116   470.9    4.761      48.962
2015    2       18    18  35    4.1129   470.7    4.766      48.944
2015    2       18    18  40    4.1143   470.6    4.771      48.926
2015    2       18    18  45    4.1160   470.4    4.776      48.910
2015    2       18    18  51    4.1175   470.2    4.781      48.893
2015    2       18    18  56    4.1190   470.0    4.786      48.877
2015    2       18    19   1    4.1204   469.9    4.791      48.861
2015    2       18    19   6    4.1221   469.7    4.796      48.846
2015    2       18    19  12    4.1235   469.5    4.802      48.831
2015    2       18    19  17    4.1253   469.3    4.807      48.816
2015    2       18    19  22    4.1267   469.2    4.812      48.801
2015    2       18    19  27    4.1285   469.0    4.817      48.788
2015    2       18    19  33    4.1300   468.8    4.823      48.774
2015    2       18    19  38    4.1318   468.7    4.828      48.761
2015    2       18    19  43    4.1333   468.5    4.833      48.748
2015    2       18    19  48    4.1351   468.3    4.839      48.736
2015    2       18    19  54    4.1368   468.2    4.844      48.723
2015    2       18    19  59    4.1384   468.0    4.850      48.711
2015    2       18    20   4    4.1401   467.8    4.855      48.700
2015    2       18    20   9    4.1418   467.7    4.860      48.688
2015    2       18    20  15    4.1437   467.5    4.866      48.678
2015    2       18    20  20    4.1455   467.3    4.871      48.667
2015    2       18    20  25    4.1473   467.2    4.877      48.656
2015    2       18    20  30    4.1491   467.0    4.882      48.646
2015    2       18    20  36    4.1507   466.9    4.888      48.636
2015    2       18    20  41    4.1527   466.7    4.893      48.626
2015    2       18    20  46    4.1545   466.5    4.899      48.617
2015    2       18    20  51    4.1562   466.4    4.904      48.607
2015    2       18    20  57    4.1582   466.2    4.910      48.598
2015    2       18    21   2    4.1599   466.1    4.915      48.589
2015    2       18    21   7    4.1619   465.9    4.920      48.580
2015    2       18    21  12    4.1638   465.8    4.926      48.572
2015    2       18    21  18    4.1656   465.6    4.931      48.563
2015    2       18    21  23    4.1673   465.5    4.937      48.554
2015    2       18    21  28    4.1693   465.3    4.942      48.546
2015    2       18    21  33    4.1711   465.2    4.947      48.538
2015    2       18    21  39    4.1729   465.0    4.953      48.529
2015    2       18    21  44    4.1749   464.9    4.958      48.521
2015    2       18    21  49    4.1768   464.7    4.963      48.513
2015    2       18    21  55    4.1786   464.6    4.968      48.505
2015    2       18    22   0    4.1803   464.4    4.974      48.496
2015    2       18    22   5    4.1822   464.3    4.979      48.488
2015    2       18    22  10    4.1840   464.1    4.984      48.480
2015    2       18    22  16    4.1860   464.0    4.989      48.472
2015    2       18    22  21    4.1878   463.9    4.994      48.463
2015    2       18    22  26    4.1895   463.7    4.999      48.455
2015    2       18    22  31    4.1914   463.6    5.004      48.447
2015    2       18    22  37    4.1932   463.4    5.009      48.438
2015    2       18    22  42    4.1951   463.3    5.014      48.430
2015    2       18    22  47    4.1969   463.2    5.019      48.422
2015    2       18    22  52    4.1986   463.0    5.024      48.413
2015    2       18    22  58    4.2004   462.9    5.028      48.404
2015    2       18    23   3    4.2023   462.7    5.033      48.396
2015    2       18    23   8    4.2041   462.6    5.038      48.387
2015    2       18    23  13    4.2059   462.5    5.042      48.378
2015    2       18    23  19    4.2077   462.3    5.047      48.369
2015    2       18    23  24    4.2095   462.2    5.052      48.360
2015    2       18    23  29    4.2112   462.1    5.056      48.351
2015    2       18    23  34    4.2130   461.9    5.061      48.342
2015    2       18    23  40    4.2148   461.8    5.065      48.333
2015    2       18    23  45    4.2165   461.7    5.070      48.323
2015    2       18    23  50    4.2183   461.5    5.074      48.313
2015    2       18    23  55    4.2200   461.4    5.079      48.304
2015    2       19     0   1    4.2219   461.3    5.083      48.294
