year    month   day   hour  minute  B_enl V_enl   n_enl       T_enl
[year] [month] [day] [hour][minute] [nT]  [km/s]  [cm-3]      [kK]
2015    3        1     0   3    4.4603   618.7    2.777      52.447
2015    3        1     0   8    4.4581   618.5    2.777      52.404
2015    3        1     0  13    4.4559   618.3    2.777      52.360
2015    3        1     0  17    4.4537   618.1    2.778      52.316
2015    3        1     0  22    4.4516   617.9    2.778      52.273
2015    3        1     0  27    4.4494   617.7    2.778      52.229
2015    3        1     0  32    4.4473   617.5    2.779      52.186
2015    3        1     0  36    4.4451   617.3    2.779      52.143
2015    3        1     0  41    4.4430   617.1    2.779      52.100
2015    3        1     0  46    4.4409   616.9    2.780      52.057
2015    3        1     0  50    4.4388   616.7    2.780      52.014
2015    3        1     0  55    4.4368   616.5    2.780      51.972
2015    3        1     1   0    4.4347   616.3    2.781      51.929
2015    3        1     1   4    4.4327   616.1    2.781      51.887
2015    3        1     1   9    4.4306   615.9    2.781      51.844
2015    3        1     1  13    4.4286   615.7    2.782      51.801
2015    3        1     1  18    4.4265   615.5    2.782      51.758
2015    3        1     1  22    4.4245   615.3    2.782      51.715
2015    3        1     1  27    4.4224   615.1    2.783      51.672
2015    3        1     1  32    4.4204   614.9    2.783      51.628
2015    3        1     1  36    4.4184   614.7    2.783      51.585
2015    3        1     1  41    4.4163   614.5    2.784      51.541
2015    3        1     1  45    4.4143   614.3    2.784      51.497
2015    3        1     1  50    4.4122   614.1    2.784      51.453
2015    3        1     1  54    4.4102   613.9    2.784      51.409
2015    3        1     1  59    4.4081   613.7    2.784      51.365
2015    3        1     2   4    4.4061   613.5    2.785      51.320
2015    3        1     2   8    4.4040   613.3    2.785      51.275
2015    3        1     2  13    4.4019   613.1    2.785      51.230
2015    3        1     2  17    4.3999   612.9    2.785      51.185
2015    3        1     2  22    4.3978   612.7    2.785      51.141
2015    3        1     2  26    4.3957   612.5    2.785      51.095
2015    3        1     2  31    4.3936   612.3    2.785      51.050
2015    3        1     2  35    4.3916   612.1    2.785      51.004
2015    3        1     2  40    4.3895   612.0    2.785      50.958
2015    3        1     2  45    4.3874   611.8    2.785      50.912
2015    3        1     2  49    4.3853   611.6    2.785      50.866
2015    3        1     2  54    4.3832   611.4    2.785      50.820
2015    3        1     2  58    4.3811   611.2    2.785      50.774
2015    3        1     3   3    4.3790   611.0    2.785      50.727
2015    3        1     3   7    4.3769   610.8    2.785      50.680
2015    3        1     3  12    4.3748   610.6    2.784      50.633
2015    3        1     3  17    4.3726   610.4    2.784      50.586
2015    3        1     3  21    4.3705   610.2    2.784      50.538
2015    3        1     3  26    4.3684   610.0    2.784      50.489
2015    3        1     3  30    4.3662   609.8    2.784      50.441
2015    3        1     3  35    4.3640   609.6    2.783      50.392
2015    3        1     3  40    4.3619   609.4    2.783      50.343
2015    3        1     3  44    4.3598   609.2    2.783      50.294
2015    3        1     3  49    4.3576   609.0    2.782      50.244
2015    3        1     3  53    4.3554   608.8    2.782      50.194
2015    3        1     3  58    4.3533   608.6    2.782      50.144
2015    3        1     4   3    4.3511   608.4    2.781      50.094
2015    3        1     4   7    4.3490   608.2    2.781      50.043
2015    3        1     4  12    4.3468   608.0    2.780      49.992
2015    3        1     4  16    4.3446   607.7    2.780      49.941
2015    3        1     4  21    4.3425   607.5    2.779      49.889
2015    3        1     4  26    4.3404   607.3    2.779      49.837
2015    3        1     4  30    4.3382   607.1    2.778      49.785
2015    3        1     4  35    4.3360   606.9    2.778      49.733
2015    3        1     4  39    4.3339   606.7    2.777      49.681
2015    3        1     4  44    4.3318   606.5    2.777      49.628
2015    3        1     4  49    4.3296   606.3    2.776      49.574
2015    3        1     4  53    4.3274   606.1    2.776      49.520
2015    3        1     4  58    4.3252   605.8    2.775      49.465
2015    3        1     5   3    4.3230   605.6    2.775      49.409
2015    3        1     5   8    4.3209   605.4    2.774      49.354
2015    3        1     5  12    4.3186   605.2    2.773      49.299
2015    3        1     5  17    4.3165   604.9    2.773      49.244
2015    3        1     5  22    4.3143   604.7    2.772      49.188
2015    3        1     5  27    4.3121   604.5    2.772      49.133
2015    3        1     5  32    4.3101   604.3    2.771      49.077
2015    3        1     5  36    4.3079   604.0    2.771      49.021
2015    3        1     5  41    4.3058   603.8    2.770      48.966
2015    3        1     5  46    4.3037   603.6    2.770      48.910
2015    3        1     5  51    4.3016   603.3    2.769      48.855
2015    3        1     5  56    4.2995   603.1    2.768      48.800
2015    3        1     6   1    4.2974   602.8    2.768      48.745
2015    3        1     6   5    4.2953   602.6    2.768      48.690
2015    3        1     6  10    4.2932   602.4    2.767      48.635
2015    3        1     6  15    4.2911   602.1    2.767      48.580
2015    3        1     6  20    4.2891   601.9    2.766      48.524
2015    3        1     6  25    4.2871   601.6    2.766      48.469
2015    3        1     6  30    4.2850   601.4    2.765      48.414
2015    3        1     6  35    4.2829   601.1    2.765      48.358
2015    3        1     6  40    4.2809   600.9    2.765      48.301
2015    3        1     6  45    4.2788   600.6    2.764      48.244
2015    3        1     6  50    4.2768   600.4    2.764      48.186
2015    3        1     6  55    4.2747   600.1    2.764      48.129
2015    3        1     7   0    4.2727   599.8    2.764      48.071
2015    3        1     7   5    4.2705   599.6    2.763      48.014
2015    3        1     7  10    4.2685   599.3    2.763      47.956
2015    3        1     7  15    4.2665   599.0    2.763      47.898
2015    3        1     7  20    4.2645   598.7    2.763      47.840
2015    3        1     7  25    4.2624   598.5    2.763      47.783
2015    3        1     7  30    4.2605   598.2    2.763      47.725
2015    3        1     7  35    4.2584   597.9    2.762      47.667
2015    3        1     7  41    4.2565   597.6    2.762      47.609
2015    3        1     7  46    4.2544   597.4    2.762      47.550
2015    3        1     7  51    4.2524   597.1    2.762      47.492
2015    3        1     7  56    4.2504   596.8    2.762      47.434
2015    3        1     8   1    4.2485   596.5    2.762      47.375
2015    3        1     8   6    4.2465   596.2    2.763      47.317
2015    3        1     8  11    4.2445   595.9    2.763      47.258
2015    3        1     8  17    4.2425   595.6    2.763      47.200
2015    3        1     8  22    4.2405   595.4    2.763      47.142
2015    3        1     8  27    4.2385   595.1    2.763      47.083
2015    3        1     8  32    4.2366   594.8    2.764      47.025
2015    3        1     8  37    4.2346   594.5    2.764      46.967
2015    3        1     8  43    4.2326   594.2    2.764      46.909
2015    3        1     8  48    4.2307   593.9    2.765      46.852
2015    3        1     8  53    4.2287   593.6    2.765      46.794
2015    3        1     8  58    4.2268   593.3    2.765      46.736
2015    3        1     9   3    4.2248   593.0    2.766      46.679
2015    3        1     9   9    4.2229   592.7    2.766      46.621
2015    3        1     9  14    4.2209   592.4    2.767      46.564
2015    3        1     9  19    4.2190   592.1    2.768      46.508
2015    3        1     9  24    4.2170   591.8    2.768      46.451
2015    3        1     9  29    4.2151   591.5    2.769      46.395
2015    3        1     9  35    4.2131   591.2    2.770      46.339
2015    3        1     9  40    4.2112   590.9    2.771      46.283
2015    3        1     9  45    4.2092   590.6    2.771      46.228
2015    3        1     9  50    4.2073   590.3    2.772      46.173
2015    3        1     9  56    4.2053   590.0    2.773      46.118
2015    3        1    10   1    4.2034   589.7    2.774      46.064
2015    3        1    10   6    4.2015   589.4    2.775      46.009
2015    3        1    10  12    4.1995   589.1    2.776      45.955
2015    3        1    10  17    4.1975   588.8    2.777      45.901
2015    3        1    10  22    4.1955   588.5    2.778      45.848
2015    3        1    10  27    4.1936   588.2    2.780      45.795
2015    3        1    10  33    4.1916   587.9    2.781      45.742
2015    3        1    10  38    4.1896   587.6    2.782      45.688
2015    3        1    10  43    4.1876   587.3    2.783      45.635
2015    3        1    10  49    4.1856   587.0    2.784      45.582
2015    3        1    10  54    4.1835   586.7    2.785      45.529
2015    3        1    10  59    4.1815   586.4    2.787      45.475
2015    3        1    11   5    4.1795   586.1    2.788      45.421
2015    3        1    11  10    4.1774   585.8    2.789      45.367
2015    3        1    11  15    4.1754   585.4    2.790      45.312
2015    3        1    11  21    4.1733   585.1    2.791      45.257
2015    3        1    11  26    4.1713   584.8    2.792      45.202
2015    3        1    11  31    4.1692   584.5    2.793      45.147
2015    3        1    11  37    4.1672   584.2    2.795      45.091
2015    3        1    11  42    4.1651   583.9    2.796      45.035
2015    3        1    11  48    4.1630   583.6    2.797      44.978
2015    3        1    11  53    4.1610   583.3    2.798      44.922
2015    3        1    11  58    4.1589   582.9    2.799      44.865
2015    3        1    12   4    4.1569   582.6    2.800      44.808
2015    3        1    12   9    4.1549   582.3    2.801      44.751
2015    3        1    12  14    4.1529   582.0    2.802      44.694
2015    3        1    12  20    4.1508   581.7    2.803      44.637
2015    3        1    12  25    4.1489   581.3    2.804      44.580
2015    3        1    12  31    4.1469   581.0    2.805      44.522
2015    3        1    12  36    4.1449   580.7    2.806      44.465
2015    3        1    12  41    4.1430   580.4    2.807      44.409
2015    3        1    12  47    4.1411   580.1    2.808      44.352
2015    3        1    12  52    4.1392   579.7    2.809      44.296
2015    3        1    12  57    4.1373   579.4    2.810      44.240
2015    3        1    13   3    4.1355   579.1    2.811      44.184
2015    3        1    13   8    4.1337   578.7    2.812      44.128
2015    3        1    13  14    4.1319   578.4    2.813      44.073
2015    3        1    13  19    4.1302   578.1    2.815      44.018
2015    3        1    13  24    4.1284   577.8    2.816      43.964
2015    3        1    13  30    4.1267   577.4    2.817      43.909
2015    3        1    13  35    4.1250   577.1    2.818      43.855
2015    3        1    13  40    4.1234   576.8    2.819      43.802
2015    3        1    13  46    4.1217   576.4    2.820      43.749
2015    3        1    13  51    4.1201   576.1    2.822      43.696
2015    3        1    13  57    4.1184   575.8    2.823      43.643
2015    3        1    14   2    4.1169   575.5    2.824      43.590
2015    3        1    14   7    4.1152   575.1    2.825      43.538
2015    3        1    14  13    4.1137   574.8    2.827      43.486
2015    3        1    14  18    4.1121   574.5    2.828      43.433
2015    3        1    14  23    4.1104   574.1    2.829      43.380
2015    3        1    14  29    4.1088   573.8    2.830      43.327
2015    3        1    14  34    4.1072   573.5    2.831      43.274
2015    3        1    14  40    4.1056   573.1    2.832      43.220
2015    3        1    14  45    4.1040   572.8    2.834      43.166
2015    3        1    14  50    4.1024   572.5    2.835      43.111
2015    3        1    14  56    4.1007   572.1    2.836      43.056
2015    3        1    15   1    4.0991   571.8    2.837      43.001
2015    3        1    15   6    4.0975   571.4    2.838      42.945
2015    3        1    15  12    4.0959   571.1    2.839      42.889
2015    3        1    15  17    4.0943   570.7    2.840      42.832
2015    3        1    15  23    4.0926   570.4    2.841      42.775
2015    3        1    15  28    4.0911   570.0    2.842      42.718
2015    3        1    15  33    4.0894   569.7    2.842      42.660
2015    3        1    15  39    4.0879   569.3    2.843      42.602
2015    3        1    15  44    4.0863   568.9    2.844      42.544
2015    3        1    15  49    4.0847   568.6    2.845      42.486
2015    3        1    15  55    4.0831   568.2    2.846      42.428
2015    3        1    16   0    4.0816   567.9    2.847      42.369
2015    3        1    16   6    4.0801   567.5    2.848      42.310
2015    3        1    16  11    4.0786   567.1    2.849      42.252
2015    3        1    16  16    4.0771   566.8    2.850      42.193
2015    3        1    16  22    4.0755   566.4    2.851      42.134
2015    3        1    16  27    4.0740   566.0    2.852      42.076
2015    3        1    16  32    4.0726   565.7    2.853      42.017
2015    3        1    16  38    4.0710   565.3    2.854      41.959
2015    3        1    16  43    4.0696   564.9    2.855      41.900
2015    3        1    16  49    4.0682   564.6    2.856      41.842
2015    3        1    16  54    4.0667   564.2    2.858      41.784
2015    3        1    16  59    4.0653   563.8    2.859      41.726
2015    3        1    17   5    4.0639   563.5    2.860      41.669
2015    3        1    17  10    4.0625   563.1    2.862      41.611
2015    3        1    17  16    4.0610   562.7    2.863      41.554
2015    3        1    17  21    4.0597   562.3    2.864      41.497
2015    3        1    17  26    4.0583   562.0    2.866      41.440
2015    3        1    17  32    4.0569   561.6    2.868      41.383
2015    3        1    17  37    4.0555   561.2    2.869      41.326
2015    3        1    17  42    4.0542   560.9    2.871      41.270
2015    3        1    17  48    4.0529   560.5    2.873      41.214
2015    3        1    17  53    4.0515   560.1    2.875      41.157
2015    3        1    17  59    4.0502   559.7    2.876      41.102
2015    3        1    18   4    4.0488   559.3    2.878      41.046
2015    3        1    18   9    4.0476   559.0    2.880      40.990
2015    3        1    18  15    4.0462   558.6    2.882      40.935
2015    3        1    18  20    4.0450   558.2    2.885      40.880
2015    3        1    18  25    4.0437   557.8    2.887      40.824
2015    3        1    18  31    4.0424   557.4    2.889      40.770
2015    3        1    18  36    4.0412   557.1    2.891      40.715
2015    3        1    18  42    4.0400   556.7    2.894      40.660
2015    3        1    18  47    4.0388   556.3    2.896      40.606
2015    3        1    18  52    4.0376   555.9    2.899      40.552
2015    3        1    18  58    4.0365   555.5    2.901      40.498
2015    3        1    19   3    4.0353   555.1    2.904      40.445
2015    3        1    19   8    4.0341   554.7    2.906      40.391
2015    3        1    19  14    4.0330   554.3    2.909      40.339
2015    3        1    19  19    4.0320   554.0    2.912      40.286
2015    3        1    19  25    4.0309   553.6    2.915      40.234
2015    3        1    19  30    4.0298   553.2    2.918      40.182
2015    3        1    19  35    4.0289   552.8    2.921      40.130
2015    3        1    19  41    4.0279   552.4    2.924      40.079
2015    3        1    19  46    4.0270   552.0    2.927      40.029
2015    3        1    19  51    4.0260   551.6    2.930      39.979
2015    3        1    19  57    4.0251   551.2    2.933      39.929
2015    3        1    20   2    4.0243   550.8    2.936      39.880
2015    3        1    20   8    4.0234   550.4    2.939      39.831
2015    3        1    20  13    4.0226   550.1    2.943      39.783
2015    3        1    20  18    4.0217   549.7    2.946      39.735
2015    3        1    20  24    4.0210   549.3    2.949      39.688
2015    3        1    20  29    4.0203   548.9    2.953      39.641
2015    3        1    20  34    4.0195   548.5    2.956      39.595
2015    3        1    20  40    4.0189   548.1    2.960      39.549
2015    3        1    20  45    4.0182   547.7    2.963      39.504
2015    3        1    20  51    4.0176   547.3    2.967      39.459
2015    3        1    20  56    4.0170   547.0    2.971      39.414
2015    3        1    21   1    4.0164   546.6    2.974      39.370
2015    3        1    21   7    4.0159   546.2    2.978      39.327
2015    3        1    21  12    4.0153   545.8    2.982      39.284
2015    3        1    21  18    4.0147   545.4    2.985      39.241
2015    3        1    21  23    4.0142   545.1    2.989      39.198
2015    3        1    21  28    4.0136   544.7    2.993      39.155
2015    3        1    21  34    4.0130   544.3    2.997      39.112
2015    3        1    21  39    4.0126   543.9    3.000      39.069
2015    3        1    21  44    4.0120   543.6    3.004      39.026
2015    3        1    21  50    4.0114   543.2    3.008      38.983
2015    3        1    21  55    4.0109   542.8    3.012      38.940
2015    3        1    22   1    4.0104   542.4    3.016      38.896
2015    3        1    22   6    4.0099   542.0    3.019      38.853
2015    3        1    22  11    4.0095   541.6    3.023      38.809
2015    3        1    22  17    4.0090   541.3    3.027      38.765
2015    3        1    22  22    4.0086   540.9    3.030      38.721
2015    3        1    22  27    4.0081   540.5    3.034      38.676
2015    3        1    22  33    4.0078   540.1    3.038      38.632
2015    3        1    22  38    4.0074   539.7    3.042      38.587
2015    3        1    22  44    4.0070   539.4    3.045      38.543
2015    3        1    22  49    4.0067   539.0    3.049      38.498
2015    3        1    22  54    4.0064   538.6    3.053      38.453
2015    3        1    23   0    4.0062   538.2    3.056      38.408
2015    3        1    23   5    4.0058   537.8    3.060      38.363
2015    3        1    23  10    4.0057   537.4    3.064      38.317
2015    3        1    23  16    4.0055   537.1    3.068      38.272
2015    3        1    23  21    4.0053   536.7    3.071      38.226
2015    3        1    23  27    4.0052   536.3    3.075      38.181
2015    3        1    23  32    4.0049   535.9    3.079      38.135
2015    3        1    23  37    4.0049   535.5    3.083      38.089
2015    3        1    23  43    4.0048   535.2    3.087      38.042
2015    3        1    23  48    4.0047   534.8    3.090      37.996
2015    3        1    23  53    4.0045   534.4    3.094      37.949
2015    3        1    23  59    4.0045   534.0    3.098      37.903
2015    3        2     0   4    4.0045   533.6    3.102      37.856
2015    3        2     0  10    4.0046   533.3    3.105      37.809
2015    3        2     0  15    4.0046   532.9    3.109      37.761
2015    3        2     0  20    4.0046   532.5    3.113      37.714
2015    3        2     0  26    4.0045   532.1    3.117      37.666
2015    3        2     0  31    4.0045   531.7    3.121      37.618
2015    3        2     0  36    4.0046   531.4    3.125      37.570
2015    3        2     0  42    4.0048   531.0    3.128      37.521
2015    3        2     0  47    4.0049   530.6    3.132      37.473
2015    3        2     0  53    4.0049   530.2    3.136      37.424
2015    3        2     0  58    4.0050   529.8    3.140      37.375
2015    3        2     1   3    4.0052   529.4    3.144      37.326
2015    3        2     1   9    4.0055   529.1    3.148      37.277
2015    3        2     1  14    4.0057   528.7    3.152      37.228
2015    3        2     1  19    4.0058   528.3    3.156      37.179
2015    3        2     1  25    4.0061   527.9    3.160      37.130
2015    3        2     1  30    4.0064   527.5    3.164      37.081
2015    3        2     1  36    4.0067   527.2    3.168      37.033
2015    3        2     1  41    4.0068   526.8    3.172      36.984
2015    3        2     1  46    4.0073   526.4    3.176      36.936
2015    3        2     1  52    4.0077   526.0    3.180      36.887
2015    3        2     1  57    4.0079   525.6    3.185      36.839
2015    3        2     2   2    4.0085   525.3    3.189      36.791
2015    3        2     2   8    4.0087   524.9    3.193      36.744
2015    3        2     2  13    4.0092   524.5    3.198      36.696
2015    3        2     2  19    4.0099   524.1    3.202      36.649
2015    3        2     2  24    4.0102   523.7    3.207      36.603
2015    3        2     2  29    4.0109   523.4    3.211      36.556
2015    3        2     2  35    4.0113   523.0    3.216      36.510
2015    3        2     2  40    4.0121   522.6    3.220      36.464
2015    3        2     2  45    4.0127   522.2    3.225      36.419
2015    3        2     2  51    4.0134   521.9    3.230      36.374
2015    3        2     2  56    4.0141   521.5    3.235      36.329
2015    3        2     3   2    4.0146   521.1    3.239      36.284
2015    3        2     3   7    4.0155   520.7    3.244      36.239
2015    3        2     3  12    4.0161   520.4    3.249      36.195
2015    3        2     3  18    4.0170   520.0    3.254      36.151
2015    3        2     3  23    4.0176   519.6    3.259      36.108
2015    3        2     3  29    4.0186   519.3    3.264      36.064
2015    3        2     3  34    4.0195   518.9    3.269      36.021
2015    3        2     3  39    4.0202   518.5    3.274      35.977
2015    3        2     3  45    4.0212   518.1    3.279      35.934
2015    3        2     3  50    4.0221   517.8    3.284      35.891
2015    3        2     3  55    4.0230   517.4    3.289      35.849
2015    3        2     4   1    4.0240   517.0    3.294      35.806
2015    3        2     4   6    4.0248   516.7    3.300      35.763
2015    3        2     4  12    4.0258   516.3    3.305      35.721
2015    3        2     4  17    4.0270   515.9    3.310      35.678
2015    3        2     4  22    4.0280   515.6    3.315      35.636
2015    3        2     4  28    4.0291   515.2    3.320      35.594
2015    3        2     4  33    4.0300   514.8    3.326      35.552
2015    3        2     4  38    4.0313   514.5    3.331      35.510
2015    3        2     4  44    4.0324   514.1    3.336      35.469
2015    3        2     4  49    4.0334   513.7    3.342      35.427
2015    3        2     4  55    4.0348   513.4    3.347      35.386
2015    3        2     5   0    4.0360   513.0    3.352      35.344
2015    3        2     5   5    4.0372   512.6    3.358      35.303
2015    3        2     5  11    4.0385   512.3    3.363      35.263
2015    3        2     5  16    4.0396   511.9    3.368      35.222
2015    3        2     5  21    4.0409   511.5    3.374      35.182
2015    3        2     5  27    4.0425   511.2    3.380      35.142
2015    3        2     5  32    4.0439   510.8    3.385      35.102
2015    3        2     5  38    4.0453   510.5    3.391      35.063
2015    3        2     5  43    4.0465   510.1    3.396      35.023
2015    3        2     5  48    4.0480   509.7    3.402      34.984
2015    3        2     5  54    4.0495   509.4    3.408      34.946
2015    3        2     5  59    4.0513   509.0    3.414      34.908
2015    3        2     6   4    4.0529   508.7    3.419      34.870
2015    3        2     6  10    4.0545   508.3    3.425      34.833
2015    3        2     6  15    4.0561   508.0    3.431      34.795
2015    3        2     6  21    4.0576   507.6    3.437      34.759
2015    3        2     6  26    4.0595   507.3    3.443      34.722
2015    3        2     6  31    4.0613   506.9    3.450      34.686
2015    3        2     6  37    4.0628   506.6    3.456      34.650
2015    3        2     6  42    4.0646   506.2    3.462      34.615
2015    3        2     6  48    4.0666   505.9    3.468      34.580
2015    3        2     6  53    4.0685   505.6    3.475      34.545
2015    3        2     6  58    4.0704   505.2    3.481      34.510
2015    3        2     7   4    4.0721   504.9    3.487      34.476
2015    3        2     7   9    4.0742   504.6    3.494      34.442
2015    3        2     7  14    4.0759   504.2    3.500      34.408
2015    3        2     7  20    4.0781   503.9    3.507      34.374
2015    3        2     7  25    4.0800   503.5    3.513      34.340
2015    3        2     7  31    4.0818   503.2    3.520      34.307
2015    3        2     7  36    4.0840   502.9    3.526      34.274
2015    3        2     7  41    4.0860   502.6    3.533      34.240
2015    3        2     7  47    4.0881   502.2    3.540      34.207
2015    3        2     7  52    4.0899   501.9    3.546      34.174
2015    3        2     7  57    4.0920   501.6    3.553      34.141
2015    3        2     8   3    4.0943   501.3    3.560      34.108
2015    3        2     8   8    4.0962   500.9    3.567      34.075
2015    3        2     8  14    4.0983   500.6    3.573      34.042
2015    3        2     8  19    4.1006   500.3    3.580      34.009
2015    3        2     8  24    4.1025   500.0    3.587      33.976
2015    3        2     8  30    4.1047   499.6    3.594      33.943
2015    3        2     8  35    4.1071   499.3    3.601      33.910
2015    3        2     8  40    4.1091   499.0    3.607      33.877
2015    3        2     8  46    4.1113   498.7    3.614      33.844
2015    3        2     8  51    4.1137   498.3    3.621      33.811
2015    3        2     8  57    4.1159   498.0    3.628      33.778
2015    3        2     9   2    4.1180   497.7    3.635      33.745
2015    3        2     9   7    4.1204   497.4    3.642      33.713
2015    3        2     9  13    4.1227   497.1    3.649      33.681
2015    3        2     9  18    4.1248   496.7    3.656      33.648
2015    3        2     9  23    4.1273   496.4    3.663      33.616
2015    3        2     9  29    4.1296   496.1    3.670      33.584
2015    3        2     9  34    4.1320   495.8    3.677      33.552
2015    3        2     9  40    4.1342   495.5    3.684      33.520
2015    3        2     9  45    4.1366   495.2    3.691      33.488
2015    3        2     9  50    4.1392   494.8    3.698      33.457
2015    3        2     9  56    4.1414   494.5    3.706      33.426
2015    3        2    10   1    4.1441   494.2    3.713      33.395
2015    3        2    10   7    4.1464   493.9    3.720      33.364
2015    3        2    10  12    4.1489   493.6    3.728      33.333
2015    3        2    10  17    4.1516   493.3    3.735      33.303
2015    3        2    10  23    4.1541   493.0    3.742      33.273
2015    3        2    10  28    4.1565   492.7    3.750      33.243
2015    3        2    10  33    4.1593   492.4    3.757      33.213
2015    3        2    10  39    4.1618   492.0    3.765      33.184
2015    3        2    10  44    4.1644   491.7    3.773      33.155
2015    3        2    10  50    4.1671   491.4    3.780      33.126
2015    3        2    10  55    4.1700   491.1    3.788      33.098
2015    3        2    11   0    4.1725   490.8    3.796      33.070
2015    3        2    11   6    4.1754   490.5    3.804      33.042
2015    3        2    11  11    4.1782   490.2    3.812      33.014
2015    3        2    11  16    4.1808   489.9    3.820      32.987
2015    3        2    11  22    4.1838   489.6    3.828      32.960
2015    3        2    11  27    4.1865   489.3    3.836      32.934
2015    3        2    11  33    4.1896   489.0    3.844      32.907
2015    3        2    11  38    4.1925   488.7    3.852      32.881
2015    3        2    11  43    4.1954   488.4    3.860      32.855
2015    3        2    11  49    4.1983   488.1    3.868      32.830
2015    3        2    11  54    4.2011   487.9    3.876      32.804
2015    3        2    11  59    4.2043   487.6    3.885      32.779
2015    3        2    12   5    4.2073   487.3    3.893      32.754
2015    3        2    12  10    4.2101   487.0    3.901      32.730
2015    3        2    12  16    4.2132   486.7    3.909      32.705
2015    3        2    12  21    4.2163   486.4    3.918      32.681
2015    3        2    12  26    4.2194   486.1    3.926      32.657
2015    3        2    12  32    4.2225   485.8    3.934      32.633
2015    3        2    12  37    4.2256   485.6    3.942      32.609
2015    3        2    12  42    4.2290   485.3    3.951      32.586
2015    3        2    12  48    4.2321   485.0    3.959      32.562
2015    3        2    12  53    4.2353   484.7    3.967      32.539
2015    3        2    12  59    4.2385   484.5    3.976      32.516
2015    3        2    13   4    4.2416   484.2    3.984      32.493
2015    3        2    13   9    4.2449   483.9    3.993      32.470
2015    3        2    13  15    4.2481   483.6    4.001      32.447
2015    3        2    13  20    4.2515   483.4    4.009      32.425
2015    3        2    13  25    4.2549   483.1    4.018      32.403
2015    3        2    13  31    4.2581   482.8    4.026      32.381
2015    3        2    13  36    4.2615   482.6    4.034      32.359
2015    3        2    13  42    4.2650   482.3    4.043      32.337
2015    3        2    13  47    4.2684   482.0    4.051      32.315
2015    3        2    13  52    4.2718   481.8    4.059      32.294
2015    3        2    13  58    4.2752   481.5    4.068      32.272
2015    3        2    14   3    4.2787   481.2    4.076      32.251
2015    3        2    14   9    4.2821   481.0    4.085      32.230
2015    3        2    14  14    4.2856   480.7    4.093      32.210
2015    3        2    14  19    4.2891   480.5    4.102      32.189
2015    3        2    14  25    4.2926   480.2    4.110      32.169
2015    3        2    14  30    4.2960   480.0    4.119      32.149
2015    3        2    14  35    4.2996   479.7    4.127      32.129
2015    3        2    14  41    4.3033   479.5    4.136      32.110
2015    3        2    14  46    4.3068   479.2    4.144      32.091
2015    3        2    14  52    4.3105   479.0    4.153      32.072
2015    3        2    14  57    4.3141   478.7    4.161      32.053
2015    3        2    15   2    4.3177   478.5    4.170      32.035
2015    3        2    15   8    4.3214   478.2    4.179      32.017
2015    3        2    15  13    4.3249   478.0    4.187      32.000
2015    3        2    15  18    4.3287   477.8    4.196      31.983
2015    3        2    15  24    4.3323   477.5    4.205      31.966
2015    3        2    15  29    4.3361   477.3    4.213      31.950
2015    3        2    15  35    4.3398   477.0    4.222      31.933
2015    3        2    15  40    4.3435   476.8    4.231      31.918
2015    3        2    15  45    4.3472   476.6    4.240      31.902
2015    3        2    15  51    4.3509   476.3    4.249      31.887
2015    3        2    15  56    4.3547   476.1    4.258      31.873
2015    3        2    16   1    4.3585   475.9    4.267      31.859
2015    3        2    16   7    4.3622   475.6    4.276      31.845
2015    3        2    16  12    4.3662   475.4    4.285      31.831
2015    3        2    16  18    4.3700   475.2    4.294      31.818
2015    3        2    16  23    4.3738   475.0    4.303      31.805
2015    3        2    16  28    4.3776   474.7    4.312      31.793
2015    3        2    16  34    4.3815   474.5    4.321      31.781
2015    3        2    16  39    4.3853   474.3    4.330      31.769
2015    3        2    16  45    4.3892   474.1    4.340      31.758
2015    3        2    16  50    4.3931   473.9    4.349      31.747
2015    3        2    16  55    4.3969   473.6    4.358      31.736
2015    3        2    17   1    4.4009   473.4    4.368      31.726
2015    3        2    17   6    4.4047   473.2    4.377      31.715
2015    3        2    17  11    4.4088   473.0    4.386      31.706
2015    3        2    17  17    4.4126   472.8    4.396      31.696
2015    3        2    17  22    4.4167   472.6    4.405      31.687
2015    3        2    17  28    4.4207   472.4    4.415      31.678
2015    3        2    17  33    4.4246   472.2    4.424      31.669
2015    3        2    17  38    4.4285   471.9    4.434      31.660
2015    3        2    17  44    4.4325   471.7    4.443      31.652
2015    3        2    17  49    4.4367   471.5    4.453      31.644
2015    3        2    17  54    4.4408   471.3    4.463      31.636
2015    3        2    18   0    4.4448   471.1    4.472      31.629
2015    3        2    18   5    4.4489   470.9    4.482      31.621
2015    3        2    18  11    4.4529   470.7    4.492      31.614
2015    3        2    18  16    4.4570   470.5    4.501      31.607
2015    3        2    18  21    4.4612   470.3    4.511      31.601
2015    3        2    18  27    4.4653   470.1    4.521      31.594
2015    3        2    18  32    4.4696   469.9    4.531      31.587
2015    3        2    18  37    4.4738   469.7    4.540      31.581
2015    3        2    18  43    4.4781   469.5    4.550      31.575
2015    3        2    18  48    4.4823   469.3    4.560      31.569
2015    3        2    18  54    4.4866   469.2    4.570      31.564
2015    3        2    18  59    4.4907   469.0    4.580      31.558
2015    3        2    19   4    4.4950   468.8    4.590      31.553
2015    3        2    19  10    4.4994   468.6    4.600      31.547
2015    3        2    19  15    4.5037   468.4    4.609      31.542
2015    3        2    19  20    4.5081   468.2    4.619      31.537
2015    3        2    19  26    4.5124   468.0    4.629      31.533
2015    3        2    19  31    4.5168   467.8    4.639      31.528
2015    3        2    19  37    4.5212   467.7    4.649      31.523
2015    3        2    19  42    4.5257   467.5    4.659      31.519
2015    3        2    19  47    4.5300   467.3    4.669      31.515
2015    3        2    19  53    4.5346   467.1    4.679      31.511
2015    3        2    19  58    4.5390   466.9    4.689      31.507
2015    3        2    20   3    4.5436   466.8    4.699      31.504
2015    3        2    20   9    4.5480   466.6    4.709      31.500
2015    3        2    20  14    4.5526   466.4    4.719      31.497
2015    3        2    20  20    4.5571   466.3    4.729      31.494
2015    3        2    20  25    4.5616   466.1    4.739      31.491
2015    3        2    20  30    4.5663   465.9    4.750      31.488
2015    3        2    20  36    4.5709   465.7    4.760      31.486
2015    3        2    20  41    4.5755   465.6    4.770      31.483
2015    3        2    20  47    4.5801   465.4    4.780      31.482
2015    3        2    20  52    4.5849   465.2    4.790      31.480
2015    3        2    20  57    4.5894   465.1    4.801      31.478
2015    3        2    21   3    4.5941   464.9    4.811      31.477
2015    3        2    21   8    4.5988   464.8    4.821      31.476
2015    3        2    21  13    4.6037   464.6    4.832      31.475
2015    3        2    21  19    4.6084   464.4    4.842      31.475
2015    3        2    21  24    4.6131   464.3    4.853      31.475
2015    3        2    21  30    4.6180   464.1    4.863      31.476
2015    3        2    21  35    4.6227   464.0    4.873      31.477
2015    3        2    21  40    4.6275   463.8    4.884      31.478
2015    3        2    21  46    4.6323   463.7    4.894      31.480
2015    3        2    21  51    4.6373   463.5    4.905      31.483
2015    3        2    21  56    4.6420   463.4    4.915      31.486
2015    3        2    22   2    4.6470   463.2    4.925      31.489
2015    3        2    22   7    4.6518   463.1    4.936      31.494
2015    3        2    22  13    4.6567   462.9    4.946      31.499
2015    3        2    22  18    4.6615   462.8    4.956      31.504
2015    3        2    22  23    4.6665   462.7    4.966      31.510
2015    3        2    22  29    4.6713   462.5    4.977      31.516
2015    3        2    22  34    4.6763   462.4    4.987      31.523
2015    3        2    22  39    4.6813   462.2    4.997      31.530
2015    3        2    22  45    4.6861   462.1    5.007      31.537
2015    3        2    22  50    4.6911   462.0    5.016      31.545
2015    3        2    22  56    4.6960   461.8    5.026      31.553
2015    3        2    23   1    4.7009   461.7    5.036      31.561
2015    3        2    23   6    4.7058   461.6    5.046      31.569
2015    3        2    23  12    4.7108   461.4    5.055      31.578
2015    3        2    23  17    4.7157   461.3    5.065      31.586
2015    3        2    23  22    4.7207   461.2    5.074      31.595
2015    3        2    23  28    4.7256   461.1    5.084      31.603
2015    3        2    23  33    4.7306   460.9    5.093      31.612
2015    3        2    23  39    4.7355   460.8    5.102      31.620
2015    3        2    23  44    4.7405   460.7    5.111      31.629
2015    3        2    23  49    4.7455   460.6    5.121      31.638
2015    3        2    23  55    4.7505   460.4    5.130      31.646
2015    3        3     0   0    4.7555   460.3    5.139      31.655
2015    3        3     0   6    4.7605   460.2    5.148      31.663
2015    3        3     0  11    4.7655   460.1    5.157      31.672
2015    3        3     0  16    4.7704   460.0    5.166      31.680
2015    3        3     0  22    4.7755   459.9    5.175      31.688
2015    3        3     0  27    4.7805   459.7    5.184      31.697
2015    3        3     0  32    4.7855   459.6    5.193      31.705
2015    3        3     0  38    4.7905   459.5    5.202      31.713
2015    3        3     0  43    4.7955   459.4    5.210      31.721
2015    3        3     0  49    4.8005   459.3    5.219      31.728
2015    3        3     0  54    4.8056   459.2    5.228      31.736
2015    3        3     0  59    4.8106   459.1    5.236      31.744
2015    3        3     1   5    4.8156   458.9    5.245      31.751
2015    3        3     1  10    4.8207   458.8    5.254      31.759
2015    3        3     1  15    4.8257   458.7    5.262      31.766
2015    3        3     1  21    4.8308   458.6    5.271      31.773
2015    3        3     1  26    4.8360   458.5    5.279      31.780
2015    3        3     1  32    4.8410   458.4    5.288      31.787
2015    3        3     1  37    4.8461   458.3    5.296      31.794
2015    3        3     1  42    4.8513   458.2    5.305      31.801
2015    3        3     1  48    4.8563   458.1    5.313      31.808
2015    3        3     1  53    4.8614   458.0    5.322      31.815
2015    3        3     1  58    4.8666   457.9    5.330      31.822
2015    3        3     2   4    4.8717   457.8    5.338      31.829
2015    3        3     2   9    4.8769   457.7    5.347      31.835
2015    3        3     2  15    4.8819   457.6    5.355      31.842
2015    3        3     2  20    4.8871   457.5    5.363      31.849
2015    3        3     2  25    4.8923   457.4    5.372      31.856
2015    3        3     2  31    4.8975   457.3    5.380      31.863
2015    3        3     2  36    4.9027   457.2    5.388      31.869
2015    3        3     2  41    4.9078   457.1    5.396      31.876
2015    3        3     2  47    4.9131   457.0    5.405      31.883
2015    3        3     2  52    4.9183   456.9    5.413      31.890
2015    3        3     2  58    4.9236   456.8    5.421      31.898
2015    3        3     3   3    4.9288   456.7    5.430      31.905
2015    3        3     3   8    4.9341   456.6    5.438      31.913
2015    3        3     3  14    4.9394   456.5    5.447      31.921
2015    3        3     3  19    4.9447   456.4    5.455      31.928
2015    3        3     3  25    4.9499   456.4    5.464      31.937
2015    3        3     3  30    4.9553   456.3    5.472      31.945
2015    3        3     3  35    4.9605   456.2    5.481      31.954
2015    3        3     3  41    4.9660   456.1    5.490      31.963
2015    3        3     3  46    4.9713   456.0    5.498      31.972
2015    3        3     3  51    4.9767   455.9    5.507      31.982
2015    3        3     3  57    4.9821   455.8    5.516      31.992
2015    3        3     4   2    4.9875   455.7    5.525      32.003
2015    3        3     4   8    4.9930   455.7    5.534      32.014
2015    3        3     4  13    4.9984   455.6    5.543      32.025
2015    3        3     4  18    5.0039   455.5    5.553      32.037
2015    3        3     4  24    5.0094   455.4    5.562      32.049
2015    3        3     4  29    5.0150   455.3    5.571      32.062
2015    3        3     4  34    5.0205   455.3    5.581      32.076
2015    3        3     4  40    5.0261   455.2    5.591      32.090
2015    3        3     4  45    5.0317   455.1    5.600      32.105
2015    3        3     4  51    5.0373   455.0    5.610      32.120
2015    3        3     4  56    5.0430   455.0    5.620      32.136
2015    3        3     5   1    5.0486   454.9    5.630      32.154
2015    3        3     5   7    5.0544   454.8    5.640      32.172
2015    3        3     5  12    5.0600   454.8    5.650      32.192
2015    3        3     5  17    5.0658   454.7    5.660      32.212
2015    3        3     5  23    5.0715   454.6    5.669      32.233
2015    3        3     5  28    5.0772   454.6    5.679      32.255
2015    3        3     5  34    5.0830   454.5    5.689      32.278
2015    3        3     5  39    5.0887   454.4    5.699      32.301
2015    3        3     5  44    5.0944   454.4    5.708      32.325
2015    3        3     5  50    5.1002   454.3    5.718      32.350
2015    3        3     5  55    5.1060   454.3    5.727      32.376
2015    3        3     6   0    5.1117   454.2    5.737      32.401
2015    3        3     6   6    5.1174   454.2    5.746      32.428
2015    3        3     6  11    5.1232   454.1    5.755      32.454
2015    3        3     6  17    5.1288   454.1    5.764      32.481
2015    3        3     6  22    5.1345   454.0    5.773      32.508
2015    3        3     6  27    5.1403   454.0    5.781      32.535
2015    3        3     6  33    5.1460   453.9    5.790      32.561
2015    3        3     6  38    5.1516   453.9    5.798      32.588
2015    3        3     6  44    5.1574   453.8    5.807      32.614
2015    3        3     6  49    5.1630   453.8    5.815      32.640
2015    3        3     6  54    5.1688   453.7    5.823      32.665
2015    3        3     7   0    5.1744   453.7    5.831      32.690
2015    3        3     7   5    5.1801   453.6    5.839      32.715
2015    3        3     7  10    5.1856   453.6    5.846      32.739
2015    3        3     7  16    5.1913   453.5    5.854      32.763
2015    3        3     7  21    5.1970   453.5    5.861      32.786
2015    3        3     7  27    5.2025   453.5    5.869      32.809
2015    3        3     7  32    5.2082   453.4    5.876      32.831
2015    3        3     7  37    5.2138   453.4    5.883      32.853
2015    3        3     7  43    5.2194   453.3    5.890      32.874
2015    3        3     7  48    5.2250   453.3    5.897      32.895
2015    3        3     7  53    5.2307   453.2    5.904      32.916
2015    3        3     7  59    5.2363   453.2    5.911      32.936
2015    3        3     8   4    5.2418   453.2    5.918      32.956
2015    3        3     8  10    5.2474   453.1    5.924      32.975
2015    3        3     8  15    5.2530   453.1    5.931      32.994
2015    3        3     8  20    5.2585   453.0    5.937      33.013
2015    3        3     8  26    5.2641   453.0    5.944      33.031
2015    3        3     8  31    5.2697   453.0    5.950      33.049
2015    3        3     8  36    5.2752   452.9    5.957      33.067
2015    3        3     8  42    5.2808   452.9    5.963      33.084
2015    3        3     8  47    5.2864   452.9    5.969      33.101
2015    3        3     8  53    5.2919   452.8    5.975      33.118
2015    3        3     8  58    5.2975   452.8    5.982      33.135
2015    3        3     9   3    5.3030   452.7    5.988      33.151
2015    3        3     9   9    5.3086   452.7    5.994      33.167
2015    3        3     9  14    5.3141   452.7    6.000      33.184
2015    3        3     9  20    5.3196   452.6    6.006      33.199
2015    3        3     9  25    5.3252   452.6    6.012      33.215
2015    3        3     9  30    5.3307   452.6    6.018      33.231
2015    3        3     9  36    5.3363   452.5    6.024      33.247
2015    3        3     9  41    5.3418   452.5    6.030      33.262
2015    3        3     9  46    5.3473   452.5    6.035      33.278
2015    3        3     9  52    5.3529   452.4    6.041      33.294
2015    3        3     9  57    5.3584   452.4    6.047      33.309
2015    3        3    10   3    5.3640   452.4    6.053      33.325
2015    3        3    10   8    5.3696   452.3    6.059      33.341
2015    3        3    10  13    5.3751   452.3    6.065      33.357
2015    3        3    10  19    5.3807   452.3    6.071      33.374
2015    3        3    10  24    5.3862   452.2    6.077      33.390
2015    3        3    10  29    5.3919   452.2    6.082      33.407
2015    3        3    10  35    5.3974   452.2    6.088      33.424
2015    3        3    10  40    5.4030   452.2    6.094      33.441
2015    3        3    10  46    5.4087   452.1    6.100      33.459
2015    3        3    10  51    5.4143   452.1    6.107      33.477
2015    3        3    10  56    5.4200   452.1    6.113      33.496
2015    3        3    11   2    5.4257   452.1    6.119      33.515
2015    3        3    11   7    5.4314   452.0    6.125      33.534
2015    3        3    11  12    5.4371   452.0    6.132      33.554
2015    3        3    11  18    5.4428   452.0    6.138      33.575
2015    3        3    11  23    5.4486   452.0    6.145      33.596
2015    3        3    11  29    5.4543   451.9    6.151      33.617
2015    3        3    11  34    5.4602   451.9    6.158      33.640
2015    3        3    11  39    5.4660   451.9    6.165      33.662
2015    3        3    11  45    5.4719   451.9    6.172      33.686
2015    3        3    11  50    5.4778   451.9    6.179      33.710
2015    3        3    11  55    5.4836   451.9    6.186      33.734
2015    3        3    12   1    5.4896   451.8    6.194      33.760
2015    3        3    12   6    5.4956   451.8    6.201      33.786
2015    3        3    12  12    5.5015   451.8    6.209      33.813
2015    3        3    12  17    5.5075   451.8    6.217      33.841
2015    3        3    12  22    5.5135   451.8    6.224      33.870
2015    3        3    12  28    5.5196   451.8    6.232      33.899
2015    3        3    12  33    5.5257   451.8    6.240      33.929
2015    3        3    12  38    5.5318   451.8    6.249      33.959
2015    3        3    12  44    5.5379   451.8    6.257      33.991
2015    3        3    12  49    5.5440   451.8    6.265      34.023
2015    3        3    12  55    5.5501   451.8    6.274      34.057
2015    3        3    13   0    5.5563   451.8    6.282      34.092
2015    3        3    13   5    5.5624   451.8    6.291      34.127
2015    3        3    13  11    5.5686   451.8    6.299      34.164
2015    3        3    13  16    5.5747   451.8    6.307      34.201
2015    3        3    13  22    5.5809   451.8    6.316      34.238
2015    3        3    13  27    5.5871   451.8    6.324      34.276
2015    3        3    13  32    5.5933   451.9    6.333      34.314
2015    3        3    13  38    5.5994   451.9    6.341      34.353
2015    3        3    13  43    5.6056   451.9    6.349      34.392
2015    3        3    13  48    5.6117   451.9    6.357      34.432
2015    3        3    13  54    5.6178   451.9    6.365      34.472
2015    3        3    13  59    5.6240   451.9    6.373      34.513
2015    3        3    14   5    5.6301   452.0    6.381      34.554
2015    3        3    14  10    5.6361   452.0    6.388      34.595
2015    3        3    14  15    5.6422   452.0    6.396      34.635
2015    3        3    14  21    5.6482   452.0    6.403      34.675
2015    3        3    14  26    5.6542   452.1    6.410      34.715
2015    3        3    14  31    5.6602   452.1    6.416      34.754
2015    3        3    14  37    5.6662   452.1    6.423      34.793
2015    3        3    14  42    5.6721   452.2    6.429      34.832
2015    3        3    14  48    5.6780   452.2    6.435      34.871
2015    3        3    14  53    5.6839   452.2    6.441      34.908
2015    3        3    14  58    5.6898   452.3    6.447      34.945
2015    3        3    15   4    5.6956   452.3    6.452      34.982
2015    3        3    15   9    5.7014   452.3    6.457      35.017
2015    3        3    15  14    5.7072   452.4    6.462      35.053
2015    3        3    15  20    5.7130   452.4    6.467      35.087
2015    3        3    15  25    5.7187   452.4    6.472      35.121
2015    3        3    15  31    5.7244   452.5    6.477      35.154
2015    3        3    15  36    5.7302   452.5    6.481      35.187
2015    3        3    15  41    5.7359   452.5    6.486      35.220
2015    3        3    15  47    5.7416   452.6    6.490      35.252
2015    3        3    15  52    5.7472   452.6    6.494      35.283
2015    3        3    15  57    5.7529   452.6    6.498      35.314
2015    3        3    16   3    5.7586   452.6    6.502      35.344
2015    3        3    16   8    5.7642   452.7    6.506      35.374
2015    3        3    16  14    5.7699   452.7    6.509      35.404
2015    3        3    16  19    5.7755   452.7    6.513      35.434
2015    3        3    16  24    5.7811   452.8    6.517      35.463
2015    3        3    16  30    5.7868   452.8    6.520      35.491
2015    3        3    16  35    5.7924   452.8    6.524      35.520
2015    3        3    16  41    5.7980   452.9    6.527      35.548
2015    3        3    16  46    5.8037   452.9    6.530      35.576
2015    3        3    16  51    5.8093   452.9    6.533      35.604
2015    3        3    16  57    5.8149   453.0    6.537      35.632
2015    3        3    17   2    5.8206   453.0    6.540      35.659
2015    3        3    17   7    5.8262   453.0    6.543      35.686
2015    3        3    17  13    5.8319   453.1    6.546      35.714
2015    3        3    17  18    5.8376   453.1    6.549      35.741
2015    3        3    17  24    5.8432   453.1    6.552      35.768
2015    3        3    17  29    5.8489   453.2    6.555      35.795
2015    3        3    17  34    5.8546   453.2    6.558      35.822
2015    3        3    17  40    5.8603   453.2    6.561      35.849
2015    3        3    17  45    5.8660   453.3    6.564      35.877
2015    3        3    17  50    5.8718   453.3    6.567      35.904
2015    3        3    17  56    5.8775   453.3    6.571      35.932
2015    3        3    18   1    5.8832   453.4    6.574      35.960
2015    3        3    18   7    5.8890   453.4    6.577      35.988
2015    3        3    18  12    5.8947   453.4    6.580      36.016
2015    3        3    18  17    5.9006   453.5    6.583      36.044
2015    3        3    18  23    5.9063   453.5    6.587      36.073
2015    3        3    18  28    5.9122   453.5    6.590      36.102
2015    3        3    18  33    5.9179   453.6    6.593      36.132
2015    3        3    18  39    5.9237   453.6    6.597      36.161
2015    3        3    18  44    5.9295   453.6    6.601      36.191
2015    3        3    18  50    5.9354   453.7    6.604      36.222
2015    3        3    18  55    5.9413   453.7    6.608      36.253
2015    3        3    19   0    5.9471   453.8    6.612      36.285
2015    3        3    19   6    5.9529   453.8    6.616      36.318
2015    3        3    19  11    5.9588   453.8    6.621      36.350
2015    3        3    19  16    5.9647   453.9    6.625      36.384
2015    3        3    19  22    5.9707   453.9    6.630      36.419
2015    3        3    19  27    5.9765   454.0    6.635      36.454
2015    3        3    19  33    5.9824   454.0    6.640      36.489
2015    3        3    19  38    5.9885   454.0    6.645      36.526
2015    3        3    19  43    5.9944   454.1    6.651      36.564
2015    3        3    19  49    6.0002   454.1    6.656      36.603
2015    3        3    19  54    6.0061   454.2    6.662      36.644
2015    3        3    20   0    6.0120   454.3    6.668      36.687
2015    3        3    20   5    6.0179   454.3    6.674      36.730
2015    3        3    20  10    6.0240   454.4    6.681      36.775
2015    3        3    20  16    6.0299   454.4    6.687      36.820
2015    3        3    20  21    6.0358   454.5    6.694      36.867
2015    3        3    20  26    6.0416   454.5    6.700      36.914
2015    3        3    20  32    6.0474   454.6    6.707      36.963
2015    3        3    20  37    6.0530   454.7    6.713      37.012
2015    3        3    20  43    6.0588   454.8    6.720      37.063
2015    3        3    20  48    6.0643   454.8    6.727      37.115
2015    3        3    20  53    6.0701   454.9    6.733      37.168
2015    3        3    20  59    6.0755   455.0    6.739      37.221
2015    3        3    21   4    6.0811   455.1    6.746      37.276
2015    3        3    21   9    6.0864   455.1    6.752      37.331
2015    3        3    21  15    6.0918   455.2    6.758      37.386
2015    3        3    21  20    6.0972   455.3    6.763      37.443
2015    3        3    21  26    6.1023   455.4    6.769      37.499
2015    3        3    21  31    6.1075   455.5    6.774      37.556
2015    3        3    21  36    6.1126   455.6    6.779      37.612
2015    3        3    21  42    6.1179   455.7    6.784      37.669
2015    3        3    21  47    6.1229   455.8    6.788      37.726
2015    3        3    21  52    6.1277   455.9    6.792      37.782
2015    3        3    21  58    6.1326   455.9    6.796      37.838
2015    3        3    22   3    6.1375   456.0    6.800      37.893
2015    3        3    22   9    6.1423   456.1    6.803      37.948
2015    3        3    22  14    6.1471   456.2    6.806      38.002
2015    3        3    22  19    6.1520   456.3    6.809      38.056
2015    3        3    22  25    6.1566   456.4    6.812      38.108
2015    3        3    22  30    6.1613   456.5    6.814      38.161
2015    3        3    22  35    6.1659   456.6    6.817      38.212
2015    3        3    22  41    6.1706   456.7    6.819      38.263
2015    3        3    22  46    6.1752   456.8    6.821      38.313
2015    3        3    22  52    6.1798   456.9    6.823      38.362
2015    3        3    22  57    6.1845   457.0    6.824      38.411
2015    3        3    23   2    6.1889   457.1    6.826      38.460
2015    3        3    23   8    6.1935   457.2    6.828      38.508
2015    3        3    23  13    6.1982   457.2    6.829      38.555
2015    3        3    23  19    6.2026   457.3    6.830      38.602
2015    3        3    23  24    6.2072   457.4    6.832      38.649
2015    3        3    23  29    6.2119   457.5    6.833      38.695
2015    3        3    23  35    6.2164   457.6    6.834      38.741
2015    3        3    23  40    6.2211   457.7    6.835      38.786
2015    3        3    23  45    6.2256   457.8    6.836      38.831
2015    3        3    23  51    6.2303   457.9    6.837      38.876
2015    3        3    23  56    6.2350   458.0    6.839      38.921
2015    3        4     0   2    6.2397   458.1    6.840      38.965
2015    3        4     0   7    6.2444   458.1    6.841      39.009
2015    3        4     0  12    6.2492   458.2    6.842      39.053
2015    3        4     0  18    6.2539   458.3    6.843      39.097
2015    3        4     0  23    6.2588   458.4    6.844      39.142
2015    3        4     0  28    6.2636   458.5    6.846      39.187
2015    3        4     0  34    6.2685   458.6    6.847      39.232
2015    3        4     0  39    6.2735   458.7    6.848      39.278
2015    3        4     0  45    6.2784   458.8    6.849      39.323
2015    3        4     0  50    6.2834   458.9    6.850      39.369
2015    3        4     0  55    6.2883   459.0    6.851      39.416
2015    3        4     1   1    6.2933   459.1    6.852      39.462
2015    3        4     1   6    6.2983   459.2    6.853      39.508
2015    3        4     1  11    6.3033   459.3    6.854      39.555
2015    3        4     1  17    6.3082   459.4    6.855      39.601
2015    3        4     1  22    6.3132   459.5    6.855      39.648
2015    3        4     1  28    6.3181   459.6    6.856      39.695
2015    3        4     1  33    6.3231   459.7    6.856      39.741
2015    3        4     1  38    6.3280   459.9    6.857      39.788
2015    3        4     1  44    6.3329   460.0    6.857      39.834
2015    3        4     1  49    6.3378   460.1    6.858      39.880
2015    3        4     1  54    6.3427   460.2    6.858      39.925
2015    3        4     2   0    6.3475   460.3    6.858      39.971
2015    3        4     2   5    6.3524   460.4    6.858      40.017
2015    3        4     2  11    6.3572   460.5    6.858      40.062
2015    3        4     2  16    6.3620   460.6    6.858      40.108
2015    3        4     2  21    6.3669   460.7    6.858      40.153
2015    3        4     2  27    6.3717   460.9    6.858      40.199
2015    3        4     2  32    6.3765   461.0    6.858      40.245
2015    3        4     2  38    6.3813   461.1    6.858      40.290
2015    3        4     2  43    6.3860   461.2    6.858      40.336
2015    3        4     2  48    6.3908   461.3    6.858      40.383
2015    3        4     2  54    6.3956   461.4    6.859      40.430
2015    3        4     2  59    6.4004   461.5    6.859      40.477
2015    3        4     3   4    6.4051   461.7    6.859      40.525
2015    3        4     3  10    6.4099   461.8    6.859      40.574
2015    3        4     3  15    6.4146   461.9    6.859      40.623
2015    3        4     3  21    6.4193   462.0    6.860      40.672
2015    3        4     3  26    6.4241   462.1    6.860      40.722
2015    3        4     3  31    6.4288   462.2    6.860      40.772
2015    3        4     3  37    6.4334   462.4    6.860      40.823
2015    3        4     3  42    6.4381   462.5    6.860      40.875
2015    3        4     3  47    6.4427   462.6    6.861      40.927
2015    3        4     3  53    6.4474   462.7    6.860      40.980
2015    3        4     3  58    6.4519   462.9    6.860      41.034
2015    3        4     4   4    6.4564   463.0    6.860      41.088
2015    3        4     4   9    6.4609   463.1    6.860      41.143
2015    3        4     4  14    6.4654   463.3    6.859      41.197
2015    3        4     4  20    6.4698   463.4    6.858      41.251
2015    3        4     4  25    6.4743   463.5    6.857      41.305
2015    3        4     4  30    6.4786   463.7    6.856      41.359
2015    3        4     4  36    6.4829   463.8    6.855      41.414
2015    3        4     4  41    6.4872   463.9    6.854      41.467
2015    3        4     4  47    6.4915   464.0    6.853      41.521
2015    3        4     4  52    6.4958   464.2    6.851      41.574
2015    3        4     4  57    6.5000   464.3    6.849      41.627
2015    3        4     5   3    6.5042   464.4    6.847      41.678
2015    3        4     5   8    6.5085   464.6    6.846      41.730
2015    3        4     5  13    6.5126   464.7    6.844      41.781
2015    3        4     5  19    6.5168   464.8    6.842      41.831
2015    3        4     5  24    6.5211   465.0    6.839      41.881
2015    3        4     5  30    6.5252   465.1    6.837      41.930
2015    3        4     5  35    6.5293   465.2    6.835      41.979
2015    3        4     5  40    6.5336   465.3    6.833      42.027
2015    3        4     5  46    6.5378   465.5    6.831      42.076
2015    3        4     5  51    6.5419   465.6    6.829      42.123
2015    3        4     5  57    6.5461   465.7    6.826      42.171
2015    3        4     6   2    6.5503   465.8    6.824      42.218
2015    3        4     6   7    6.5546   466.0    6.822      42.266
2015    3        4     6  13    6.5587   466.1    6.820      42.313
2015    3        4     6  18    6.5631   466.2    6.818      42.359
2015    3        4     6  23    6.5673   466.3    6.816      42.406
2015    3        4     6  29    6.5716   466.5    6.814      42.453
2015    3        4     6  34    6.5759   466.6    6.813      42.499
2015    3        4     6  40    6.5804   466.7    6.811      42.546
2015    3        4     6  45    6.5847   466.8    6.810      42.593
2015    3        4     6  50    6.5892   467.0    6.808      42.640
2015    3        4     6  56    6.5937   467.1    6.807      42.688
2015    3        4     7   1    6.5983   467.2    6.806      42.735
2015    3        4     7   6    6.6029   467.3    6.805      42.783
2015    3        4     7  12    6.6075   467.4    6.805      42.832
2015    3        4     7  17    6.6123   467.6    6.804      42.881
2015    3        4     7  23    6.6171   467.7    6.804      42.930
2015    3        4     7  28    6.6220   467.8    6.804      42.981
2015    3        4     7  33    6.6269   467.9    6.805      43.032
2015    3        4     7  39    6.6319   468.1    6.806      43.084
2015    3        4     7  44    6.6370   468.2    6.807      43.137
2015    3        4     7  49    6.6423   468.3    6.808      43.191
2015    3        4     7  55    6.6475   468.5    6.810      43.245
2015    3        4     8   0    6.6530   468.6    6.811      43.301
2015    3        4     8   6    6.6584   468.7    6.814      43.357
2015    3        4     8  11    6.6638   468.9    6.816      43.414
2015    3        4     8  16    6.6694   469.0    6.819      43.472
2015    3        4     8  22    6.6749   469.1    6.822      43.532
2015    3        4     8  27    6.6805   469.3    6.825      43.593
2015    3        4     8  32    6.6862   469.4    6.829      43.654
2015    3        4     8  38    6.6917   469.6    6.832      43.716
2015    3        4     8  43    6.6972   469.8    6.836      43.779
2015    3        4     8  49    6.7028   469.9    6.839      43.841
2015    3        4     8  54    6.7082   470.1    6.842      43.904
2015    3        4     8  59    6.7136   470.3    6.846      43.967
2015    3        4     9   5    6.7190   470.5    6.849      44.028
2015    3        4     9  10    6.7242   470.6    6.852      44.090
2015    3        4     9  16    6.7294   470.8    6.855      44.150
2015    3        4     9  21    6.7344   471.0    6.857      44.210
2015    3        4     9  26    6.7394   471.2    6.859      44.269
2015    3        4     9  32    6.7443   471.4    6.861      44.326
2015    3        4     9  37    6.7491   471.6    6.863      44.382
2015    3        4     9  42    6.7539   471.8    6.864      44.437
2015    3        4     9  48    6.7585   471.9    6.865      44.490
2015    3        4     9  53    6.7631   472.1    6.866      44.542
2015    3        4     9  59    6.7676   472.3    6.866      44.593
2015    3        4    10   4    6.7721   472.5    6.867      44.643
2015    3        4    10   9    6.7764   472.7    6.867      44.692
2015    3        4    10  15    6.7808   472.9    6.867      44.739
2015    3        4    10  20    6.7852   473.0    6.866      44.786
2015    3        4    10  25    6.7895   473.2    6.866      44.832
2015    3        4    10  31    6.7937   473.4    6.866      44.877
2015    3        4    10  36    6.7979   473.6    6.865      44.922
2015    3        4    10  42    6.8021   473.8    6.864      44.966
2015    3        4    10  47    6.8063   474.0    6.864      45.010
2015    3        4    10  52    6.8105   474.1    6.863      45.053
2015    3        4    10  58    6.8146   474.3    6.862      45.095
2015    3        4    11   3    6.8188   474.5    6.861      45.137
2015    3        4    11   8    6.8229   474.7    6.860      45.179
2015    3        4    11  14    6.8271   474.9    6.859      45.221
2015    3        4    11  19    6.8312   475.1    6.858      45.263
2015    3        4    11  25    6.8354   475.2    6.857      45.304
2015    3        4    11  30    6.8396   475.4    6.856      45.346
2015    3        4    11  35    6.8438   475.6    6.855      45.387
2015    3        4    11  41    6.8480   475.8    6.855      45.429
2015    3        4    11  46    6.8522   476.0    6.854      45.471
2015    3        4    11  51    6.8564   476.1    6.853      45.514
2015    3        4    11  57    6.8606   476.3    6.852      45.557
2015    3        4    12   2    6.8648   476.5    6.852      45.601
2015    3        4    12   8    6.8691   476.7    6.851      45.646
2015    3        4    12  13    6.8733   476.9    6.850      45.690
2015    3        4    12  18    6.8775   477.1    6.849      45.735
2015    3        4    12  24    6.8817   477.3    6.848      45.780
2015    3        4    12  29    6.8858   477.5    6.847      45.825
2015    3        4    12  35    6.8900   477.7    6.847      45.871
2015    3        4    12  40    6.8942   477.9    6.846      45.916
2015    3        4    12  45    6.8982   478.1    6.844      45.961
2015    3        4    12  51    6.9023   478.3    6.843      46.006
2015    3        4    12  56    6.9063   478.5    6.842      46.051
2015    3        4    13   1    6.9103   478.7    6.841      46.095
2015    3        4    13   7    6.9142   478.9    6.839      46.139
2015    3        4    13  12    6.9182   479.1    6.838      46.183
2015    3        4    13  18    6.9222   479.3    6.837      46.227
2015    3        4    13  23    6.9261   479.5    6.835      46.270
2015    3        4    13  28    6.9301   479.7    6.834      46.313
2015    3        4    13  34    6.9340   479.9    6.833      46.357
2015    3        4    13  39    6.9381   480.1    6.832      46.400
2015    3        4    13  44    6.9420   480.3    6.830      46.444
2015    3        4    13  50    6.9460   480.5    6.829      46.489
2015    3        4    13  55    6.9500   480.7    6.828      46.534
2015    3        4    14   1    6.9540   480.9    6.827      46.580
2015    3        4    14   6    6.9580   481.1    6.827      46.627
2015    3        4    14  11    6.9621   481.3    6.826      46.674
2015    3        4    14  17    6.9662   481.5    6.825      46.721
2015    3        4    14  22    6.9703   481.7    6.825      46.769
2015    3        4    14  27    6.9744   481.9    6.824      46.818
2015    3        4    14  33    6.9785   482.1    6.824      46.867
2015    3        4    14  38    6.9827   482.3    6.824      46.917
2015    3        4    14  44    6.9868   482.5    6.824      46.967
2015    3        4    14  49    6.9910   482.7    6.824      47.019
2015    3        4    14  54    6.9954   482.9    6.824      47.071
2015    3        4    15   0    6.9997   483.1    6.824      47.124
2015    3        4    15   5    7.0039   483.3    6.825      47.178
2015    3        4    15  10    7.0084   483.5    6.826      47.233
2015    3        4    15  16    7.0127   483.7    6.827      47.289
2015    3        4    15  21    7.0173   483.9    6.828      47.346
2015    3        4    15  27    7.0219   484.1    6.829      47.405
2015    3        4    15  32    7.0265   484.3    6.831      47.465
2015    3        4    15  37    7.0311   484.5    6.832      47.529
2015    3        4    15  43    7.0357   484.7    6.834      47.593
2015    3        4    15  48    7.0406   485.0    6.836      47.659
2015    3        4    15  54    7.0453   485.2    6.838      47.727
2015    3        4    15  59    7.0502   485.4    6.840      47.798
2015    3        4    16   4    7.0551   485.6    6.842      47.871
2015    3        4    16  10    7.0600   485.8    6.844      47.945
2015    3        4    16  15    7.0648   486.1    6.845      48.021
2015    3        4    16  20    7.0696   486.3    6.847      48.098
2015    3        4    16  26    7.0744   486.5    6.848      48.176
2015    3        4    16  31    7.0791   486.8    6.849      48.255
2015    3        4    16  37    7.0837   487.0    6.850      48.334
2015    3        4    16  42    7.0882   487.2    6.851      48.413
2015    3        4    16  47    7.0928   487.5    6.851      48.491
2015    3        4    16  53    7.0971   487.7    6.851      48.568
2015    3        4    16  58    7.1016   488.0    6.850      48.645
2015    3        4    17   3    7.1057   488.2    6.849      48.721
2015    3        4    17   9    7.1100   488.5    6.848      48.796
2015    3        4    17  14    7.1140   488.7    6.846      48.870
2015    3        4    17  20    7.1179   489.0    6.844      48.942
2015    3        4    17  25    7.1219   489.3    6.842      49.013
2015    3        4    17  30    7.1257   489.5    6.839      49.082
2015    3        4    17  36    7.1293   489.8    6.836      49.150
2015    3        4    17  41    7.1331   490.0    6.832      49.216
2015    3        4    17  46    7.1367   490.3    6.828      49.281
2015    3        4    17  52    7.1401   490.6    6.824      49.345
2015    3        4    17  57    7.1436   490.9    6.820      49.407
2015    3        4    18   3    7.1470   491.1    6.815      49.468
2015    3        4    18   8    7.1504   491.4    6.811      49.528
2015    3        4    18  13    7.1538   491.7    6.805      49.586
2015    3        4    18  19    7.1571   491.9    6.800      49.644
2015    3        4    18  24    7.1602   492.2    6.795      49.700
2015    3        4    18  29    7.1635   492.5    6.789      49.755
2015    3        4    18  35    7.1665   492.8    6.783      49.810
2015    3        4    18  40    7.1698   493.0    6.777      49.864
2015    3        4    18  46    7.1727   493.3    6.771      49.916
2015    3        4    18  51    7.1759   493.6    6.765      49.968
2015    3        4    18  56    7.1789   493.9    6.759      50.019
2015    3        4    19   2    7.1817   494.2    6.753      50.069
2015    3        4    19   7    7.1848   494.4    6.746      50.119
2015    3        4    19  13    7.1876   494.7    6.740      50.168
2015    3        4    19  18    7.1904   495.0    6.733      50.217
2015    3        4    19  23    7.1932   495.3    6.726      50.265
2015    3        4    19  29    7.1962   495.6    6.720      50.313
2015    3        4    19  34    7.1990   495.9    6.713      50.360
2015    3        4    19  39    7.2016   496.1    6.707      50.407
2015    3        4    19  45    7.2043   496.4    6.700      50.454
2015    3        4    19  50    7.2072   496.7    6.693      50.501
2015    3        4    19  56    7.2099   497.0    6.687      50.547
2015    3        4    20   1    7.2125   497.3    6.680      50.593
2015    3        4    20   6    7.2152   497.6    6.674      50.640
2015    3        4    20  12    7.2178   497.9    6.667      50.686
2015    3        4    20  17    7.2204   498.1    6.661      50.733
2015    3        4    20  22    7.2232   498.4    6.655      50.780
2015    3        4    20  28    7.2258   498.7    6.649      50.826
2015    3        4    20  33    7.2282   499.0    6.642      50.873
2015    3        4    20  39    7.2307   499.3    6.636      50.921
2015    3        4    20  44    7.2334   499.6    6.630      50.969
2015    3        4    20  49    7.2359   499.9    6.624      51.017
2015    3        4    20  55    7.2382   500.2    6.619      51.066
2015    3        4    21   0    7.2407   500.5    6.613      51.116
2015    3        4    21   5    7.2433   500.8    6.607      51.166
2015    3        4    21  11    7.2457   501.1    6.601      51.216
2015    3        4    21  16    7.2479   501.4    6.596      51.267
2015    3        4    21  22    7.2503   501.7    6.590      51.318
2015    3        4    21  27    7.2526   502.0    6.585      51.369
2015    3        4    21  32    7.2551   502.3    6.579      51.421
2015    3        4    21  38    7.2572   502.6    6.574      51.474
2015    3        4    21  43    7.2595   502.9    6.569      51.528
2015    3        4    21  48    7.2620   503.2    6.564      51.583
2015    3        4    21  54    7.2643   503.5    6.559      51.638
2015    3        4    21  59    7.2665   503.8    6.554      51.694
2015    3        4    22   5    7.2685   504.1    6.549      51.751
2015    3        4    22  10    7.2710   504.4    6.544      51.808
2015    3        4    22  15    7.2732   504.7    6.540      51.868
2015    3        4    22  21    7.2753   505.0    6.535      51.930
2015    3        4    22  26    7.2775   505.3    6.531      51.994
2015    3        4    22  32    7.2795   505.6    6.526      52.059
2015    3        4    22  37    7.2813   505.9    6.521      52.126
2015    3        4    22  42    7.2833   506.3    6.517      52.194
2015    3        4    22  48    7.2852   506.6    6.512      52.263
2015    3        4    22  53    7.2870   506.9    6.507      52.333
2015    3        4    22  58    7.2891   507.2    6.502      52.403
2015    3        4    23   4    7.2908   507.5    6.496      52.473
2015    3        4    23   9    7.2922   507.9    6.491      52.543
2015    3        4    23  15    7.2940   508.2    6.485      52.614
2015    3        4    23  20    7.2952   508.5    6.479      52.685
2015    3        4    23  25    7.2969   508.8    6.473      52.755
2015    3        4    23  31    7.2980   509.2    6.467      52.824
2015    3        4    23  36    7.2996   509.5    6.461      52.893
2015    3        4    23  41    7.3005   509.8    6.454      52.960
2015    3        4    23  47    7.3020   510.1    6.447      53.027
2015    3        4    23  52    7.3031   510.5    6.440      53.092
2015    3        4    23  58    7.3041   510.8    6.433      53.157
2015    3        5     0   3    7.3048   511.1    6.426      53.221
2015    3        5     0   8    7.3057   511.5    6.418      53.284
2015    3        5     0  14    7.3069   511.8    6.411      53.346
2015    3        5     0  19    7.3074   512.1    6.403      53.407
2015    3        5     0  24    7.3082   512.5    6.395      53.468
2015    3        5     0  30    7.3089   512.8    6.387      53.527
2015    3        5     0  35    7.3098   513.1    6.379      53.586
2015    3        5     0  41    7.3105   513.5    6.371      53.644
2015    3        5     0  46    7.3108   513.8    6.362      53.701
2015    3        5     0  51    7.3113   514.1    6.354      53.758
2015    3        5     0  57    7.3121   514.5    6.346      53.813
2015    3        5     1   2    7.3125   514.8    6.337      53.868
2015    3        5     1   7    7.3126   515.2    6.329      53.923
2015    3        5     1  13    7.3130   515.5    6.320      53.976
2015    3        5     1  18    7.3133   515.8    6.311      54.029
2015    3        5     1  24    7.3136   516.2    6.303      54.082
2015    3        5     1  29    7.3139   516.5    6.294      54.134
2015    3        5     1  34    7.3144   516.8    6.285      54.186
2015    3        5     1  40    7.3143   517.2    6.276      54.237
2015    3        5     1  45    7.3147   517.5    6.268      54.288
2015    3        5     1  51    7.3149   517.9    6.259      54.338
2015    3        5     1  56    7.3149   518.2    6.250      54.388
2015    3        5     2   1    7.3148   518.5    6.241      54.438
2015    3        5     2   7    7.3148   518.9    6.232      54.488
2015    3        5     2  12    7.3148   519.2    6.224      54.537
2015    3        5     2  17    7.3150   519.5    6.215      54.587
2015    3        5     2  23    7.3146   519.9    6.206      54.636
2015    3        5     2  28    7.3145   520.2    6.197      54.685
2015    3        5     2  34    7.3147   520.6    6.188      54.734
2015    3        5     2  39    7.3142   520.9    6.179      54.783
2015    3        5     2  44    7.3143   521.2    6.170      54.832
2015    3        5     2  50    7.3138   521.6    6.162      54.882
2015    3        5     2  55    7.3135   521.9    6.153      54.931
2015    3        5     3   0    7.3135   522.2    6.144      54.981
2015    3        5     3   6    7.3132   522.6    6.135      55.031
2015    3        5     3  11    7.3126   522.9    6.126      55.082
2015    3        5     3  17    7.3123   523.2    6.117      55.132
2015    3        5     3  22    7.3122   523.6    6.108      55.183
2015    3        5     3  27    7.3118   523.9    6.099      55.234
2015    3        5     3  33    7.3111   524.2    6.090      55.285
2015    3        5     3  38    7.3109   524.6    6.081      55.336
2015    3        5     3  43    7.3101   524.9    6.073      55.387
2015    3        5     3  49    7.3099   525.2    6.064      55.438
2015    3        5     3  54    7.3094   525.6    6.055      55.489
2015    3        5     4   0    7.3085   525.9    6.046      55.540
2015    3        5     4   5    7.3081   526.3    6.037      55.591
2015    3        5     4  10    7.3075   526.6    6.027      55.642
2015    3        5     4  16    7.3068   526.9    6.018      55.693
2015    3        5     4  21    7.3061   527.3    6.009      55.743
2015    3        5     4  26    7.3053   527.6    6.000      55.794
2015    3        5     4  32    7.3042   528.0    5.991      55.844
2015    3        5     4  37    7.3033   528.3    5.982      55.894
2015    3        5     4  43    7.3027   528.6    5.973      55.943
2015    3        5     4  48    7.3015   529.0    5.964      55.993
2015    3        5     4  53    7.3008   529.3    5.954      56.042
2015    3        5     4  59    7.2998   529.6    5.945      56.091
2015    3        5     5   4    7.2985   530.0    5.936      56.140
2015    3        5     5  10    7.2977   530.3    5.927      56.188
2015    3        5     5  15    7.2967   530.6    5.918      56.237
2015    3        5     5  20    7.2952   531.0    5.908      56.286
2015    3        5     5  26    7.2944   531.3    5.899      56.334
2015    3        5     5  31    7.2929   531.7    5.890      56.382
2015    3        5     5  36    7.2917   532.0    5.881      56.431
2015    3        5     5  42    7.2904   532.3    5.872      56.479
2015    3        5     5  47    7.2891   532.7    5.862      56.527
2015    3        5     5  53    7.2881   533.0    5.853      56.575
2015    3        5     5  58    7.2864   533.3    5.844      56.622
2015    3        5     6   3    7.2850   533.7    5.835      56.670
2015    3        5     6   9    7.2839   534.0    5.826      56.718
2015    3        5     6  14    7.2821   534.4    5.816      56.765
2015    3        5     6  19    7.2806   534.7    5.807      56.812
2015    3        5     6  25    7.2794   535.0    5.798      56.858
2015    3        5     6  30    7.2778   535.4    5.789      56.905
2015    3        5     6  36    7.2758   535.7    5.780      56.951
2015    3        5     6  41    7.2745   536.0    5.771      56.997
2015    3        5     6  46    7.2728   536.4    5.762      57.042
2015    3        5     6  52    7.2710   536.7    5.753      57.087
2015    3        5     6  57    7.2693   537.0    5.744      57.132
2015    3        5     7   2    7.2675   537.3    5.735      57.177
2015    3        5     7   8    7.2652   537.7    5.726      57.221
2015    3        5     7  13    7.2633   538.0    5.718      57.266
2015    3        5     7  19    7.2618   538.3    5.709      57.310
2015    3        5     7  24    7.2595   538.6    5.700      57.354
2015    3        5     7  29    7.2579   539.0    5.691      57.398
2015    3        5     7  35    7.2555   539.3    5.683      57.441
2015    3        5     7  40    7.2534   539.6    5.674      57.484
2015    3        5     7  45    7.2517   539.9    5.665      57.528
2015    3        5     7  51    7.2496   540.3    5.657      57.570
2015    3        5     7  56    7.2475   540.6    5.648      57.613
2015    3        5     8   2    7.2449   540.9    5.640      57.656
2015    3        5     8   7    7.2428   541.2    5.631      57.698
2015    3        5     8  12    7.2409   541.6    5.622      57.740
2015    3        5     8  18    7.2383   541.9    5.614      57.781
2015    3        5     8  23    7.2364   542.2    5.605      57.822
2015    3        5     8  28    7.2338   542.5    5.596      57.863
2015    3        5     8  34    7.2318   542.8    5.587      57.902
2015    3        5     8  39    7.2291   543.2    5.579      57.941
2015    3        5     8  45    7.2271   543.5    5.570      57.980
2015    3        5     8  50    7.2248   543.8    5.561      58.017
2015    3        5     8  55    7.2220   544.1    5.552      58.054
2015    3        5     9   1    7.2196   544.4    5.543      58.091
2015    3        5     9   6    7.2176   544.7    5.534      58.127
2015    3        5     9  12    7.2148   545.0    5.526      58.163
2015    3        5     9  17    7.2127   545.3    5.517      58.198
2015    3        5     9  22    7.2099   545.6    5.508      58.233
2015    3        5     9  28    7.2075   545.9    5.500      58.268
2015    3        5     9  33    7.2054   546.2    5.491      58.303
2015    3        5     9  38    7.2029   546.5    5.483      58.338
2015    3        5     9  44    7.2004   546.8    5.474      58.374
2015    3        5     9  49    7.1979   547.1    5.466      58.411
2015    3        5     9  55    7.1951   547.4    5.458      58.449
2015    3        5    10   0    7.1927   547.7    5.450      58.487
2015    3        5    10   5    7.1902   548.0    5.442      58.525
2015    3        5    10  11    7.1879   548.3    5.434      58.564
2015    3        5    10  16    7.1851   548.6    5.426      58.603
2015    3        5    10  21    7.1825   548.9    5.418      58.642
2015    3        5    10  27    7.1802   549.2    5.410      58.680
2015    3        5    10  32    7.1776   549.6    5.402      58.719
2015    3        5    10  38    7.1750   549.9    5.394      58.757
2015    3        5    10  43    7.1720   550.2    5.386      58.796
2015    3        5    10  48    7.1696   550.5    5.378      58.834
2015    3        5    10  54    7.1665   550.8    5.370      58.871
2015    3        5    10  59    7.1640   551.1    5.362      58.908
2015    3        5    11   4    7.1611   551.4    5.354      58.944
2015    3        5    11  10    7.1583   551.7    5.346      58.980
2015    3        5    11  15    7.1554   552.1    5.339      59.016
2015    3        5    11  21    7.1524   552.4    5.331      59.052
2015    3        5    11  26    7.1495   552.7    5.323      59.088
2015    3        5    11  31    7.1463   553.0    5.316      59.124
2015    3        5    11  37    7.1436   553.3    5.308      59.160
2015    3        5    11  42    7.1406   553.6    5.301      59.197
2015    3        5    11  48    7.1376   553.8    5.293      59.233
2015    3        5    11  53    7.1344   554.1    5.286      59.269
2015    3        5    11  58    7.1316   554.4    5.279      59.305
2015    3        5    12   4    7.1286   554.7    5.271      59.341
2015    3        5    12   9    7.1257   555.0    5.264      59.378
2015    3        5    12  14    7.1225   555.3    5.257      59.414
2015    3        5    12  20    7.1196   555.6    5.250      59.451
2015    3        5    12  25    7.1166   555.9    5.243      59.487
2015    3        5    12  31    7.1138   556.2    5.236      59.523
2015    3        5    12  36    7.1107   556.4    5.229      59.560
2015    3        5    12  41    7.1078   556.7    5.222      59.596
2015    3        5    12  47    7.1049   557.0    5.215      59.632
2015    3        5    12  52    7.1021   557.3    5.208      59.668
2015    3        5    12  57    7.0991   557.6    5.202      59.704
2015    3        5    13   3    7.0964   557.8    5.195      59.740
2015    3        5    13   8    7.0935   558.1    5.188      59.776
2015    3        5    13  14    7.0906   558.4    5.181      59.811
2015    3        5    13  19    7.0878   558.6    5.175      59.847
2015    3        5    13  24    7.0850   558.9    5.168      59.882
2015    3        5    13  30    7.0822   559.2    5.161      59.918
2015    3        5    13  35    7.0793   559.5    5.155      59.953
2015    3        5    13  40    7.0765   559.7    5.148      59.988
2015    3        5    13  46    7.0738   560.0    5.141      60.024
2015    3        5    13  51    7.0711   560.2    5.135      60.059
2015    3        5    13  57    7.0684   560.5    5.128      60.094
2015    3        5    14   2    7.0657   560.8    5.122      60.128
2015    3        5    14   7    7.0630   561.0    5.115      60.163
2015    3        5    14  13    7.0603   561.3    5.108      60.197
2015    3        5    14  18    7.0576   561.5    5.102      60.232
2015    3        5    14  23    7.0550   561.8    5.095      60.266
2015    3        5    14  29    7.0524   562.1    5.089      60.300
2015    3        5    14  34    7.0498   562.3    5.082      60.333
2015    3        5    14  40    7.0473   562.6    5.076      60.367
2015    3        5    14  45    7.0447   562.8    5.069      60.400
2015    3        5    14  50    7.0421   563.1    5.063      60.433
2015    3        5    14  56    7.0395   563.4    5.056      60.466
2015    3        5    15   1    7.0370   563.6    5.050      60.498
2015    3        5    15   6    7.0344   563.9    5.043      60.531
2015    3        5    15  12    7.0319   564.1    5.037      60.563
2015    3        5    15  17    7.0294   564.4    5.030      60.595
2015    3        5    15  23    7.0268   564.6    5.024      60.627
2015    3        5    15  28    7.0243   564.9    5.017      60.659
2015    3        5    15  33    7.0218   565.2    5.011      60.691
2015    3        5    15  39    7.0193   565.4    5.005      60.723
2015    3        5    15  44    7.0167   565.7    4.999      60.755
2015    3        5    15  50    7.0142   565.9    4.992      60.787
2015    3        5    15  55    7.0117   566.2    4.986      60.819
2015    3        5    16   0    7.0091   566.4    4.980      60.851
2015    3        5    16   6    7.0066   566.7    4.974      60.883
2015    3        5    16  11    7.0041   567.0    4.968      60.916
2015    3        5    16  16    7.0015   567.2    4.962      60.949
2015    3        5    16  22    6.9990   567.5    4.956      60.982
2015    3        5    16  27    6.9964   567.7    4.950      61.015
2015    3        5    16  33    6.9939   568.0    4.944      61.049
2015    3        5    16  38    6.9913   568.2    4.938      61.083
2015    3        5    16  43    6.9888   568.5    4.933      61.118
2015    3        5    16  49    6.9862   568.8    4.927      61.153
2015    3        5    16  54    6.9837   569.0    4.921      61.189
2015    3        5    16  59    6.9812   569.3    4.916      61.226
2015    3        5    17   5    6.9786   569.5    4.910      61.264
2015    3        5    17  10    6.9761   569.8    4.905      61.302
2015    3        5    17  16    6.9736   570.1    4.900      61.340
2015    3        5    17  21    6.9710   570.3    4.894      61.379
2015    3        5    17  26    6.9685   570.6    4.889      61.418
2015    3        5    17  32    6.9659   570.9    4.883      61.457
2015    3        5    17  37    6.9634   571.1    4.878      61.495
2015    3        5    17  42    6.9608   571.4    4.872      61.534
2015    3        5    17  48    6.9582   571.6    4.867      61.572
2015    3        5    17  53    6.9556   571.9    4.862      61.611
2015    3        5    17  59    6.9530   572.2    4.856      61.649
2015    3        5    18   4    6.9504   572.4    4.851      61.686
2015    3        5    18   9    6.9478   572.7    4.845      61.723
2015    3        5    18  15    6.9451   572.9    4.840      61.759
2015    3        5    18  20    6.9424   573.2    4.834      61.794
2015    3        5    18  25    6.9398   573.5    4.828      61.830
2015    3        5    18  31    6.9371   573.7    4.823      61.864
2015    3        5    18  36    6.9345   574.0    4.817      61.898
2015    3        5    18  42    6.9317   574.2    4.812      61.932
2015    3        5    18  47    6.9291   574.5    4.806      61.965
2015    3        5    18  52    6.9263   574.7    4.801      61.998
2015    3        5    18  58    6.9237   575.0    4.795      62.030
2015    3        5    19   3    6.9209   575.2    4.789      62.061
2015    3        5    19   9    6.9182   575.5    4.784      62.093
2015    3        5    19  14    6.9154   575.8    4.778      62.124
2015    3        5    19  19    6.9127   576.0    4.772      62.154
2015    3        5    19  25    6.9100   576.3    4.766      62.184
2015    3        5    19  30    6.9073   576.5    4.761      62.214
2015    3        5    19  35    6.9045   576.8    4.755      62.244
2015    3        5    19  41    6.9018   577.0    4.749      62.273
2015    3        5    19  46    6.8990   577.3    4.743      62.301
2015    3        5    19  52    6.8962   577.5    4.737      62.329
2015    3        5    19  57    6.8935   577.7    4.731      62.357
2015    3        5    20   2    6.8908   578.0    4.725      62.384
2015    3        5    20   8    6.8880   578.2    4.719      62.411
2015    3        5    20  13    6.8853   578.5    4.713      62.438
2015    3        5    20  18    6.8824   578.7    4.707      62.464
2015    3        5    20  24    6.8797   579.0    4.701      62.490
2015    3        5    20  29    6.8770   579.2    4.695      62.516
2015    3        5    20  35    6.8742   579.5    4.689      62.541
2015    3        5    20  40    6.8715   579.7    4.684      62.566
2015    3        5    20  45    6.8687   579.9    4.678      62.591
2015    3        5    20  51    6.8660   580.2    4.672      62.615
2015    3        5    20  56    6.8633   580.4    4.666      62.639
2015    3        5    21   1    6.8606   580.6    4.660      62.664
2015    3        5    21   7    6.8578   580.9    4.654      62.688
2015    3        5    21  12    6.8552   581.1    4.648      62.712
2015    3        5    21  18    6.8525   581.4    4.642      62.736
2015    3        5    21  23    6.8498   581.6    4.637      62.759
2015    3        5    21  28    6.8471   581.8    4.631      62.783
2015    3        5    21  34    6.8444   582.1    4.625      62.807
2015    3        5    21  39    6.8418   582.3    4.620      62.831
2015    3        5    21  44    6.8391   582.5    4.614      62.855
2015    3        5    21  50    6.8365   582.8    4.609      62.879
2015    3        5    21  55    6.8339   583.0    4.603      62.904
2015    3        5    22   1    6.8313   583.2    4.598      62.929
2015    3        5    22   6    6.8286   583.5    4.593      62.955
2015    3        5    22  11    6.8259   583.7    4.587      62.981
2015    3        5    22  17    6.8233   583.9    4.582      63.008
2015    3        5    22  22    6.8207   584.2    4.577      63.035
2015    3        5    22  27    6.8181   584.4    4.572      63.062
2015    3        5    22  33    6.8154   584.6    4.567      63.090
2015    3        5    22  38    6.8128   584.9    4.561      63.118
2015    3        5    22  44    6.8101   585.1    4.556      63.146
2015    3        5    22  49    6.8075   585.3    4.551      63.174
2015    3        5    22  54    6.8048   585.5    4.546      63.202
2015    3        5    23   0    6.8022   585.8    4.541      63.231
2015    3        5    23   5    6.7995   586.0    4.536      63.260
2015    3        5    23  11    6.7968   586.2    4.531      63.288
2015    3        5    23  16    6.7942   586.4    4.526      63.317
2015    3        5    23  21    6.7915   586.7    4.522      63.346
2015    3        5    23  27    6.7889   586.9    4.517      63.376
2015    3        5    23  32    6.7862   587.1    4.512      63.406
2015    3        5    23  37    6.7836   587.3    4.507      63.435
2015    3        5    23  43    6.7809   587.6    4.503      63.466
2015    3        5    23  48    6.7783   587.8    4.498      63.496
2015    3        5    23  54    6.7757   588.0    4.494      63.528
2015    3        5    23  59    6.7730   588.2    4.489      63.559
2015    3        6     0   4    6.7704   588.5    4.485      63.591
2015    3        6     0  10    6.7678   588.7    4.480      63.624
2015    3        6     0  15    6.7652   588.9    4.476      63.656
2015    3        6     0  20    6.7626   589.1    4.471      63.688
2015    3        6     0  26    6.7600   589.3    4.467      63.720
2015    3        6     0  31    6.7573   589.6    4.462      63.752
2015    3        6     0  37    6.7547   589.8    4.458      63.783
2015    3        6     0  42    6.7520   590.0    4.453      63.814
2015    3        6     0  47    6.7493   590.2    4.448      63.844
2015    3        6     0  53    6.7466   590.5    4.443      63.873
2015    3        6     0  58    6.7440   590.7    4.439      63.902
2015    3        6     1   3    6.7412   590.9    4.434      63.930
2015    3        6     1   9    6.7385   591.1    4.429      63.958
2015    3        6     1  14    6.7358   591.4    4.424      63.984
2015    3        6     1  20    6.7330   591.6    4.419      64.010
2015    3        6     1  25    6.7302   591.8    4.414      64.035
2015    3        6     1  30    6.7274   592.0    4.408      64.060
2015    3        6     1  36    6.7246   592.2    4.403      64.084
2015    3        6     1  41    6.7218   592.5    4.398      64.108
2015    3        6     1  47    6.7190   592.7    4.393      64.131
2015    3        6     1  52    6.7162   592.9    4.388      64.154
2015    3        6     1  57    6.7134   593.1    4.383      64.176
2015    3        6     2   3    6.7106   593.3    4.378      64.198
2015    3        6     2   8    6.7077   593.5    4.372      64.220
2015    3        6     2  13    6.7049   593.8    4.367      64.242
2015    3        6     2  19    6.7021   594.0    4.362      64.263
2015    3        6     2  24    6.6993   594.2    4.357      64.284
2015    3        6     2  30    6.6964   594.4    4.352      64.305
2015    3        6     2  35    6.6936   594.6    4.347      64.326
2015    3        6     2  40    6.6908   594.8    4.342      64.347
2015    3        6     2  46    6.6879   595.0    4.337      64.368
2015    3        6     2  51    6.6851   595.2    4.332      64.388
2015    3        6     2  56    6.6823   595.5    4.327      64.409
2015    3        6     3   2    6.6795   595.7    4.322      64.429
2015    3        6     3   7    6.6766   595.9    4.317      64.449
2015    3        6     3  13    6.6738   596.1    4.312      64.469
2015    3        6     3  18    6.6710   596.3    4.307      64.489
2015    3        6     3  23    6.6682   596.5    4.303      64.510
2015    3        6     3  29    6.6654   596.7    4.298      64.530
2015    3        6     3  34    6.6626   596.9    4.293      64.551
2015    3        6     3  39    6.6598   597.1    4.289      64.571
2015    3        6     3  45    6.6570   597.3    4.284      64.592
2015    3        6     3  50    6.6542   597.5    4.279      64.612
2015    3        6     3  56    6.6515   597.7    4.275      64.633
2015    3        6     4   1    6.6487   597.9    4.270      64.654
2015    3        6     4   6    6.6460   598.1    4.266      64.674
2015    3        6     4  12    6.6432   598.3    4.261      64.695
2015    3        6     4  17    6.6405   598.6    4.257      64.716
2015    3        6     4  22    6.6377   598.8    4.253      64.737
2015    3        6     4  28    6.6350   599.0    4.248      64.758
2015    3        6     4  33    6.6323   599.2    4.244      64.779
2015    3        6     4  39    6.6296   599.4    4.240      64.800
2015    3        6     4  44    6.6269   599.6    4.236      64.821
2015    3        6     4  49    6.6242   599.8    4.232      64.843
2015    3        6     4  55    6.6216   600.0    4.228      64.865
2015    3        6     5   0    6.6189   600.2    4.224      64.888
2015    3        6     5   5    6.6162   600.4    4.220      64.912
2015    3        6     5  11    6.6135   600.6    4.216      64.935
2015    3        6     5  16    6.6109   600.8    4.212      64.960
2015    3        6     5  22    6.6082   601.0    4.208      64.984
2015    3        6     5  27    6.6055   601.2    4.204      65.008
2015    3        6     5  32    6.6028   601.4    4.199      65.033
2015    3        6     5  38    6.6001   601.6    4.195      65.058
2015    3        6     5  43    6.5974   601.8    4.191      65.082
2015    3        6     5  49    6.5947   602.0    4.187      65.106
2015    3        6     5  54    6.5919   602.2    4.183      65.130
2015    3        6     5  59    6.5892   602.4    4.179      65.154
2015    3        6     6   5    6.5864   602.6    4.174      65.178
2015    3        6     6  10    6.5837   602.8    4.170      65.201
2015    3        6     6  15    6.5809   603.0    4.166      65.224
2015    3        6     6  21    6.5781   603.2    4.162      65.247
2015    3        6     6  26    6.5754   603.4    4.157      65.270
2015    3        6     6  32    6.5726   603.6    4.153      65.292
2015    3        6     6  37    6.5698   603.8    4.149      65.314
2015    3        6     6  42    6.5671   604.0    4.145      65.336
2015    3        6     6  48    6.5643   604.2    4.140      65.358
2015    3        6     6  53    6.5615   604.4    4.136      65.379
2015    3        6     6  58    6.5587   604.6    4.132      65.400
2015    3        6     7   4    6.5558   604.8    4.127      65.421
2015    3        6     7   9    6.5530   605.0    4.123      65.441
2015    3        6     7  15    6.5502   605.2    4.119      65.461
2015    3        6     7  20    6.5474   605.4    4.114      65.481
2015    3        6     7  25    6.5446   605.6    4.110      65.500
2015    3        6     7  31    6.5417   605.7    4.105      65.519
2015    3        6     7  36    6.5389   605.9    4.101      65.537
2015    3        6     7  41    6.5361   606.1    4.097      65.555
2015    3        6     7  47    6.5332   606.3    4.092      65.573
2015    3        6     7  52    6.5304   606.5    4.088      65.591
2015    3        6     7  58    6.5275   606.7    4.083      65.609
2015    3        6     8   3    6.5247   606.9    4.079      65.627
2015    3        6     8   8    6.5218   607.1    4.075      65.644
2015    3        6     8  14    6.5190   607.3    4.070      65.662
2015    3        6     8  19    6.5161   607.4    4.066      65.679
2015    3        6     8  24    6.5132   607.6    4.061      65.696
2015    3        6     8  30    6.5103   607.8    4.057      65.712
2015    3        6     8  35    6.5075   608.0    4.053      65.729
2015    3        6     8  41    6.5046   608.2    4.048      65.745
2015    3        6     8  46    6.5017   608.4    4.044      65.761
2015    3        6     8  51    6.4988   608.5    4.039      65.776
2015    3        6     8  57    6.4959   608.7    4.035      65.791
2015    3        6     9   2    6.4930   608.9    4.031      65.806
2015    3        6     9   8    6.4901   609.1    4.026      65.821
2015    3        6     9  13    6.4871   609.3    4.022      65.836
2015    3        6     9  18    6.4842   609.4    4.017      65.850
2015    3        6     9  24    6.4813   609.6    4.013      65.865
2015    3        6     9  29    6.4784   609.8    4.009      65.879
2015    3        6     9  34    6.4755   610.0    4.004      65.893
2015    3        6     9  40    6.4725   610.1    4.000      65.906
2015    3        6     9  45    6.4696   610.3    3.996      65.920
2015    3        6     9  51    6.4667   610.5    3.992      65.934
2015    3        6     9  56    6.4638   610.7    3.988      65.948
2015    3        6    10   1    6.4608   610.9    3.983      65.961
2015    3        6    10   7    6.4579   611.0    3.979      65.975
2015    3        6    10  12    6.4550   611.2    3.975      65.989
2015    3        6    10  17    6.4521   611.4    3.971      66.003
2015    3        6    10  23    6.4492   611.5    3.967      66.017
2015    3        6    10  28    6.4463   611.7    3.963      66.032
2015    3        6    10  34    6.4434   611.9    3.959      66.046
2015    3        6    10  39    6.4405   612.1    3.955      66.061
2015    3        6    10  44    6.4377   612.2    3.952      66.077
2015    3        6    10  50    6.4348   612.4    3.948      66.092
2015    3        6    10  55    6.4319   612.6    3.944      66.108
2015    3        6    11   0    6.4291   612.8    3.940      66.124
2015    3        6    11   6    6.4262   612.9    3.936      66.140
2015    3        6    11  11    6.4233   613.1    3.933      66.157
2015    3        6    11  17    6.4205   613.3    3.929      66.173
2015    3        6    11  22    6.4176   613.4    3.925      66.190
2015    3        6    11  27    6.4148   613.6    3.922      66.206
2015    3        6    11  33    6.4120   613.8    3.918      66.223
2015    3        6    11  38    6.4091   614.0    3.914      66.239
2015    3        6    11  43    6.4063   614.1    3.911      66.256
2015    3        6    11  49    6.4035   614.3    3.907      66.272
2015    3        6    11  54    6.4006   614.5    3.903      66.288
2015    3        6    12   0    6.3978   614.6    3.900      66.304
2015    3        6    12   5    6.3951   614.8    3.896      66.320
2015    3        6    12  10    6.3922   615.0    3.893      66.337
2015    3        6    12  16    6.3895   615.1    3.889      66.353
2015    3        6    12  21    6.3867   615.3    3.886      66.370
2015    3        6    12  26    6.3839   615.5    3.882      66.386
2015    3        6    12  32    6.3812   615.6    3.879      66.402
2015    3        6    12  37    6.3784   615.8    3.875      66.418
2015    3        6    12  43    6.3757   616.0    3.872      66.434
2015    3        6    12  48    6.3729   616.1    3.869      66.449
2015    3        6    12  53    6.3702   616.3    3.865      66.465
2015    3        6    12  59    6.3674   616.5    3.862      66.480
2015    3        6    13   4    6.3647   616.6    3.858      66.496
2015    3        6    13   9    6.3619   616.8    3.855      66.511
2015    3        6    13  15    6.3591   617.0    3.852      66.527
2015    3        6    13  20    6.3563   617.1    3.848      66.542
2015    3        6    13  26    6.3535   617.3    3.845      66.557
2015    3        6    13  31    6.3507   617.5    3.841      66.572
2015    3        6    13  36    6.3479   617.6    3.838      66.587
2015    3        6    13  42    6.3450   617.8    3.834      66.602
2015    3        6    13  47    6.3422   617.9    3.831      66.616
2015    3        6    13  53    6.3394   618.1    3.827      66.630
2015    3        6    13  58    6.3365   618.3    3.824      66.644
2015    3        6    14   3    6.3336   618.4    3.820      66.657
2015    3        6    14   9    6.3307   618.6    3.817      66.670
2015    3        6    14  14    6.3279   618.7    3.813      66.683
2015    3        6    14  19    6.3250   618.9    3.810      66.695
2015    3        6    14  25    6.3221   619.0    3.806      66.707
2015    3        6    14  30    6.3192   619.2    3.803      66.719
2015    3        6    14  36    6.3163   619.4    3.799      66.731
2015    3        6    14  41    6.3134   619.5    3.796      66.743
2015    3        6    14  46    6.3105   619.7    3.792      66.755
2015    3        6    14  52    6.3076   619.8    3.789      66.766
2015    3        6    14  57    6.3047   620.0    3.785      66.777
2015    3        6    15   2    6.3018   620.1    3.781      66.788
2015    3        6    15   8    6.2989   620.3    3.778      66.799
2015    3        6    15  13    6.2960   620.4    3.774      66.809
2015    3        6    15  19    6.2931   620.6    3.771      66.820
2015    3        6    15  24    6.2902   620.7    3.767      66.830
2015    3        6    15  29    6.2873   620.9    3.764      66.839
2015    3        6    15  35    6.2843   621.0    3.760      66.849
2015    3        6    15  40    6.2814   621.2    3.756      66.858
2015    3        6    15  45    6.2785   621.3    3.753      66.866
2015    3        6    15  51    6.2755   621.5    3.749      66.875
2015    3        6    15  56    6.2726   621.6    3.745      66.882
2015    3        6    16   2    6.2696   621.7    3.741      66.890
2015    3        6    16   7    6.2667   621.9    3.738      66.897
2015    3        6    16  12    6.2637   622.0    3.734      66.903
2015    3        6    16  18    6.2608   622.2    3.730      66.909
2015    3        6    16  23    6.2578   622.3    3.726      66.915
2015    3        6    16  29    6.2548   622.5    3.722      66.920
2015    3        6    16  34    6.2518   622.6    3.718      66.925
2015    3        6    16  39    6.2488   622.7    3.714      66.930
2015    3        6    16  45    6.2458   622.9    3.710      66.933
2015    3        6    16  50    6.2428   623.0    3.707      66.937
2015    3        6    16  55    6.2399   623.1    3.703      66.941
2015    3        6    17   1    6.2369   623.3    3.699      66.944
2015    3        6    17   6    6.2339   623.4    3.695      66.947
2015    3        6    17  12    6.2309   623.6    3.691      66.949
2015    3        6    17  17    6.2279   623.7    3.687      66.952
2015    3        6    17  22    6.2249   623.8    3.683      66.954
2015    3        6    17  28    6.2219   624.0    3.679      66.957
2015    3        6    17  33    6.2189   624.1    3.675      66.959
2015    3        6    17  38    6.2159   624.2    3.672      66.962
2015    3        6    17  44    6.2129   624.3    3.668      66.964
2015    3        6    17  49    6.2100   624.5    3.664      66.967
2015    3        6    17  55    6.2070   624.6    3.660      66.970
2015    3        6    18   0    6.2040   624.7    3.657      66.973
2015    3        6    18   5    6.2011   624.9    3.653      66.976
2015    3        6    18  11    6.1981   625.0    3.649      66.980
2015    3        6    18  16    6.1952   625.1    3.646      66.984
2015    3        6    18  21    6.1922   625.2    3.642      66.988
2015    3        6    18  27    6.1893   625.4    3.639      66.993
2015    3        6    18  32    6.1864   625.5    3.635      66.997
2015    3        6    18  38    6.1835   625.6    3.632      67.002
2015    3        6    18  43    6.1806   625.7    3.629      67.008
2015    3        6    18  48    6.1777   625.9    3.626      67.013
2015    3        6    18  54    6.1748   626.0    3.622      67.019
2015    3        6    18  59    6.1720   626.1    3.619      67.026
2015    3        6    19   4    6.1691   626.2    3.616      67.032
2015    3        6    19  10    6.1663   626.3    3.613      67.040
2015    3        6    19  15    6.1635   626.5    3.610      67.047
2015    3        6    19  21    6.1607   626.6    3.608      67.055
2015    3        6    19  26    6.1579   626.7    3.605      67.063
2015    3        6    19  31    6.1551   626.8    3.602      67.072
2015    3        6    19  37    6.1524   626.9    3.600      67.081
2015    3        6    19  42    6.1497   627.1    3.598      67.091
2015    3        6    19  47    6.1470   627.2    3.595      67.102
2015    3        6    19  53    6.1443   627.3    3.593      67.113
2015    3        6    19  58    6.1415   627.4    3.591      67.126
2015    3        6    20   4    6.1388   627.6    3.589      67.139
2015    3        6    20   9    6.1362   627.7    3.586      67.152
2015    3        6    20  14    6.1335   627.8    3.584      67.165
2015    3        6    20  20    6.1308   627.9    3.582      67.178
2015    3        6    20  25    6.1281   628.0    3.580      67.192
2015    3        6    20  30    6.1254   628.2    3.578      67.206
2015    3        6    20  36    6.1226   628.3    3.576      67.221
2015    3        6    20  41    6.1199   628.4    3.574      67.235
2015    3        6    20  47    6.1171   628.6    3.572      67.249
2015    3        6    20  52    6.1143   628.7    3.569      67.263
2015    3        6    20  57    6.1116   628.8    3.567      67.277
2015    3        6    21   3    6.1088   628.9    3.565      67.290
2015    3        6    21   8    6.1061   629.0    3.563      67.303
2015    3        6    21  14    6.1033   629.2    3.560      67.316
2015    3        6    21  19    6.1006   629.3    3.558      67.328
2015    3        6    21  24    6.0977   629.4    3.556      67.340
2015    3        6    21  30    6.0950   629.5    3.553      67.351
2015    3        6    21  35    6.0922   629.6    3.551      67.361
2015    3        6    21  40    6.0895   629.8    3.548      67.371
2015    3        6    21  46    6.0866   629.9    3.546      67.380
2015    3        6    21  51    6.0838   630.0    3.543      67.389
2015    3        6    21  57    6.0811   630.1    3.540      67.397
2015    3        6    22   2    6.0783   630.2    3.538      67.404
2015    3        6    22   7    6.0755   630.3    3.535      67.410
2015    3        6    22  13    6.0727   630.4    3.532      67.416
2015    3        6    22  18    6.0699   630.6    3.529      67.421
2015    3        6    22  23    6.0672   630.7    3.526      67.425
2015    3        6    22  29    6.0644   630.8    3.523      67.429
2015    3        6    22  34    6.0616   630.9    3.520      67.432
2015    3        6    22  40    6.0588   631.0    3.517      67.434
2015    3        6    22  45    6.0561   631.1    3.514      67.435
2015    3        6    22  50    6.0533   631.2    3.511      67.435
2015    3        6    22  56    6.0505   631.3    3.508      67.435
2015    3        6    23   1    6.0477   631.4    3.504      67.433
2015    3        6    23   6    6.0448   631.5    3.501      67.431
2015    3        6    23  12    6.0420   631.6    3.498      67.429
2015    3        6    23  17    6.0392   631.7    3.494      67.425
2015    3        6    23  23    6.0363   631.8    3.491      67.421
2015    3        6    23  28    6.0335   631.9    3.488      67.416
2015    3        6    23  33    6.0307   632.0    3.484      67.411
2015    3        6    23  39    6.0279   632.1    3.481      67.405
2015    3        6    23  44    6.0251   632.2    3.477      67.399
2015    3        6    23  50    6.0222   632.3    3.474      67.392
2015    3        6    23  55    6.0194   632.4    3.470      67.384
2015    3        7     0   0    6.0165   632.5    3.467      67.377
2015    3        7     0   6    6.0137   632.6    3.463      67.369
2015    3        7     0  11    6.0108   632.7    3.459      67.360
2015    3        7     0  16    6.0079   632.8    3.456      67.352
2015    3        7     0  22    6.0051   632.9    3.452      67.343
2015    3        7     0  27    6.0022   632.9    3.449      67.334
2015    3        7     0  33    5.9993   633.0    3.445      67.325
2015    3        7     0  38    5.9965   633.1    3.442      67.317
2015    3        7     0  43    5.9936   633.2    3.438      67.308
2015    3        7     0  49    5.9908   633.3    3.435      67.299
2015    3        7     0  54    5.9879   633.4    3.432      67.291
2015    3        7     0  59    5.9851   633.4    3.428      67.283
2015    3        7     1   5    5.9822   633.5    3.425      67.275
2015    3        7     1  10    5.9794   633.6    3.422      67.267
2015    3        7     1  16    5.9765   633.7    3.419      67.260
2015    3        7     1  21    5.9737   633.7    3.416      67.253
2015    3        7     1  26    5.9709   633.8    3.413      67.247
2015    3        7     1  32    5.9681   633.9    3.410      67.241
2015    3        7     1  37    5.9653   634.0    3.407      67.236
2015    3        7     1  42    5.9625   634.0    3.404      67.231
2015    3        7     1  48    5.9597   634.1    3.401      67.227
2015    3        7     1  53    5.9570   634.2    3.398      67.223
2015    3        7     1  59    5.9542   634.3    3.396      67.220
2015    3        7     2   4    5.9515   634.3    3.393      67.218
2015    3        7     2   9    5.9487   634.4    3.391      67.216
2015    3        7     2  15    5.9460   634.5    3.388      67.215
2015    3        7     2  20    5.9433   634.5    3.386      67.215
2015    3        7     2  25    5.9407   634.6    3.384      67.216
2015    3        7     2  31    5.9380   634.7    3.382      67.217
2015    3        7     2  36    5.9353   634.7    3.380      67.219
2015    3        7     2  42    5.9327   634.8    3.378      67.221
2015    3        7     2  47    5.9301   634.9    3.376      67.225
2015    3        7     2  52    5.9275   634.9    3.375      67.230
2015    3        7     2  58    5.9249   635.0    3.373      67.235
2015    3        7     3   3    5.9224   635.1    3.372      67.242
2015    3        7     3   8    5.9198   635.1    3.370      67.249
2015    3        7     3  14    5.9173   635.2    3.369      67.258
2015    3        7     3  19    5.9147   635.3    3.368      67.268
2015    3        7     3  25    5.9122   635.4    3.367      67.279
2015    3        7     3  30    5.9097   635.4    3.365      67.290
2015    3        7     3  35    5.9072   635.5    3.364      67.301
2015    3        7     3  41    5.9047   635.6    3.363      67.313
2015    3        7     3  46    5.9021   635.7    3.362      67.326
2015    3        7     3  51    5.8996   635.7    3.360      67.338
2015    3        7     3  57    5.8971   635.8    3.359      67.349
2015    3        7     4   2    5.8945   635.9    3.358      67.361
2015    3        7     4   8    5.8920   636.0    3.356      67.372
2015    3        7     4  13    5.8896   636.0    3.355      67.382
2015    3        7     4  18    5.8870   636.1    3.353      67.392
2015    3        7     4  24    5.8845   636.2    3.352      67.401
2015    3        7     4  29    5.8820   636.3    3.350      67.410
2015    3        7     4  34    5.8795   636.3    3.349      67.418
2015    3        7     4  40    5.8770   636.4    3.347      67.426
2015    3        7     4  45    5.8745   636.5    3.346      67.432
2015    3        7     4  51    5.8720   636.5    3.344      67.438
2015    3        7     4  56    5.8695   636.6    3.342      67.444
2015    3        7     5   1    5.8670   636.7    3.340      67.448
2015    3        7     5   7    5.8644   636.7    3.338      67.451
2015    3        7     5  12    5.8619   636.8    3.336      67.454
2015    3        7     5  18    5.8594   636.9    3.335      67.456
2015    3        7     5  23    5.8569   636.9    3.333      67.457
2015    3        7     5  28    5.8545   637.0    3.330      67.457
2015    3        7     5  34    5.8520   637.1    3.328      67.457
2015    3        7     5  39    5.8494   637.1    3.326      67.455
2015    3        7     5  44    5.8470   637.2    3.324      67.453
2015    3        7     5  50    5.8444   637.3    3.322      67.450
2015    3        7     5  55    5.8419   637.3    3.319      67.446
2015    3        7     6   1    5.8394   637.4    3.317      67.441
2015    3        7     6   6    5.8369   637.5    3.315      67.436
2015    3        7     6  11    5.8344   637.5    3.312      67.430
2015    3        7     6  17    5.8319   637.6    3.310      67.424
2015    3        7     6  22    5.8294   637.6    3.308      67.417
2015    3        7     6  27    5.8269   637.7    3.305      67.410
2015    3        7     6  33    5.8243   637.8    3.303      67.402
2015    3        7     6  38    5.8218   637.8    3.300      67.393
2015    3        7     6  44    5.8193   637.9    3.298      67.384
2015    3        7     6  49    5.8167   637.9    3.295      67.375
2015    3        7     6  54    5.8143   638.0    3.293      67.365
2015    3        7     7   0    5.8117   638.0    3.290      67.356
2015    3        7     7   5    5.8092   638.1    3.288      67.345
2015    3        7     7  10    5.8067   638.1    3.285      67.335
2015    3        7     7  16    5.8041   638.2    3.282      67.325
2015    3        7     7  21    5.8017   638.2    3.280      67.314
2015    3        7     7  27    5.7991   638.3    3.277      67.303
2015    3        7     7  32    5.7966   638.3    3.275      67.293
2015    3        7     7  37    5.7941   638.4    3.272      67.282
2015    3        7     7  43    5.7916   638.4    3.270      67.272
2015    3        7     7  48    5.7890   638.5    3.267      67.261
2015    3        7     7  53    5.7866   638.5    3.265      67.251
2015    3        7     7  59    5.7840   638.5    3.262      67.241
2015    3        7     8   4    5.7815   638.6    3.260      67.231
2015    3        7     8  10    5.7790   638.6    3.258      67.222
2015    3        7     8  15    5.7764   638.7    3.255      67.212
2015    3        7     8  20    5.7740   638.7    3.253      67.203
2015    3        7     8  26    5.7715   638.7    3.250      67.195
2015    3        7     8  31    5.7690   638.8    3.248      67.186
2015    3        7     8  37    5.7664   638.8    3.246      67.178
2015    3        7     8  42    5.7640   638.8    3.244      67.171
2015    3        7     8  47    5.7615   638.9    3.242      67.163
2015    3        7     8  53    5.7591   638.9    3.239      67.156
2015    3        7     8  58    5.7565   638.9    3.237      67.150
2015    3        7     9   3    5.7541   639.0    3.235      67.143
2015    3        7     9   9    5.7516   639.0    3.233      67.137
2015    3        7     9  14    5.7491   639.0    3.231      67.132
2015    3        7     9  20    5.7468   639.0    3.229      67.126
2015    3        7     9  25    5.7443   639.1    3.228      67.121
2015    3        7     9  30    5.7419   639.1    3.226      67.117
2015    3        7     9  36    5.7394   639.1    3.224      67.113
2015    3        7     9  41    5.7370   639.1    3.222      67.109
2015    3        7     9  46    5.7347   639.2    3.221      67.105
2015    3        7     9  52    5.7323   639.2    3.219      67.102
2015    3        7     9  57    5.7300   639.2    3.217      67.099
2015    3        7    10   3    5.7276   639.2    3.216      67.096
2015    3        7    10   8    5.7252   639.3    3.214      67.094
2015    3        7    10  13    5.7230   639.3    3.213      67.092
2015    3        7    10  19    5.7207   639.3    3.212      67.090
2015    3        7    10  24    5.7184   639.3    3.210      67.088
2015    3        7    10  29    5.7161   639.3    3.209      67.087
2015    3        7    10  35    5.7138   639.4    3.208      67.085
2015    3        7    10  40    5.7116   639.4    3.207      67.084
2015    3        7    10  46    5.7093   639.4    3.206      67.084
2015    3        7    10  51    5.7071   639.4    3.205      67.083
2015    3        7    10  56    5.7049   639.4    3.204      67.083
2015    3        7    11   2    5.7027   639.5    3.203      67.084
2015    3        7    11   7    5.7005   639.5    3.202      67.084
2015    3        7    11  12    5.6983   639.5    3.201      67.085
2015    3        7    11  18    5.6962   639.5    3.200      67.085
2015    3        7    11  23    5.6940   639.6    3.199      67.085
2015    3        7    11  29    5.6918   639.6    3.198      67.085
2015    3        7    11  34    5.6896   639.6    3.197      67.085
2015    3        7    11  39    5.6874   639.6    3.196      67.085
2015    3        7    11  45    5.6853   639.6    3.195      67.085
2015    3        7    11  50    5.6831   639.7    3.193      67.084
2015    3        7    11  55    5.6810   639.7    3.192      67.082
2015    3        7    12   1    5.6788   639.7    3.191      67.080
2015    3        7    12   6    5.6766   639.7    3.190      67.078
2015    3        7    12  12    5.6745   639.8    3.189      67.075
2015    3        7    12  17    5.6723   639.8    3.187      67.072
2015    3        7    12  22    5.6702   639.8    3.186      67.068
2015    3        7    12  28    5.6680   639.8    3.185      67.063
2015    3        7    12  33    5.6658   639.8    3.183      67.058
2015    3        7    12  38    5.6636   639.8    3.182      67.053
2015    3        7    12  44    5.6615   639.9    3.181      67.048
2015    3        7    12  49    5.6593   639.9    3.179      67.041
2015    3        7    12  55    5.6571   639.9    3.178      67.035
2015    3        7    13   0    5.6550   639.9    3.176      67.028
2015    3        7    13   5    5.6529   639.9    3.175      67.021
2015    3        7    13  11    5.6507   639.9    3.173      67.013
2015    3        7    13  16    5.6486   639.9    3.172      67.006
2015    3        7    13  22    5.6464   640.0    3.170      66.998
2015    3        7    13  27    5.6443   640.0    3.168      66.989
2015    3        7    13  32    5.6421   640.0    3.167      66.981
2015    3        7    13  38    5.6400   640.0    3.165      66.972
2015    3        7    13  43    5.6378   640.0    3.164      66.963
2015    3        7    13  48    5.6357   640.0    3.162      66.954
2015    3        7    13  54    5.6336   640.0    3.161      66.945
2015    3        7    13  59    5.6315   640.0    3.159      66.936
2015    3        7    14   5    5.6294   640.0    3.158      66.927
2015    3        7    14  10    5.6273   640.0    3.156      66.919
2015    3        7    14  15    5.6252   640.0    3.155      66.910
2015    3        7    14  21    5.6231   640.1    3.153      66.902
2015    3        7    14  26    5.6210   640.1    3.152      66.894
2015    3        7    14  31    5.6190   640.1    3.150      66.886
2015    3        7    14  37    5.6169   640.1    3.149      66.879
2015    3        7    14  42    5.6149   640.1    3.148      66.871
2015    3        7    14  48    5.6129   640.1    3.146      66.865
2015    3        7    14  53    5.6108   640.1    3.145      66.858
2015    3        7    14  58    5.6088   640.1    3.144      66.852
2015    3        7    15   4    5.6068   640.1    3.143      66.846
2015    3        7    15   9    5.6048   640.1    3.142      66.841
2015    3        7    15  14    5.6027   640.1    3.141      66.837
2015    3        7    15  20    5.6007   640.1    3.140      66.833
2015    3        7    15  25    5.5987   640.1    3.139      66.830
2015    3        7    15  31    5.5967   640.1    3.138      66.827
2015    3        7    15  36    5.5947   640.1    3.137      66.825
2015    3        7    15  41    5.5926   640.1    3.136      66.823
2015    3        7    15  47    5.5907   640.1    3.135      66.821
2015    3        7    15  52    5.5887   640.1    3.134      66.819
2015    3        7    15  57    5.5866   640.1    3.133      66.817
2015    3        7    16   3    5.5846   640.1    3.132      66.816
2015    3        7    16   8    5.5826   640.1    3.131      66.815
2015    3        7    16  14    5.5807   640.1    3.130      66.814
2015    3        7    16  19    5.5786   640.1    3.129      66.813
2015    3        7    16  24    5.5767   640.1    3.129      66.811
2015    3        7    16  30    5.5746   640.1    3.128      66.810
2015    3        7    16  35    5.5727   640.1    3.127      66.809
2015    3        7    16  41    5.5707   640.1    3.126      66.808
2015    3        7    16  46    5.5687   640.1    3.125      66.806
2015    3        7    16  51    5.5667   640.1    3.124      66.804
2015    3        7    16  57    5.5647   640.1    3.123      66.802
2015    3        7    17   2    5.5628   640.1    3.122      66.799
2015    3        7    17   7    5.5607   640.1    3.121      66.796
2015    3        7    17  13    5.5588   640.1    3.121      66.792
2015    3        7    17  18    5.5568   640.1    3.120      66.788
2015    3        7    17  23    5.5548   640.1    3.119      66.784
2015    3        7    17  29    5.5529   640.0    3.118      66.779
2015    3        7    17  34    5.5509   640.0    3.117      66.773
2015    3        7    17  40    5.5489   640.0    3.116      66.767
2015    3        7    17  45    5.5470   640.0    3.115      66.761
2015    3        7    17  50    5.5451   640.0    3.114      66.754
2015    3        7    17  56    5.5432   640.0    3.113      66.746
2015    3        7    18   1    5.5413   640.0    3.112      66.738
2015    3        7    18   6    5.5394   640.0    3.111      66.730
2015    3        7    18  12    5.5374   640.0    3.110      66.721
2015    3        7    18  17    5.5355   639.9    3.109      66.711
2015    3        7    18  23    5.5336   639.9    3.108      66.701
2015    3        7    18  28    5.5317   639.9    3.107      66.691
2015    3        7    18  33    5.5299   639.9    3.106      66.680
2015    3        7    18  39    5.5280   639.9    3.105      66.669
2015    3        7    18  44    5.5261   639.9    3.103      66.658
2015    3        7    18  50    5.5242   639.8    3.102      66.646
2015    3        7    18  55    5.5224   639.8    3.101      66.634
2015    3        7    19   0    5.5204   639.8    3.100      66.621
2015    3        7    19   6    5.5186   639.8    3.099      66.609
2015    3        7    19  11    5.5168   639.8    3.098      66.596
2015    3        7    19  16    5.5150   639.7    3.097      66.583
2015    3        7    19  22    5.5131   639.7    3.096      66.569
2015    3        7    19  27    5.5113   639.7    3.095      66.556
2015    3        7    19  33    5.5094   639.7    3.094      66.543
2015    3        7    19  38    5.5076   639.6    3.093      66.529
2015    3        7    19  43    5.5058   639.6    3.092      66.516
2015    3        7    19  49    5.5040   639.6    3.091      66.502
2015    3        7    19  54    5.5022   639.5    3.090      66.488
2015    3        7    19  59    5.5003   639.5    3.089      66.475
2015    3        7    20   5    5.4985   639.5    3.088      66.462
2015    3        7    20  10    5.4967   639.5    3.087      66.448
2015    3        7    20  16    5.4950   639.4    3.086      66.435
2015    3        7    20  21    5.4931   639.4    3.085      66.422
2015    3        7    20  26    5.4913   639.4    3.084      66.409
2015    3        7    20  32    5.4895   639.3    3.082      66.397
2015    3        7    20  37    5.4877   639.3    3.082      66.384
2015    3        7    20  42    5.4859   639.3    3.081      66.372
2015    3        7    20  48    5.4841   639.2    3.080      66.360
2015    3        7    20  53    5.4824   639.2    3.079      66.349
2015    3        7    20  59    5.4806   639.2    3.078      66.338
2015    3        7    21   4    5.4788   639.1    3.077      66.327
2015    3        7    21   9    5.4770   639.1    3.076      66.317
2015    3        7    21  15    5.4753   639.0    3.075      66.308
2015    3        7    21  20    5.4735   639.0    3.074      66.298
2015    3        7    21  26    5.4717   639.0    3.074      66.289
2015    3        7    21  31    5.4700   638.9    3.073      66.281
2015    3        7    21  36    5.4682   638.9    3.072      66.273
2015    3        7    21  42    5.4665   638.9    3.072      66.266
2015    3        7    21  47    5.4647   638.8    3.071      66.259
2015    3        7    21  52    5.4631   638.8    3.070      66.253
2015    3        7    21  58    5.4613   638.7    3.070      66.247
2015    3        7    22   3    5.4597   638.7    3.069      66.242
2015    3        7    22   9    5.4579   638.7    3.069      66.237
2015    3        7    22  14    5.4563   638.6    3.069      66.233
2015    3        7    22  19    5.4546   638.6    3.068      66.229
2015    3        7    22  25    5.4530   638.6    3.068      66.225
2015    3        7    22  30    5.4513   638.5    3.068      66.222
2015    3        7    22  35    5.4497   638.5    3.068      66.220
2015    3        7    22  41    5.4481   638.4    3.068      66.218
2015    3        7    22  46    5.4465   638.4    3.068      66.216
2015    3        7    22  52    5.4449   638.4    3.068      66.215
2015    3        7    22  57    5.4433   638.3    3.068      66.215
2015    3        7    23   2    5.4417   638.3    3.068      66.215
2015    3        7    23   8    5.4401   638.3    3.068      66.215
2015    3        7    23  13    5.4386   638.2    3.068      66.216
2015    3        7    23  18    5.4370   638.2    3.069      66.217
2015    3        7    23  24    5.4354   638.2    3.069      66.219
2015    3        7    23  29    5.4339   638.1    3.069      66.220
2015    3        7    23  35    5.4323   638.1    3.069      66.221
2015    3        7    23  40    5.4307   638.1    3.069      66.223
2015    3        7    23  45    5.4292   638.0    3.069      66.224
2015    3        7    23  51    5.4276   638.0    3.069      66.225
2015    3        7    23  56    5.4260   638.0    3.069      66.226
2015    3        8     0   1    5.4244   637.9    3.069      66.227
2015    3        8     0   7    5.4229   637.9    3.069      66.227
2015    3        8     0  12    5.4213   637.9    3.069      66.227
2015    3        8     0  18    5.4197   637.9    3.069      66.226
2015    3        8     0  23    5.4181   637.8    3.069      66.225
2015    3        8     0  28    5.4165   637.8    3.069      66.223
2015    3        8     0  34    5.4149   637.8    3.068      66.221
2015    3        8     0  39    5.4133   637.7    3.068      66.218
2015    3        8     0  44    5.4117   637.7    3.068      66.214
2015    3        8     0  50    5.4102   637.7    3.068      66.210
2015    3        8     0  55    5.4086   637.6    3.067      66.205
2015    3        8     1   1    5.4069   637.6    3.067      66.200
2015    3        8     1   6    5.4054   637.6    3.066      66.194
2015    3        8     1  11    5.4037   637.5    3.066      66.187
2015    3        8     1  17    5.4021   637.5    3.066      66.181
2015    3        8     1  22    5.4006   637.5    3.065      66.174
2015    3        8     1  27    5.3990   637.4    3.065      66.166
2015    3        8     1  33    5.3974   637.4    3.064      66.158
2015    3        8     1  38    5.3957   637.3    3.064      66.149
2015    3        8     1  44    5.3941   637.3    3.063      66.140
2015    3        8     1  49    5.3925   637.3    3.062      66.130
2015    3        8     1  54    5.3909   637.2    3.062      66.119
2015    3        8     2   0    5.3893   637.2    3.061      66.108
2015    3        8     2   5    5.3877   637.1    3.060      66.097
2015    3        8     2  10    5.3860   637.1    3.060      66.084
2015    3        8     2  16    5.3844   637.0    3.059      66.071
2015    3        8     2  21    5.3827   637.0    3.058      66.058
2015    3        8     2  27    5.3811   637.0    3.057      66.043
2015    3        8     2  32    5.3795   636.9    3.057      66.029
2015    3        8     2  37    5.3778   636.9    3.056      66.014
2015    3        8     2  43    5.3761   636.8    3.055      65.999
2015    3        8     2  48    5.3745   636.7    3.054      65.983
2015    3        8     2  54    5.3729   636.7    3.054      65.967
2015    3        8     2  59    5.3712   636.6    3.053      65.951
2015    3        8     3   4    5.3696   636.6    3.052      65.935
2015    3        8     3  10    5.3679   636.5    3.052      65.919
2015    3        8     3  15    5.3663   636.5    3.051      65.903
2015    3        8     3  20    5.3647   636.4    3.050      65.888
2015    3        8     3  26    5.3631   636.3    3.050      65.872
2015    3        8     3  31    5.3614   636.3    3.049      65.856
2015    3        8     3  37    5.3599   636.2    3.048      65.841
2015    3        8     3  42    5.3582   636.2    3.048      65.826
2015    3        8     3  47    5.3566   636.1    3.047      65.812
2015    3        8     3  53    5.3551   636.0    3.047      65.797
2015    3        8     3  58    5.3535   636.0    3.046      65.783
2015    3        8     4   3    5.3519   635.9    3.046      65.769
2015    3        8     4   9    5.3503   635.9    3.045      65.755
2015    3        8     4  14    5.3487   635.8    3.045      65.742
2015    3        8     4  20    5.3471   635.7    3.044      65.729
2015    3        8     4  25    5.3456   635.7    3.044      65.716
2015    3        8     4  30    5.3440   635.6    3.043      65.703
2015    3        8     4  36    5.3424   635.5    3.043      65.690
2015    3        8     4  41    5.3408   635.5    3.042      65.678
2015    3        8     4  46    5.3393   635.4    3.042      65.666
2015    3        8     4  52    5.3377   635.3    3.042      65.654
2015    3        8     4  57    5.3361   635.3    3.041      65.643
2015    3        8     5   3    5.3346   635.2    3.041      65.631
2015    3        8     5   8    5.3330   635.1    3.041      65.620
2015    3        8     5  13    5.3315   635.1    3.041      65.610
2015    3        8     5  19    5.3299   635.0    3.040      65.599
2015    3        8     5  24    5.3284   634.9    3.040      65.590
2015    3        8     5  30    5.3269   634.9    3.040      65.580
2015    3        8     5  35    5.3254   634.8    3.040      65.571
2015    3        8     5  40    5.3239   634.7    3.040      65.563
2015    3        8     5  46    5.3225   634.7    3.040      65.555
2015    3        8     5  51    5.3210   634.6    3.040      65.547
2015    3        8     5  56    5.3196   634.5    3.040      65.541
2015    3        8     6   2    5.3182   634.5    3.040      65.534
2015    3        8     6   7    5.3168   634.4    3.040      65.528
2015    3        8     6  13    5.3154   634.3    3.040      65.523
2015    3        8     6  18    5.3140   634.3    3.040      65.518
2015    3        8     6  23    5.3126   634.2    3.041      65.514
2015    3        8     6  29    5.3113   634.2    3.041      65.510
2015    3        8     6  34    5.3099   634.1    3.041      65.506
2015    3        8     6  39    5.3086   634.0    3.042      65.503
2015    3        8     6  45    5.3072   634.0    3.042      65.501
2015    3        8     6  50    5.3059   633.9    3.043      65.499
2015    3        8     6  56    5.3045   633.9    3.043      65.498
2015    3        8     7   1    5.3031   633.8    3.043      65.496
2015    3        8     7   6    5.3017   633.7    3.044      65.495
2015    3        8     7  12    5.3003   633.7    3.044      65.493
2015    3        8     7  17    5.2990   633.6    3.044      65.492
2015    3        8     7  22    5.2975   633.6    3.044      65.490
2015    3        8     7  28    5.2962   633.5    3.045      65.489
2015    3        8     7  33    5.2948   633.5    3.045      65.487
2015    3        8     7  39    5.2934   633.4    3.045      65.486
2015    3        8     7  44    5.2920   633.3    3.045      65.483
2015    3        8     7  49    5.2906   633.3    3.046      65.481
2015    3        8     7  55    5.2892   633.2    3.046      65.478
2015    3        8     8   0    5.2878   633.2    3.046      65.475
2015    3        8     8   5    5.2865   633.1    3.046      65.472
2015    3        8     8  11    5.2851   633.0    3.046      65.470
2015    3        8     8  16    5.2837   633.0    3.046      65.467
2015    3        8     8  22    5.2823   632.9    3.047      65.464
2015    3        8     8  27    5.2809   632.9    3.047      65.460
2015    3        8     8  32    5.2795   632.8    3.047      65.457
2015    3        8     8  38    5.2781   632.8    3.047      65.453
2015    3        8     8  43    5.2767   632.7    3.047      65.448
2015    3        8     8  48    5.2753   632.7    3.047      65.443
2015    3        8     8  54    5.2739   632.6    3.047      65.438
2015    3        8     8  59    5.2724   632.5    3.046      65.432
2015    3        8     9   5    5.2709   632.5    3.046      65.425
2015    3        8     9  10    5.2695   632.4    3.046      65.417
2015    3        8     9  15    5.2679   632.4    3.046      65.409
2015    3        8     9  21    5.2664   632.3    3.046      65.400
2015    3        8     9  26    5.2649   632.3    3.045      65.389
2015    3        8     9  31    5.2634   632.2    3.045      65.379
2015    3        8     9  37    5.2619   632.1    3.045      65.367
2015    3        8     9  42    5.2603   632.1    3.044      65.355
2015    3        8     9  48    5.2587   632.0    3.044      65.341
2015    3        8     9  53    5.2572   631.9    3.043      65.327
2015    3        8     9  58    5.2556   631.9    3.043      65.312
2015    3        8    10   4    5.2540   631.8    3.043      65.297
2015    3        8    10   9    5.2524   631.7    3.042      65.280
2015    3        8    10  14    5.2508   631.7    3.042      65.263
2015    3        8    10  20    5.2491   631.6    3.041      65.246
2015    3        8    10  25    5.2475   631.5    3.041      65.227
2015    3        8    10  31    5.2459   631.4    3.040      65.209
2015    3        8    10  36    5.2443   631.3    3.040      65.189
2015    3        8    10  41    5.2427   631.3    3.039      65.170
2015    3        8    10  47    5.2410   631.2    3.039      65.150
2015    3        8    10  52    5.2394   631.1    3.038      65.130
2015    3        8    10  58    5.2378   631.0    3.038      65.110
2015    3        8    11   3    5.2362   630.9    3.037      65.091
2015    3        8    11   8    5.2346   630.8    3.037      65.071
2015    3        8    11  14    5.2331   630.7    3.037      65.052
2015    3        8    11  19    5.2315   630.7    3.036      65.033
2015    3        8    11  24    5.2300   630.6    3.036      65.014
2015    3        8    11  30    5.2285   630.5    3.036      64.997
2015    3        8    11  35    5.2270   630.4    3.036      64.980
2015    3        8    11  41    5.2256   630.3    3.036      64.964
2015    3        8    11  46    5.2241   630.2    3.036      64.948
2015    3        8    11  51    5.2227   630.1    3.036      64.933
2015    3        8    11  57    5.2213   630.0    3.036      64.920
2015    3        8    12   2    5.2200   629.9    3.036      64.909
2015    3        8    12   7    5.2186   629.8    3.037      64.898
2015    3        8    12  13    5.2172   629.7    3.037      64.889
2015    3        8    12  18    5.2159   629.7    3.037      64.880
2015    3        8    12  24    5.2145   629.6    3.037      64.872
2015    3        8    12  29    5.2132   629.5    3.038      64.865
2015    3        8    12  34    5.2119   629.4    3.038      64.858
2015    3        8    12  40    5.2105   629.3    3.038      64.851
2015    3        8    12  45    5.2091   629.2    3.038      64.845
2015    3        8    12  50    5.2078   629.2    3.039      64.838
2015    3        8    12  56    5.2064   629.1    3.039      64.832
2015    3        8    13   1    5.2050   629.0    3.039      64.826
2015    3        8    13   7    5.2036   628.9    3.039      64.819
2015    3        8    13  12    5.2022   628.8    3.039      64.812
2015    3        8    13  17    5.2008   628.7    3.039      64.804
2015    3        8    13  23    5.1994   628.7    3.039      64.797
2015    3        8    13  28    5.1979   628.6    3.040      64.789
2015    3        8    13  34    5.1965   628.5    3.040      64.781
2015    3        8    13  39    5.1951   628.4    3.040      64.773
2015    3        8    13  44    5.1936   628.3    3.040      64.764
2015    3        8    13  50    5.1922   628.2    3.040      64.755
2015    3        8    13  55    5.1908   628.2    3.040      64.747
2015    3        8    14   0    5.1893   628.1    3.040      64.738
2015    3        8    14   6    5.1878   628.0    3.040      64.728
2015    3        8    14  11    5.1864   627.9    3.040      64.719
2015    3        8    14  17    5.1849   627.8    3.041      64.709
2015    3        8    14  22    5.1834   627.8    3.041      64.699
2015    3        8    14  27    5.1819   627.7    3.041      64.689
2015    3        8    14  33    5.1804   627.6    3.041      64.679
2015    3        8    14  38    5.1790   627.5    3.041      64.668
2015    3        8    14  43    5.1775   627.4    3.041      64.658
2015    3        8    14  49    5.1760   627.4    3.041      64.647
2015    3        8    14  54    5.1745   627.3    3.041      64.636
2015    3        8    15   0    5.1730   627.2    3.042      64.625
2015    3        8    15   5    5.1715   627.1    3.042      64.615
2015    3        8    15  10    5.1700   627.0    3.042      64.604
2015    3        8    15  16    5.1685   627.0    3.042      64.593
2015    3        8    15  21    5.1670   626.9    3.042      64.582
2015    3        8    15  26    5.1655   626.8    3.042      64.572
2015    3        8    15  32    5.1641   626.7    3.042      64.562
2015    3        8    15  37    5.1626   626.6    3.043      64.552
2015    3        8    15  43    5.1611   626.6    3.043      64.542
2015    3        8    15  48    5.1596   626.5    3.043      64.532
2015    3        8    15  53    5.1582   626.4    3.043      64.523
2015    3        8    15  59    5.1567   626.3    3.043      64.514
2015    3        8    16   4    5.1552   626.2    3.043      64.505
2015    3        8    16   9    5.1537   626.2    3.043      64.496
2015    3        8    16  15    5.1522   626.1    3.044      64.487
2015    3        8    16  20    5.1508   626.0    3.044      64.478
2015    3        8    16  26    5.1493   625.9    3.044      64.469
2015    3        8    16  31    5.1478   625.8    3.044      64.460
2015    3        8    16  36    5.1463   625.8    3.044      64.451
2015    3        8    16  42    5.1448   625.7    3.044      64.441
2015    3        8    16  47    5.1433   625.6    3.044      64.431
2015    3        8    16  52    5.1417   625.5    3.044      64.421
2015    3        8    16  58    5.1402   625.4    3.044      64.411
2015    3        8    17   3    5.1387   625.3    3.044      64.400
2015    3        8    17   9    5.1371   625.3    3.044      64.389
2015    3        8    17  14    5.1356   625.2    3.044      64.378
2015    3        8    17  19    5.1340   625.1    3.044      64.367
2015    3        8    17  25    5.1324   625.0    3.044      64.354
2015    3        8    17  30    5.1309   624.9    3.044      64.341
2015    3        8    17  35    5.1292   624.8    3.044      64.328
2015    3        8    17  41    5.1276   624.7    3.044      64.314
2015    3        8    17  46    5.1260   624.6    3.044      64.299
2015    3        8    17  52    5.1244   624.5    3.044      64.284
2015    3        8    17  57    5.1228   624.4    3.043      64.268
2015    3        8    18   2    5.1211   624.3    3.043      64.251
2015    3        8    18   8    5.1194   624.3    3.043      64.233
2015    3        8    18  13    5.1178   624.2    3.043      64.215
2015    3        8    18  18    5.1161   624.1    3.042      64.196
2015    3        8    18  24    5.1144   624.0    3.042      64.176
2015    3        8    18  29    5.1127   623.8    3.042      64.156
2015    3        8    18  35    5.1110   623.7    3.042      64.135
2015    3        8    18  40    5.1092   623.6    3.041      64.113
2015    3        8    18  45    5.1075   623.5    3.041      64.092
2015    3        8    18  51    5.1058   623.4    3.041      64.070
2015    3        8    18  56    5.1040   623.3    3.041      64.047
2015    3        8    19   2    5.1023   623.2    3.040      64.025
2015    3        8    19   7    5.1006   623.1    3.040      64.003
2015    3        8    19  12    5.0989   623.0    3.040      63.981
2015    3        8    19  18    5.0971   622.9    3.040      63.959
2015    3        8    19  23    5.0954   622.8    3.040      63.938
2015    3        8    19  28    5.0937   622.6    3.040      63.917
2015    3        8    19  34    5.0920   622.5    3.040      63.897
2015    3        8    19  39    5.0903   622.4    3.040      63.877
2015    3        8    19  45    5.0886   622.3    3.040      63.858
2015    3        8    19  50    5.0869   622.2    3.040      63.840
2015    3        8    19  55    5.0853   622.1    3.040      63.822
2015    3        8    20   1    5.0836   621.9    3.041      63.806
2015    3        8    20   6    5.0818   621.8    3.041      63.790
2015    3        8    20  11    5.0802   621.7    3.041      63.775
2015    3        8    20  17    5.0784   621.6    3.041      63.761
2015    3        8    20  22    5.0767   621.5    3.041      63.746
2015    3        8    20  28    5.0750   621.4    3.042      63.732
2015    3        8    20  33    5.0732   621.3    3.042      63.718
2015    3        8    20  38    5.0715   621.1    3.042      63.705
2015    3        8    20  44    5.0698   621.0    3.043      63.691
2015    3        8    20  49    5.0680   620.9    3.043      63.678
2015    3        8    20  54    5.0663   620.8    3.043      63.665
2015    3        8    21   0    5.0645   620.7    3.043      63.651
2015    3        8    21   5    5.0628   620.6    3.044      63.638
2015    3        8    21  11    5.0610   620.4    3.044      63.624
2015    3        8    21  16    5.0593   620.3    3.044      63.611
2015    3        8    21  21    5.0576   620.2    3.045      63.598
2015    3        8    21  27    5.0559   620.1    3.045      63.585
2015    3        8    21  32    5.0541   620.0    3.045      63.573
2015    3        8    21  37    5.0524   619.9    3.046      63.561
2015    3        8    21  43    5.0507   619.7    3.046      63.549
2015    3        8    21  48    5.0490   619.6    3.046      63.537
2015    3        8    21  54    5.0473   619.5    3.047      63.525
2015    3        8    21  59    5.0456   619.4    3.047      63.513
2015    3        8    22   4    5.0439   619.3    3.047      63.501
2015    3        8    22  10    5.0423   619.2    3.048      63.489
2015    3        8    22  15    5.0406   619.0    3.048      63.476
2015    3        8    22  20    5.0389   618.9    3.048      63.464
2015    3        8    22  26    5.0373   618.8    3.049      63.451
2015    3        8    22  31    5.0356   618.7    3.049      63.438
2015    3        8    22  37    5.0340   618.6    3.049      63.424
2015    3        8    22  42    5.0323   618.5    3.049      63.410
2015    3        8    22  47    5.0307   618.4    3.049      63.396
2015    3        8    22  53    5.0290   618.3    3.050      63.382
2015    3        8    22  58    5.0274   618.2    3.050      63.367
2015    3        8    23   3    5.0257   618.0    3.050      63.352
2015    3        8    23   9    5.0241   617.9    3.050      63.338
2015    3        8    23  14    5.0224   617.8    3.050      63.323
2015    3        8    23  20    5.0208   617.7    3.051      63.308
2015    3        8    23  25    5.0191   617.6    3.051      63.293
2015    3        8    23  30    5.0175   617.5    3.051      63.278
2015    3        8    23  36    5.0158   617.4    3.051      63.263
2015    3        8    23  41    5.0142   617.3    3.051      63.248
2015    3        8    23  46    5.0125   617.2    3.052      63.233
2015    3        8    23  52    5.0108   617.1    3.052      63.218
2015    3        8    23  57    5.0092   617.0    3.052      63.203
2015    3        9     0   3    5.0075   616.9    3.052      63.188
2015    3        9     0   8    5.0058   616.8    3.052      63.172
2015    3        9     0  13    5.0041   616.6    3.052      63.157
2015    3        9     0  19    5.0024   616.5    3.053      63.142
2015    3        9     0  24    5.0007   616.4    3.053      63.126
2015    3        9     0  30    4.9989   616.3    3.053      63.111
2015    3        9     0  35    4.9972   616.2    3.053      63.095
2015    3        9     0  40    4.9954   616.1    3.053      63.079
2015    3        9     0  46    4.9936   616.0    3.053      63.063
2015    3        9     0  51    4.9918   615.9    3.054      63.047
2015    3        9     0  56    4.9900   615.8    3.054      63.030
2015    3        9     1   2    4.9882   615.7    3.054      63.014
2015    3        9     1   7    4.9863   615.6    3.054      62.997
2015    3        9     1  13    4.9845   615.4    3.054      62.980
2015    3        9     1  18    4.9826   615.3    3.054      62.963
2015    3        9     1  23    4.9807   615.2    3.054      62.946
2015    3        9     1  29    4.9788   615.1    3.054      62.928
2015    3        9     1  34    4.9769   615.0    3.055      62.910
2015    3        9     1  39    4.9749   614.9    3.055      62.891
2015    3        9     1  45    4.9730   614.8    3.055      62.873
2015    3        9     1  50    4.9710   614.6    3.055      62.854
2015    3        9     1  56    4.9691   614.5    3.055      62.834
2015    3        9     2   1    4.9671   614.4    3.055      62.815
2015    3        9     2   6    4.9651   614.3    3.055      62.794
2015    3        9     2  12    4.9631   614.1    3.055      62.774
2015    3        9     2  17    4.9610   614.0    3.055      62.753
2015    3        9     2  22    4.9590   613.9    3.055      62.731
2015    3        9     2  28    4.9569   613.8    3.055      62.709
2015    3        9     2  33    4.9549   613.6    3.055      62.687
2015    3        9     2  39    4.9528   613.5    3.055      62.664
2015    3        9     2  44    4.9508   613.4    3.055      62.641
2015    3        9     2  49    4.9487   613.2    3.055      62.617
2015    3        9     2  55    4.9466   613.1    3.055      62.593
2015    3        9     3   0    4.9445   612.9    3.055      62.568
2015    3        9     3   6    4.9424   612.8    3.055      62.543
2015    3        9     3  11    4.9403   612.6    3.055      62.517
2015    3        9     3  16    4.9382   612.5    3.055      62.491
2015    3        9     3  22    4.9361   612.4    3.055      62.465
2015    3        9     3  27    4.9340   612.2    3.055      62.439
2015    3        9     3  32    4.9318   612.0    3.055      62.413
2015    3        9     3  38    4.9298   611.9    3.055      62.387
2015    3        9     3  43    4.9277   611.7    3.055      62.361
2015    3        9     3  49    4.9256   611.6    3.055      62.335
2015    3        9     3  54    4.9235   611.4    3.055      62.310
2015    3        9     3  59    4.9215   611.3    3.055      62.285
2015    3        9     4   5    4.9194   611.1    3.055      62.260
2015    3        9     4  10    4.9174   611.0    3.056      62.236
2015    3        9     4  15    4.9154   610.8    3.056      62.212
2015    3        9     4  21    4.9134   610.7    3.056      62.189
2015    3        9     4  26    4.9114   610.5    3.057      62.166
2015    3        9     4  32    4.9095   610.3    3.057      62.145
2015    3        9     4  37    4.9075   610.2    3.057      62.123
2015    3        9     4  42    4.9056   610.0    3.058      62.102
2015    3        9     4  48    4.9037   609.9    3.058      62.082
2015    3        9     4  53    4.9018   609.7    3.059      62.063
2015    3        9     4  58    4.8999   609.6    3.059      62.044
2015    3        9     5   4    4.8980   609.4    3.060      62.025
2015    3        9     5   9    4.8962   609.3    3.061      62.007
2015    3        9     5  15    4.8944   609.1    3.061      61.989
2015    3        9     5  20    4.8925   609.0    3.062      61.972
2015    3        9     5  25    4.8907   608.8    3.062      61.955
2015    3        9     5  31    4.8889   608.7    3.063      61.938
2015    3        9     5  36    4.8871   608.5    3.064      61.921
2015    3        9     5  41    4.8853   608.4    3.064      61.904
2015    3        9     5  47    4.8834   608.2    3.065      61.887
2015    3        9     5  52    4.8816   608.1    3.065      61.870
2015    3        9     5  58    4.8798   608.0    3.066      61.853
2015    3        9     6   3    4.8780   607.8    3.066      61.837
2015    3        9     6   8    4.8761   607.7    3.067      61.819
2015    3        9     6  14    4.8743   607.5    3.067      61.802
2015    3        9     6  19    4.8724   607.4    3.068      61.785
2015    3        9     6  24    4.8706   607.2    3.068      61.767
2015    3        9     6  30    4.8687   607.1    3.069      61.749
2015    3        9     6  35    4.8669   607.0    3.069      61.731
2015    3        9     6  41    4.8650   606.8    3.070      61.713
2015    3        9     6  46    4.8631   606.7    3.070      61.694
2015    3        9     6  51    4.8613   606.5    3.071      61.676
2015    3        9     6  57    4.8594   606.4    3.071      61.657
2015    3        9     7   2    4.8575   606.3    3.071      61.637
2015    3        9     7   7    4.8556   606.1    3.072      61.618
2015    3        9     7  13    4.8537   606.0    3.072      61.598
2015    3        9     7  18    4.8518   605.8    3.072      61.578
2015    3        9     7  24    4.8498   605.7    3.073      61.558
2015    3        9     7  29    4.8479   605.6    3.073      61.538
2015    3        9     7  34    4.8459   605.4    3.073      61.518
2015    3        9     7  40    4.8440   605.3    3.074      61.497
2015    3        9     7  45    4.8420   605.1    3.074      61.476
2015    3        9     7  50    4.8400   605.0    3.074      61.455
2015    3        9     7  56    4.8380   604.9    3.075      61.434
2015    3        9     8   1    4.8360   604.7    3.075      61.413
2015    3        9     8   7    4.8340   604.6    3.075      61.392
2015    3        9     8  12    4.8319   604.4    3.076      61.370
2015    3        9     8  17    4.8299   604.3    3.076      61.349
2015    3        9     8  23    4.8279   604.2    3.076      61.327
2015    3        9     8  28    4.8258   604.0    3.077      61.306
2015    3        9     8  34    4.8237   603.9    3.077      61.284
2015    3        9     8  39    4.8216   603.7    3.077      61.262
2015    3        9     8  44    4.8196   603.6    3.078      61.241
2015    3        9     8  50    4.8175   603.4    3.078      61.219
2015    3        9     8  55    4.8154   603.3    3.079      61.197
2015    3        9     9   0    4.8133   603.2    3.079      61.176
2015    3        9     9   6    4.8112   603.0    3.080      61.155
2015    3        9     9  11    4.8091   602.9    3.080      61.134
2015    3        9     9  17    4.8070   602.7    3.081      61.112
2015    3        9     9  22    4.8049   602.6    3.081      61.092
2015    3        9     9  27    4.8028   602.4    3.082      61.071
2015    3        9     9  33    4.8007   602.3    3.083      61.050
2015    3        9     9  38    4.7986   602.1    3.083      61.029
2015    3        9     9  43    4.7965   602.0    3.084      61.009
2015    3        9     9  49    4.7944   601.8    3.085      60.988
2015    3        9     9  54    4.7923   601.7    3.085      60.968
2015    3        9    10   0    4.7902   601.5    3.086      60.948
2015    3        9    10   5    4.7881   601.4    3.087      60.928
2015    3        9    10  10    4.7859   601.2    3.087      60.907
2015    3        9    10  16    4.7838   601.1    3.088      60.887
2015    3        9    10  21    4.7816   600.9    3.089      60.867
2015    3        9    10  26    4.7795   600.8    3.090      60.846
2015    3        9    10  32    4.7774   600.6    3.091      60.826
2015    3        9    10  37    4.7752   600.4    3.091      60.806
2015    3        9    10  43    4.7730   600.3    3.092      60.785
2015    3        9    10  48    4.7709   600.1    3.093      60.764
2015    3        9    10  53    4.7687   600.0    3.094      60.744
2015    3        9    10  59    4.7666   599.8    3.094      60.723
2015    3        9    11   4    4.7644   599.6    3.095      60.702
2015    3        9    11  10    4.7623   599.5    3.096      60.681
2015    3        9    11  15    4.7602   599.3    3.097      60.660
2015    3        9    11  20    4.7580   599.2    3.097      60.638
2015    3        9    11  26    4.7559   599.0    3.098      60.616
2015    3        9    11  31    4.7538   598.8    3.099      60.594
2015    3        9    11  36    4.7516   598.7    3.099      60.572
2015    3        9    11  42    4.7495   598.5    3.100      60.549
2015    3        9    11  47    4.7474   598.3    3.100      60.527
2015    3        9    11  53    4.7453   598.2    3.101      60.503
2015    3        9    11  58    4.7432   598.0    3.101      60.480
2015    3        9    12   3    4.7411   597.8    3.102      60.456
2015    3        9    12   9    4.7390   597.7    3.102      60.432
2015    3        9    12  14    4.7370   597.5    3.103      60.407
2015    3        9    12  19    4.7349   597.3    3.103      60.382
2015    3        9    12  25    4.7328   597.2    3.104      60.356
2015    3        9    12  30    4.7307   597.0    3.104      60.331
2015    3        9    12  36    4.7287   596.8    3.104      60.304
2015    3        9    12  41    4.7266   596.7    3.105      60.277
2015    3        9    12  46    4.7246   596.5    3.105      60.250
2015    3        9    12  52    4.7225   596.3    3.105      60.222
2015    3        9    12  57    4.7205   596.2    3.105      60.194
2015    3        9    13   2    4.7185   596.0    3.105      60.165
2015    3        9    13   8    4.7164   595.8    3.106      60.136
2015    3        9    13  13    4.7145   595.7    3.106      60.107
2015    3        9    13  19    4.7124   595.5    3.106      60.078
2015    3        9    13  24    4.7104   595.3    3.106      60.048
2015    3        9    13  29    4.7085   595.1    3.106      60.018
2015    3        9    13  35    4.7065   595.0    3.106      59.988
2015    3        9    13  40    4.7045   594.8    3.106      59.958
2015    3        9    13  45    4.7026   594.6    3.107      59.928
2015    3        9    13  51    4.7006   594.5    3.107      59.898
2015    3        9    13  56    4.6987   594.3    3.107      59.868
2015    3        9    14   2    4.6967   594.1    3.107      59.838
2015    3        9    14   7    4.6948   593.9    3.107      59.808
2015    3        9    14  12    4.6928   593.8    3.107      59.778
2015    3        9    14  18    4.6909   593.6    3.107      59.748
2015    3        9    14  23    4.6889   593.4    3.108      59.718
2015    3        9    14  28    4.6870   593.3    3.108      59.688
2015    3        9    14  34    4.6850   593.1    3.108      59.658
2015    3        9    14  39    4.6830   592.9    3.108      59.627
2015    3        9    14  45    4.6810   592.7    3.108      59.597
2015    3        9    14  50    4.6790   592.6    3.108      59.566
2015    3        9    14  55    4.6770   592.4    3.109      59.536
2015    3        9    15   1    4.6750   592.2    3.109      59.505
2015    3        9    15   6    4.6730   592.1    3.109      59.474
2015    3        9    15  11    4.6709   591.9    3.109      59.443
2015    3        9    15  17    4.6689   591.7    3.109      59.412
2015    3        9    15  22    4.6668   591.5    3.109      59.381
2015    3        9    15  28    4.6648   591.4    3.110      59.350
2015    3        9    15  33    4.6627   591.2    3.110      59.319
2015    3        9    15  38    4.6606   591.0    3.110      59.287
2015    3        9    15  44    4.6585   590.9    3.110      59.256
2015    3        9    15  49    4.6564   590.7    3.110      59.225
2015    3        9    15  54    4.6543   590.5    3.111      59.194
2015    3        9    16   0    4.6522   590.3    3.111      59.162
2015    3        9    16   5    4.6501   590.2    3.111      59.131
2015    3        9    16  11    4.6480   590.0    3.112      59.100
2015    3        9    16  16    4.6459   589.8    3.112      59.070
2015    3        9    16  21    4.6438   589.6    3.112      59.039
2015    3        9    16  27    4.6417   589.5    3.113      59.010
2015    3        9    16  32    4.6396   589.3    3.113      58.980
2015    3        9    16  38    4.6375   589.1    3.114      58.951
2015    3        9    16  43    4.6354   588.9    3.114      58.922
2015    3        9    16  48    4.6333   588.8    3.115      58.894
2015    3        9    16  54    4.6312   588.6    3.116      58.867
2015    3        9    16  59    4.6292   588.4    3.116      58.840
2015    3        9    17   4    4.6271   588.2    3.117      58.814
2015    3        9    17  10    4.6250   588.1    3.118      58.789
2015    3        9    17  15    4.6230   587.9    3.119      58.764
2015    3        9    17  21    4.6209   587.7    3.120      58.741
2015    3        9    17  26    4.6188   587.6    3.121      58.718
2015    3        9    17  31    4.6167   587.4    3.122      58.695
2015    3        9    17  37    4.6146   587.2    3.123      58.673
2015    3        9    17  42    4.6125   587.1    3.124      58.652
2015    3        9    17  47    4.6104   586.9    3.126      58.632
2015    3        9    17  53    4.6082   586.7    3.127      58.611
2015    3        9    17  58    4.6060   586.6    3.128      58.592
2015    3        9    18   4    4.6039   586.4    3.130      58.572
2015    3        9    18   9    4.6017   586.2    3.131      58.553
2015    3        9    18  14    4.5995   586.0    3.132      58.533
2015    3        9    18  20    4.5973   585.9    3.134      58.514
2015    3        9    18  25    4.5950   585.7    3.135      58.495
2015    3        9    18  30    4.5928   585.5    3.136      58.475
2015    3        9    18  36    4.5905   585.4    3.138      58.455
2015    3        9    18  41    4.5882   585.2    3.139      58.435
2015    3        9    18  47    4.5860   585.0    3.140      58.414
2015    3        9    18  52    4.5837   584.8    3.142      58.393
2015    3        9    18  57    4.5814   584.7    3.143      58.371
2015    3        9    19   3    4.5791   584.5    3.144      58.348
2015    3        9    19   8    4.5768   584.3    3.145      58.325
2015    3        9    19  14    4.5744   584.1    3.147      58.302
2015    3        9    19  19    4.5721   583.9    3.148      58.278
2015    3        9    19  24    4.5698   583.7    3.149      58.253
2015    3        9    19  30    4.5675   583.6    3.150      58.228
2015    3        9    19  35    4.5652   583.4    3.151      58.202
2015    3        9    19  40    4.5630   583.2    3.152      58.176
2015    3        9    19  46    4.5607   583.0    3.154      58.150
2015    3        9    19  51    4.5585   582.8    3.155      58.123
2015    3        9    19  57    4.5563   582.6    3.156      58.096
2015    3        9    20   2    4.5541   582.4    3.157      58.069
2015    3        9    20   7    4.5519   582.2    3.158      58.042
2015    3        9    20  13    4.5498   582.0    3.159      58.015
2015    3        9    20  18    4.5477   581.8    3.161      57.989
2015    3        9    20  23    4.5457   581.7    3.162      57.963
2015    3        9    20  29    4.5437   581.5    3.163      57.937
2015    3        9    20  34    4.5416   581.3    3.164      57.911
2015    3        9    20  39    4.5397   581.1    3.165      57.886
2015    3        9    20  45    4.5377   580.9    3.166      57.861
2015    3        9    20  50    4.5358   580.7    3.167      57.836
2015    3        9    20  56    4.5339   580.5    3.168      57.810
2015    3        9    21   1    4.5320   580.3    3.169      57.785
2015    3        9    21   6    4.5302   580.1    3.170      57.759
2015    3        9    21  12    4.5283   579.9    3.171      57.733
2015    3        9    21  17    4.5265   579.8    3.172      57.708
2015    3        9    21  23    4.5246   579.6    3.173      57.681
2015    3        9    21  28    4.5228   579.4    3.174      57.654
2015    3        9    21  33    4.5209   579.2    3.174      57.627
2015    3        9    21  39    4.5191   579.0    3.175      57.599
2015    3        9    21  44    4.5172   578.8    3.176      57.571
2015    3        9    21  49    4.5153   578.6    3.176      57.542
2015    3        9    21  55    4.5135   578.5    3.177      57.513
2015    3        9    22   0    4.5116   578.3    3.178      57.483
2015    3        9    22   6    4.5097   578.1    3.178      57.453
2015    3        9    22  11    4.5078   577.9    3.179      57.423
2015    3        9    22  16    4.5059   577.7    3.179      57.392
2015    3        9    22  22    4.5039   577.5    3.180      57.360
2015    3        9    22  27    4.5021   577.4    3.180      57.328
2015    3        9    22  32    4.5001   577.2    3.181      57.295
2015    3        9    22  38    4.4981   577.0    3.181      57.262
2015    3        9    22  43    4.4962   576.8    3.181      57.228
2015    3        9    22  49    4.4942   576.6    3.181      57.194
2015    3        9    22  54    4.4922   576.4    3.182      57.158
2015    3        9    22  59    4.4902   576.3    3.182      57.123
2015    3        9    23   5    4.4882   576.1    3.182      57.087
2015    3        9    23  10    4.4863   575.9    3.182      57.050
2015    3        9    23  15    4.4842   575.7    3.182      57.013
2015    3        9    23  21    4.4822   575.5    3.182      56.975
2015    3        9    23  26    4.4802   575.3    3.182      56.937
2015    3        9    23  32    4.4782   575.1    3.182      56.898
2015    3        9    23  37    4.4761   575.0    3.182      56.859
2015    3        9    23  42    4.4741   574.8    3.182      56.820
2015    3        9    23  48    4.4720   574.6    3.182      56.780
2015    3        9    23  53    4.4699   574.4    3.182      56.740
2015    3        9    23  58    4.4678   574.2    3.182      56.699
2015    3       10     0   4    4.4658   574.0    3.182      56.659
2015    3       10     0   9    4.4637   573.8    3.182      56.618
2015    3       10     0  15    4.4616   573.6    3.181      56.577
2015    3       10     0  20    4.4595   573.4    3.181      56.536
2015    3       10     0  25    4.4574   573.3    3.181      56.495
2015    3       10     0  31    4.4554   573.1    3.181      56.454
2015    3       10     0  36    4.4533   572.9    3.181      56.413
2015    3       10     0  42    4.4512   572.7    3.181      56.372
2015    3       10     0  47    4.4491   572.5    3.181      56.332
2015    3       10     0  52    4.4470   572.3    3.181      56.291
2015    3       10     0  58    4.4449   572.1    3.181      56.251
2015    3       10     1   3    4.4428   571.9    3.181      56.211
2015    3       10     1   8    4.4406   571.7    3.181      56.171
2015    3       10     1  14    4.4386   571.5    3.181      56.131
2015    3       10     1  19    4.4364   571.3    3.182      56.092
2015    3       10     1  25    4.4343   571.1    3.182      56.052
2015    3       10     1  30    4.4321   571.0    3.182      56.013
2015    3       10     1  35    4.4300   570.8    3.182      55.973
2015    3       10     1  41    4.4278   570.6    3.182      55.934
2015    3       10     1  46    4.4256   570.4    3.183      55.895
2015    3       10     1  51    4.4234   570.2    3.183      55.856
2015    3       10     1  57    4.4213   570.0    3.183      55.817
2015    3       10     2   2    4.4191   569.8    3.184      55.778
2015    3       10     2   8    4.4169   569.6    3.184      55.739
2015    3       10     2  13    4.4147   569.4    3.185      55.700
2015    3       10     2  18    4.4124   569.2    3.185      55.661
2015    3       10     2  24    4.4103   569.0    3.186      55.623
2015    3       10     2  29    4.4080   568.8    3.186      55.584
2015    3       10     2  34    4.4058   568.6    3.187      55.545
2015    3       10     2  40    4.4037   568.3    3.188      55.507
2015    3       10     2  45    4.4015   568.1    3.189      55.469
2015    3       10     2  51    4.3993   567.9    3.189      55.432
2015    3       10     2  56    4.3972   567.7    3.190      55.395
2015    3       10     3   1    4.3951   567.5    3.191      55.358
2015    3       10     3   7    4.3930   567.3    3.192      55.322
2015    3       10     3  12    4.3909   567.1    3.193      55.286
2015    3       10     3  17    4.3888   566.9    3.194      55.252
2015    3       10     3  23    4.3868   566.6    3.196      55.218
2015    3       10     3  28    4.3849   566.4    3.197      55.184
2015    3       10     3  34    4.3829   566.2    3.198      55.153
2015    3       10     3  39    4.3810   566.0    3.200      55.122
2015    3       10     3  44    4.3791   565.8    3.201      55.093
2015    3       10     3  50    4.3773   565.6    3.203      55.065
2015    3       10     3  55    4.3754   565.4    3.205      55.039
2015    3       10     4   0    4.3736   565.1    3.206      55.013
2015    3       10     4   6    4.3719   564.9    3.208      54.988
2015    3       10     4  11    4.3701   564.7    3.210      54.963
2015    3       10     4  17    4.3683   564.5    3.212      54.939
2015    3       10     4  22    4.3665   564.3    3.213      54.915
2015    3       10     4  27    4.3648   564.1    3.215      54.892
2015    3       10     4  33    4.3630   563.9    3.217      54.869
2015    3       10     4  38    4.3612   563.7    3.219      54.846
2015    3       10     4  43    4.3594   563.5    3.220      54.822
2015    3       10     4  49    4.3576   563.3    3.222      54.798
2015    3       10     4  54    4.3558   563.1    3.224      54.773
2015    3       10     5   0    4.3539   562.9    3.225      54.748
2015    3       10     5   5    4.3520   562.7    3.227      54.722
2015    3       10     5  10    4.3502   562.5    3.229      54.696
2015    3       10     5  16    4.3483   562.3    3.230      54.669
2015    3       10     5  21    4.3464   562.1    3.232      54.642
2015    3       10     5  27    4.3444   561.9    3.233      54.614
2015    3       10     5  32    4.3425   561.6    3.235      54.585
2015    3       10     5  37    4.3406   561.4    3.236      54.556
2015    3       10     5  43    4.3387   561.2    3.237      54.526
2015    3       10     5  48    4.3367   561.0    3.239      54.496
2015    3       10     5  53    4.3347   560.8    3.240      54.466
2015    3       10     5  59    4.3328   560.6    3.241      54.435
2015    3       10     6   4    4.3308   560.4    3.243      54.403
2015    3       10     6  10    4.3289   560.2    3.244      54.371
2015    3       10     6  15    4.3269   560.0    3.245      54.339
2015    3       10     6  20    4.3250   559.7    3.247      54.306
2015    3       10     6  26    4.3230   559.5    3.248      54.273
2015    3       10     6  31    4.3211   559.3    3.249      54.240
2015    3       10     6  36    4.3191   559.1    3.250      54.206
2015    3       10     6  42    4.3172   558.9    3.251      54.173
2015    3       10     6  47    4.3153   558.7    3.252      54.139
2015    3       10     6  53    4.3134   558.5    3.254      54.105
2015    3       10     6  58    4.3116   558.2    3.255      54.070
2015    3       10     7   3    4.3097   558.0    3.256      54.036
2015    3       10     7   9    4.3079   557.8    3.257      54.001
2015    3       10     7  14    4.3060   557.6    3.258      53.966
2015    3       10     7  19    4.3042   557.4    3.259      53.931
2015    3       10     7  25    4.3024   557.2    3.260      53.896
2015    3       10     7  30    4.3006   556.9    3.261      53.860
2015    3       10     7  36    4.2988   556.7    3.262      53.825
2015    3       10     7  41    4.2970   556.5    3.263      53.790
2015    3       10     7  46    4.2953   556.3    3.264      53.754
2015    3       10     7  52    4.2935   556.1    3.265      53.719
2015    3       10     7  57    4.2917   555.9    3.266      53.684
2015    3       10     8   2    4.2900   555.7    3.267      53.648
2015    3       10     8   8    4.2881   555.4    3.268      53.613
2015    3       10     8  13    4.2863   555.2    3.268      53.577
2015    3       10     8  19    4.2846   555.0    3.269      53.542
2015    3       10     8  24    4.2828   554.8    3.270      53.506
2015    3       10     8  29    4.2811   554.6    3.271      53.470
2015    3       10     8  35    4.2793   554.4    3.271      53.434
2015    3       10     8  40    4.2775   554.1    3.272      53.397
2015    3       10     8  46    4.2758   553.9    3.272      53.360
2015    3       10     8  51    4.2739   553.7    3.273      53.323
2015    3       10     8  56    4.2721   553.5    3.273      53.285
2015    3       10     9   2    4.2704   553.3    3.274      53.247
2015    3       10     9   7    4.2686   553.1    3.274      53.208
2015    3       10     9  12    4.2668   552.9    3.275      53.169
2015    3       10     9  18    4.2650   552.6    3.275      53.130
2015    3       10     9  23    4.2632   552.4    3.275      53.090
2015    3       10     9  29    4.2614   552.2    3.276      53.050
2015    3       10     9  34    4.2596   552.0    3.276      53.010
2015    3       10     9  39    4.2578   551.8    3.276      52.969
2015    3       10     9  45    4.2561   551.6    3.277      52.928
2015    3       10     9  50    4.2542   551.3    3.277      52.888
2015    3       10     9  55    4.2524   551.1    3.277      52.846
2015    3       10    10   1    4.2506   550.9    3.278      52.805
2015    3       10    10   6    4.2489   550.7    3.278      52.763
2015    3       10    10  12    4.2470   550.5    3.278      52.722
2015    3       10    10  17    4.2453   550.2    3.279      52.680
2015    3       10    10  22    4.2434   550.0    3.279      52.639
2015    3       10    10  28    4.2417   549.8    3.279      52.598
2015    3       10    10  33    4.2399   549.6    3.280      52.556
2015    3       10    10  38    4.2381   549.4    3.280      52.515
2015    3       10    10  44    4.2363   549.1    3.281      52.474
2015    3       10    10  49    4.2346   548.9    3.281      52.434
2015    3       10    10  55    4.2329   548.7    3.282      52.393
2015    3       10    11   0    4.2310   548.5    3.282      52.353
2015    3       10    11   5    4.2293   548.3    3.283      52.313
2015    3       10    11  11    4.2275   548.0    3.284      52.273
2015    3       10    11  16    4.2258   547.8    3.284      52.234
2015    3       10    11  21    4.2240   547.6    3.285      52.195
2015    3       10    11  27    4.2223   547.4    3.286      52.156
2015    3       10    11  32    4.2205   547.2    3.286      52.117
2015    3       10    11  38    4.2188   546.9    3.287      52.078
2015    3       10    11  43    4.2170   546.7    3.288      52.039
2015    3       10    11  48    4.2152   546.5    3.289      52.001
2015    3       10    11  54    4.2134   546.3    3.290      51.962
2015    3       10    11  59    4.2116   546.1    3.290      51.924
2015    3       10    12   4    4.2098   545.8    3.291      51.885
2015    3       10    12  10    4.2080   545.6    3.292      51.846
2015    3       10    12  15    4.2062   545.4    3.293      51.807
2015    3       10    12  21    4.2043   545.1    3.294      51.768
2015    3       10    12  26    4.2025   544.9    3.295      51.728
2015    3       10    12  31    4.2006   544.7    3.296      51.689
2015    3       10    12  37    4.1988   544.5    3.297      51.649
2015    3       10    12  42    4.1969   544.2    3.298      51.609
2015    3       10    12  47    4.1950   544.0    3.299      51.569
2015    3       10    12  53    4.1931   543.7    3.299      51.528
2015    3       10    12  58    4.1913   543.5    3.300      51.488
2015    3       10    13   4    4.1894   543.3    3.301      51.447
2015    3       10    13   9    4.1875   543.0    3.302      51.407
2015    3       10    13  14    4.1857   542.8    3.304      51.367
2015    3       10    13  20    4.1838   542.5    3.305      51.326
2015    3       10    13  25    4.1820   542.3    3.306      51.286
2015    3       10    13  31    4.1802   542.0    3.307      51.246
2015    3       10    13  36    4.1784   541.8    3.308      51.207
2015    3       10    13  41    4.1767   541.5    3.310      51.168
2015    3       10    13  47    4.1749   541.3    3.311      51.130
2015    3       10    13  52    4.1733   541.0    3.312      51.092
2015    3       10    13  57    4.1716   540.8    3.314      51.054
2015    3       10    14   3    4.1700   540.5    3.316      51.017
2015    3       10    14   8    4.1684   540.3    3.317      50.981
2015    3       10    14  14    4.1668   540.0    3.319      50.946
2015    3       10    14  19    4.1653   539.8    3.321      50.911
2015    3       10    14  24    4.1639   539.5    3.323      50.877
2015    3       10    14  30    4.1624   539.3    3.325      50.844
2015    3       10    14  35    4.1611   539.0    3.327      50.812
2015    3       10    14  40    4.1597   538.8    3.329      50.780
2015    3       10    14  46    4.1584   538.6    3.331      50.749
2015    3       10    14  51    4.1571   538.3    3.334      50.719
2015    3       10    14  57    4.1559   538.1    3.336      50.690
2015    3       10    15   2    4.1546   537.8    3.339      50.662
2015    3       10    15   7    4.1534   537.6    3.341      50.634
2015    3       10    15  13    4.1522   537.4    3.343      50.607
2015    3       10    15  18    4.1509   537.1    3.346      50.580
2015    3       10    15  23    4.1498   536.9    3.348      50.553
2015    3       10    15  29    4.1486   536.6    3.351      50.527
2015    3       10    15  34    4.1473   536.4    3.353      50.501
2015    3       10    15  40    4.1461   536.2    3.356      50.476
2015    3       10    15  45    4.1449   535.9    3.358      50.450
2015    3       10    15  50    4.1437   535.7    3.361      50.425
2015    3       10    15  56    4.1425   535.5    3.363      50.399
2015    3       10    16   1    4.1412   535.2    3.365      50.373
2015    3       10    16   6    4.1399   535.0    3.368      50.347
2015    3       10    16  12    4.1387   534.8    3.370      50.320
2015    3       10    16  17    4.1374   534.5    3.372      50.294
2015    3       10    16  23    4.1361   534.3    3.374      50.267
2015    3       10    16  28    4.1348   534.1    3.376      50.240
2015    3       10    16  33    4.1335   533.8    3.378      50.213
2015    3       10    16  39    4.1322   533.6    3.380      50.185
2015    3       10    16  44    4.1309   533.4    3.382      50.157
2015    3       10    16  50    4.1296   533.1    3.384      50.129
2015    3       10    16  55    4.1282   532.9    3.386      50.100
2015    3       10    17   0    4.1269   532.7    3.388      50.071
2015    3       10    17   6    4.1255   532.5    3.390      50.041
2015    3       10    17  11    4.1242   532.2    3.391      50.012
2015    3       10    17  16    4.1228   532.0    3.393      49.981
2015    3       10    17  22    4.1214   531.8    3.395      49.951
2015    3       10    17  27    4.1200   531.5    3.396      49.920
2015    3       10    17  33    4.1186   531.3    3.398      49.889
2015    3       10    17  38    4.1172   531.1    3.400      49.857
2015    3       10    17  43    4.1158   530.8    3.401      49.825
2015    3       10    17  49    4.1144   530.6    3.402      49.792
2015    3       10    17  54    4.1130   530.4    3.404      49.760
2015    3       10    17  59    4.1115   530.1    3.405      49.726
2015    3       10    18   5    4.1101   529.9    3.407      49.693
2015    3       10    18  10    4.1087   529.7    3.408      49.659
2015    3       10    18  16    4.1072   529.4    3.409      49.625
2015    3       10    18  21    4.1058   529.2    3.411      49.590
2015    3       10    18  26    4.1043   529.0    3.412      49.555
2015    3       10    18  32    4.1029   528.7    3.413      49.520
2015    3       10    18  37    4.1014   528.5    3.414      49.485
2015    3       10    18  42    4.1000   528.3    3.415      49.449
2015    3       10    18  48    4.0985   528.0    3.416      49.413
2015    3       10    18  53    4.0971   527.8    3.418      49.377
2015    3       10    18  59    4.0956   527.5    3.419      49.341
2015    3       10    19   4    4.0941   527.3    3.420      49.304
2015    3       10    19   9    4.0927   527.1    3.421      49.268
2015    3       10    19  15    4.0911   526.8    3.422      49.231
2015    3       10    19  20    4.0897   526.6    3.423      49.193
2015    3       10    19  25    4.0883   526.4    3.424      49.156
2015    3       10    19  31    4.0867   526.1    3.425      49.118
2015    3       10    19  36    4.0853   525.9    3.426      49.080
2015    3       10    19  42    4.0838   525.6    3.427      49.042
2015    3       10    19  47    4.0823   525.4    3.427      49.003
2015    3       10    19  52    4.0808   525.2    3.428      48.965
2015    3       10    19  58    4.0794   524.9    3.429      48.925
2015    3       10    20   3    4.0779   524.7    3.430      48.886
2015    3       10    20   8    4.0765   524.4    3.431      48.847
2015    3       10    20  14    4.0750   524.2    3.432      48.807
2015    3       10    20  19    4.0735   523.9    3.433      48.767
2015    3       10    20  25    4.0722   523.7    3.433      48.727
2015    3       10    20  30    4.0707   523.4    3.434      48.687
2015    3       10    20  35    4.0693   523.2    3.435      48.647
2015    3       10    20  41    4.0679   522.9    3.436      48.607
2015    3       10    20  46    4.0665   522.7    3.437      48.566
2015    3       10    20  51    4.0652   522.4    3.438      48.526
2015    3       10    20  57    4.0638   522.2    3.439      48.486
2015    3       10    21   2    4.0625   521.9    3.440      48.447
2015    3       10    21   8    4.0611   521.7    3.441      48.407
2015    3       10    21  13    4.0598   521.4    3.442      48.368
2015    3       10    21  18    4.0586   521.2    3.444      48.330
2015    3       10    21  24    4.0574   520.9    3.445      48.291
2015    3       10    21  29    4.0561   520.7    3.446      48.253
2015    3       10    21  35    4.0549   520.4    3.448      48.216
2015    3       10    21  40    4.0538   520.2    3.449      48.178
2015    3       10    21  45    4.0526   519.9    3.451      48.142
2015    3       10    21  51    4.0515   519.7    3.452      48.105
2015    3       10    21  56    4.0504   519.4    3.454      48.070
2015    3       10    22   1    4.0494   519.2    3.456      48.034
2015    3       10    22   7    4.0483   519.0    3.457      47.999
2015    3       10    22  12    4.0473   518.7    3.459      47.965
2015    3       10    22  18    4.0463   518.5    3.461      47.931
2015    3       10    22  23    4.0453   518.2    3.463      47.897
2015    3       10    22  28    4.0443   518.0    3.465      47.863
2015    3       10    22  34    4.0433   517.7    3.467      47.830
2015    3       10    22  39    4.0423   517.5    3.469      47.797
2015    3       10    22  44    4.0414   517.2    3.471      47.764
2015    3       10    22  50    4.0404   517.0    3.474      47.732
2015    3       10    22  55    4.0394   516.8    3.476      47.699
2015    3       10    23   1    4.0384   516.5    3.478      47.667
2015    3       10    23   6    4.0375   516.3    3.480      47.635
2015    3       10    23  11    4.0365   516.0    3.483      47.603
2015    3       10    23  17    4.0355   515.8    3.485      47.571
2015    3       10    23  22    4.0345   515.5    3.487      47.539
2015    3       10    23  27    4.0335   515.3    3.489      47.507
2015    3       10    23  33    4.0325   515.0    3.492      47.475
2015    3       10    23  38    4.0316   514.8    3.494      47.444
2015    3       10    23  44    4.0306   514.5    3.497      47.412
2015    3       10    23  49    4.0296   514.3    3.499      47.381
2015    3       10    23  54    4.0286   514.0    3.501      47.349
2015    3       11     0   0    4.0276   513.8    3.504      47.318
