year    month   day   hour  minute  B_enl V_enl   n_enl       T_enl
[year] [month] [day] [hour][minute] [nT]  [km/s]  [cm-3]      [kK]
2015    2        2     0   3    5.4290   631.7    3.020      57.510
2015    2        2     0   8    5.4262   631.6    3.020      57.467
2015    2        2     0  13    5.4234   631.4    3.019      57.424
2015    2        2     0  18    5.4207   631.3    3.018      57.380
2015    2        2     0  23    5.4178   631.2    3.018      57.336
2015    2        2     0  28    5.4151   631.1    3.017      57.291
2015    2        2     0  34    5.4124   631.0    3.016      57.246
2015    2        2     0  39    5.4097   630.8    3.015      57.200
2015    2        2     0  44    5.4071   630.7    3.014      57.153
2015    2        2     0  49    5.4044   630.6    3.013      57.106
2015    2        2     0  54    5.4017   630.5    3.012      57.059
2015    2        2     0  59    5.3991   630.3    3.011      57.011
2015    2        2     1   4    5.3965   630.2    3.010      56.962
2015    2        2     1   9    5.3939   630.1    3.009      56.914
2015    2        2     1  14    5.3913   630.0    3.008      56.864
2015    2        2     1  20    5.3887   629.8    3.007      56.815
2015    2        2     1  25    5.3861   629.7    3.006      56.765
2015    2        2     1  30    5.3835   629.6    3.005      56.715
2015    2        2     1  35    5.3809   629.4    3.004      56.664
2015    2        2     1  40    5.3784   629.3    3.003      56.614
2015    2        2     1  45    5.3758   629.2    3.001      56.562
2015    2        2     1  50    5.3732   629.1    3.000      56.511
2015    2        2     1  55    5.3706   628.9    2.999      56.459
2015    2        2     2   0    5.3680   628.8    2.998      56.407
2015    2        2     2   5    5.3655   628.7    2.996      56.354
2015    2        2     2  11    5.3628   628.5    2.995      56.302
2015    2        2     2  16    5.3601   628.4    2.994      56.249
2015    2        2     2  21    5.3576   628.3    2.992      56.195
2015    2        2     2  26    5.3548   628.1    2.991      56.142
2015    2        2     2  31    5.3522   628.0    2.990      56.088
2015    2        2     2  36    5.3495   627.9    2.988      56.034
2015    2        2     2  41    5.3468   627.7    2.987      55.980
2015    2        2     2  46    5.3441   627.6    2.985      55.926
2015    2        2     2  51    5.3414   627.5    2.984      55.871
2015    2        2     2  57    5.3387   627.3    2.983      55.817
2015    2        2     3   2    5.3360   627.2    2.981      55.762
2015    2        2     3   7    5.3332   627.0    2.980      55.708
2015    2        2     3  12    5.3304   626.9    2.978      55.653
2015    2        2     3  17    5.3277   626.8    2.977      55.599
2015    2        2     3  22    5.3249   626.6    2.976      55.544
2015    2        2     3  27    5.3221   626.5    2.974      55.490
2015    2        2     3  32    5.3194   626.3    2.973      55.436
2015    2        2     3  37    5.3166   626.2    2.972      55.383
2015    2        2     3  42    5.3138   626.0    2.971      55.329
2015    2        2     3  48    5.3110   625.9    2.969      55.277
2015    2        2     3  53    5.3082   625.7    2.968      55.224
2015    2        2     3  58    5.3054   625.6    2.967      55.172
2015    2        2     4   3    5.3026   625.4    2.966      55.121
2015    2        2     4   8    5.2998   625.3    2.965      55.070
2015    2        2     4  13    5.2969   625.1    2.964      55.020
2015    2        2     4  18    5.2942   625.0    2.964      54.970
2015    2        2     4  23    5.2913   624.8    2.963      54.921
2015    2        2     4  28    5.2885   624.7    2.962      54.873
2015    2        2     4  33    5.2857   624.5    2.962      54.825
2015    2        2     4  39    5.2829   624.4    2.961      54.778
2015    2        2     4  44    5.2801   624.2    2.961      54.731
2015    2        2     4  49    5.2772   624.1    2.960      54.685
2015    2        2     4  54    5.2744   623.9    2.960      54.639
2015    2        2     4  59    5.2716   623.8    2.960      54.595
2015    2        2     5   4    5.2687   623.6    2.960      54.550
2015    2        2     5   9    5.2659   623.5    2.960      54.506
2015    2        2     5  14    5.2630   623.3    2.960      54.461
2015    2        2     5  19    5.2601   623.2    2.960      54.417
2015    2        2     5  25    5.2572   623.0    2.960      54.372
2015    2        2     5  30    5.2543   622.9    2.960      54.328
2015    2        2     5  35    5.2514   622.7    2.960      54.282
2015    2        2     5  40    5.2485   622.6    2.960      54.237
2015    2        2     5  45    5.2455   622.4    2.960      54.191
2015    2        2     5  50    5.2426   622.2    2.960      54.144
2015    2        2     5  55    5.2396   622.1    2.960      54.097
2015    2        2     6   0    5.2367   621.9    2.960      54.049
2015    2        2     6   5    5.2337   621.7    2.960      54.001
2015    2        2     6  10    5.2307   621.6    2.960      53.952
2015    2        2     6  16    5.2277   621.4    2.960      53.902
2015    2        2     6  21    5.2248   621.2    2.960      53.851
2015    2        2     6  26    5.2218   621.0    2.960      53.800
2015    2        2     6  31    5.2188   620.9    2.960      53.748
2015    2        2     6  36    5.2158   620.7    2.960      53.696
2015    2        2     6  41    5.2129   620.5    2.960      53.644
2015    2        2     6  46    5.2100   620.3    2.959      53.590
2015    2        2     6  51    5.2070   620.1    2.959      53.537
2015    2        2     6  56    5.2042   620.0    2.959      53.483
2015    2        2     7   1    5.2013   619.8    2.959      53.429
2015    2        2     7   7    5.1984   619.6    2.959      53.374
2015    2        2     7  12    5.1956   619.4    2.959      53.319
2015    2        2     7  17    5.1927   619.2    2.959      53.264
2015    2        2     7  22    5.1900   619.0    2.959      53.209
2015    2        2     7  27    5.1872   618.8    2.959      53.153
2015    2        2     7  32    5.1845   618.6    2.959      53.098
2015    2        2     7  37    5.1818   618.4    2.959      53.042
2015    2        2     7  42    5.1791   618.2    2.958      52.987
2015    2        2     7  47    5.1765   618.0    2.958      52.931
2015    2        2     7  53    5.1739   617.9    2.958      52.876
2015    2        2     7  58    5.1713   617.7    2.958      52.821
2015    2        2     8   3    5.1688   617.5    2.958      52.766
2015    2        2     8   8    5.1662   617.3    2.959      52.711
2015    2        2     8  13    5.1638   617.1    2.959      52.656
2015    2        2     8  18    5.1613   616.9    2.959      52.601
2015    2        2     8  23    5.1588   616.7    2.959      52.547
2015    2        2     8  28    5.1564   616.5    2.959      52.492
2015    2        2     8  33    5.1540   616.3    2.959      52.438
2015    2        2     8  38    5.1516   616.1    2.959      52.384
2015    2        2     8  44    5.1492   615.9    2.959      52.330
2015    2        2     8  49    5.1469   615.7    2.959      52.277
2015    2        2     8  54    5.1444   615.5    2.959      52.224
2015    2        2     8  59    5.1420   615.4    2.959      52.171
2015    2        2     9   4    5.1396   615.2    2.959      52.118
2015    2        2     9   9    5.1372   615.0    2.959      52.065
2015    2        2     9  14    5.1348   614.8    2.959      52.012
2015    2        2     9  19    5.1323   614.6    2.959      51.960
2015    2        2     9  24    5.1299   614.4    2.959      51.907
2015    2        2     9  30    5.1274   614.2    2.959      51.854
2015    2        2     9  35    5.1249   614.1    2.959      51.800
2015    2        2     9  40    5.1224   613.9    2.959      51.747
2015    2        2     9  45    5.1198   613.7    2.959      51.692
2015    2        2     9  50    5.1173   613.5    2.959      51.638
2015    2        2     9  55    5.1147   613.3    2.958      51.582
2015    2        2    10   0    5.1122   613.2    2.958      51.526
2015    2        2    10   5    5.1096   613.0    2.958      51.470
2015    2        2    10  10    5.1070   612.8    2.957      51.413
2015    2        2    10  15    5.1043   612.6    2.957      51.356
2015    2        2    10  21    5.1017   612.4    2.956      51.298
2015    2        2    10  26    5.0991   612.2    2.956      51.240
2015    2        2    10  31    5.0964   612.1    2.955      51.181
2015    2        2    10  36    5.0937   611.9    2.955      51.122
2015    2        2    10  41    5.0910   611.7    2.954      51.063
2015    2        2    10  46    5.0883   611.5    2.953      51.003
2015    2        2    10  51    5.0855   611.3    2.953      50.943
2015    2        2    10  56    5.0828   611.1    2.952      50.882
2015    2        2    11   1    5.0801   611.0    2.951      50.821
2015    2        2    11   6    5.0773   610.8    2.951      50.760
2015    2        2    11  12    5.0745   610.6    2.950      50.699
2015    2        2    11  17    5.0718   610.4    2.949      50.638
2015    2        2    11  22    5.0690   610.2    2.949      50.576
2015    2        2    11  27    5.0662   610.0    2.948      50.515
2015    2        2    11  32    5.0634   609.8    2.947      50.453
2015    2        2    11  37    5.0606   609.6    2.946      50.391
2015    2        2    11  42    5.0578   609.4    2.946      50.330
2015    2        2    11  47    5.0550   609.2    2.945      50.268
2015    2        2    11  52    5.0522   609.0    2.944      50.206
2015    2        2    11  58    5.0494   608.8    2.944      50.144
2015    2        2    12   3    5.0466   608.6    2.943      50.082
2015    2        2    12   8    5.0437   608.4    2.942      50.020
2015    2        2    12  13    5.0409   608.2    2.942      49.958
2015    2        2    12  18    5.0381   608.0    2.941      49.897
2015    2        2    12  23    5.0353   607.8    2.940      49.835
2015    2        2    12  28    5.0324   607.6    2.940      49.773
2015    2        2    12  33    5.0296   607.4    2.939      49.711
2015    2        2    12  38    5.0268   607.2    2.938      49.649
2015    2        2    12  43    5.0239   607.0    2.938      49.587
2015    2        2    12  49    5.0211   606.8    2.937      49.524
2015    2        2    12  54    5.0182   606.6    2.937      49.462
2015    2        2    12  59    5.0154   606.3    2.936      49.399
2015    2        2    13   4    5.0126   606.1    2.935      49.336
2015    2        2    13   9    5.0098   605.9    2.935      49.273
2015    2        2    13  14    5.0070   605.7    2.934      49.209
2015    2        2    13  19    5.0042   605.5    2.934      49.145
2015    2        2    13  24    5.0014   605.2    2.933      49.081
2015    2        2    13  29    4.9986   605.0    2.932      49.017
2015    2        2    13  35    4.9958   604.8    2.932      48.952
2015    2        2    13  40    4.9930   604.5    2.931      48.886
2015    2        2    13  45    4.9903   604.3    2.931      48.820
2015    2        2    13  50    4.9875   604.1    2.930      48.754
2015    2        2    13  55    4.9848   603.8    2.930      48.688
2015    2        2    14   0    4.9821   603.6    2.929      48.621
2015    2        2    14   5    4.9794   603.4    2.929      48.554
2015    2        2    14  10    4.9767   603.1    2.928      48.487
2015    2        2    14  15    4.9741   602.9    2.928      48.420
2015    2        2    14  20    4.9714   602.6    2.927      48.353
2015    2        2    14  26    4.9688   602.4    2.927      48.285
2015    2        2    14  31    4.9662   602.1    2.927      48.218
2015    2        2    14  36    4.9636   601.9    2.926      48.151
2015    2        2    14  41    4.9610   601.6    2.926      48.084
2015    2        2    14  46    4.9585   601.4    2.926      48.017
2015    2        2    14  51    4.9560   601.1    2.926      47.950
2015    2        2    14  56    4.9535   600.9    2.926      47.884
2015    2        2    15   1    4.9510   600.6    2.926      47.818
2015    2        2    15   6    4.9486   600.4    2.926      47.753
2015    2        2    15  11    4.9461   600.1    2.926      47.688
2015    2        2    15  17    4.9437   599.9    2.926      47.623
2015    2        2    15  22    4.9413   599.6    2.926      47.559
2015    2        2    15  27    4.9389   599.4    2.926      47.495
2015    2        2    15  32    4.9366   599.1    2.926      47.432
2015    2        2    15  37    4.9342   598.9    2.927      47.370
2015    2        2    15  42    4.9319   598.6    2.927      47.308
2015    2        2    15  47    4.9295   598.4    2.927      47.247
2015    2        2    15  52    4.9272   598.1    2.928      47.186
2015    2        2    15  57    4.9249   597.9    2.929      47.126
2015    2        2    16   3    4.9226   597.6    2.929      47.067
2015    2        2    16   8    4.9203   597.4    2.930      47.009
2015    2        2    16  13    4.9179   597.1    2.931      46.951
2015    2        2    16  18    4.9156   596.9    2.932      46.894
2015    2        2    16  23    4.9132   596.7    2.933      46.837
2015    2        2    16  28    4.9109   596.4    2.933      46.782
2015    2        2    16  33    4.9085   596.2    2.934      46.726
2015    2        2    16  38    4.9061   596.0    2.935      46.670
2015    2        2    16  43    4.9037   595.7    2.936      46.615
2015    2        2    16  48    4.9012   595.5    2.937      46.560
2015    2        2    16  54    4.8987   595.3    2.938      46.505
2015    2        2    16  59    4.8963   595.0    2.939      46.450
2015    2        2    17   4    4.8938   594.8    2.940      46.394
2015    2        2    17   9    4.8912   594.6    2.941      46.338
2015    2        2    17  14    4.8887   594.3    2.942      46.282
2015    2        2    17  19    4.8861   594.1    2.943      46.226
2015    2        2    17  24    4.8836   593.9    2.944      46.169
2015    2        2    17  29    4.8809   593.6    2.945      46.112
2015    2        2    17  34    4.8784   593.4    2.946      46.054
2015    2        2    17  39    4.8757   593.2    2.947      45.997
2015    2        2    17  45    4.8731   592.9    2.947      45.939
2015    2        2    17  50    4.8704   592.7    2.948      45.881
2015    2        2    17  55    4.8678   592.5    2.949      45.822
2015    2        2    18   0    4.8651   592.2    2.950      45.763
2015    2        2    18   5    4.8624   592.0    2.951      45.704
2015    2        2    18  10    4.8598   591.7    2.951      45.645
2015    2        2    18  15    4.8571   591.5    2.952      45.585
2015    2        2    18  20    4.8544   591.3    2.953      45.525
2015    2        2    18  25    4.8517   591.0    2.953      45.465
2015    2        2    18  31    4.8490   590.8    2.954      45.405
2015    2        2    18  36    4.8463   590.5    2.955      45.344
2015    2        2    18  41    4.8436   590.3    2.955      45.284
2015    2        2    18  46    4.8409   590.0    2.956      45.223
2015    2        2    18  51    4.8383   589.8    2.956      45.162
2015    2        2    18  56    4.8356   589.6    2.957      45.100
2015    2        2    19   1    4.8329   589.3    2.957      45.039
2015    2        2    19   6    4.8303   589.1    2.957      44.978
2015    2        2    19  11    4.8276   588.8    2.958      44.916
2015    2        2    19  16    4.8250   588.6    2.958      44.855
2015    2        2    19  22    4.8223   588.3    2.958      44.793
2015    2        2    19  27    4.8197   588.1    2.959      44.732
2015    2        2    19  32    4.8170   587.8    2.959      44.670
2015    2        2    19  37    4.8145   587.5    2.959      44.609
2015    2        2    19  42    4.8118   587.3    2.959      44.547
2015    2        2    19  47    4.8093   587.0    2.959      44.485
2015    2        2    19  52    4.8068   586.8    2.959      44.423
2015    2        2    19  57    4.8042   586.5    2.959      44.361
2015    2        2    20   2    4.8016   586.3    2.959      44.298
2015    2        2    20   8    4.7991   586.0    2.959      44.236
2015    2        2    20  13    4.7967   585.7    2.959      44.173
2015    2        2    20  18    4.7942   585.5    2.959      44.110
2015    2        2    20  23    4.7916   585.2    2.959      44.047
2015    2        2    20  28    4.7892   584.9    2.959      43.984
2015    2        2    20  33    4.7867   584.7    2.959      43.920
2015    2        2    20  38    4.7843   584.4    2.959      43.857
2015    2        2    20  43    4.7820   584.1    2.959      43.793
2015    2        2    20  48    4.7795   583.9    2.959      43.729
2015    2        2    20  53    4.7772   583.6    2.959      43.665
2015    2        2    20  59    4.7748   583.3    2.959      43.601
2015    2        2    21   4    4.7725   583.0    2.959      43.537
2015    2        2    21   9    4.7703   582.8    2.959      43.473
2015    2        2    21  14    4.7680   582.5    2.959      43.409
2015    2        2    21  19    4.7657   582.2    2.959      43.345
2015    2        2    21  24    4.7633   582.0    2.959      43.281
2015    2        2    21  29    4.7611   581.7    2.959      43.218
2015    2        2    21  34    4.7589   581.4    2.959      43.154
2015    2        2    21  39    4.7566   581.1    2.959      43.091
2015    2        2    21  44    4.7544   580.8    2.959      43.028
2015    2        2    21  50    4.7522   580.6    2.959      42.965
2015    2        2    21  55    4.7500   580.3    2.959      42.902
2015    2        2    22   0    4.7478   580.0    2.959      42.839
2015    2        2    22   5    4.7457   579.7    2.960      42.776
2015    2        2    22  10    4.7435   579.4    2.960      42.713
2015    2        2    22  15    4.7413   579.2    2.960      42.651
2015    2        2    22  20    4.7391   578.9    2.960      42.588
2015    2        2    22  25    4.7369   578.6    2.961      42.525
2015    2        2    22  30    4.7348   578.3    2.961      42.462
2015    2        2    22  36    4.7326   578.0    2.961      42.399
2015    2        2    22  41    4.7304   577.7    2.962      42.336
2015    2        2    22  46    4.7282   577.5    2.962      42.273
2015    2        2    22  51    4.7259   577.2    2.962      42.210
2015    2        2    22  56    4.7237   576.9    2.963      42.147
2015    2        2    23   1    4.7215   576.6    2.963      42.083
2015    2        2    23   6    4.7193   576.3    2.964      42.019
2015    2        2    23  11    4.7171   576.0    2.964      41.956
2015    2        2    23  16    4.7149   575.7    2.965      41.892
2015    2        2    23  21    4.7126   575.4    2.965      41.828
2015    2        2    23  27    4.7103   575.1    2.966      41.765
2015    2        2    23  32    4.7081   574.8    2.966      41.701
2015    2        2    23  37    4.7059   574.5    2.967      41.637
2015    2        2    23  42    4.7036   574.2    2.968      41.574
2015    2        2    23  47    4.7013   573.9    2.968      41.510
2015    2        2    23  52    4.6991   573.6    2.969      41.447
2015    2        2    23  57    4.6968   573.3    2.970      41.383
2015    2        3     0   2    4.6946   573.0    2.971      41.321
2015    2        3     0   7    4.6923   572.7    2.972      41.258
2015    2        3     0  13    4.6901   572.4    2.973      41.195
2015    2        3     0  18    4.6878   572.1    2.974      41.133
2015    2        3     0  23    4.6856   571.8    2.975      41.071
2015    2        3     0  28    4.6834   571.5    2.976      41.009
2015    2        3     0  33    4.6811   571.2    2.978      40.947
2015    2        3     0  38    4.6789   570.9    2.979      40.886
2015    2        3     0  43    4.6767   570.6    2.980      40.825
2015    2        3     0  48    4.6745   570.3    2.982      40.765
2015    2        3     0  53    4.6723   570.0    2.983      40.705
2015    2        3     0  58    4.6701   569.6    2.985      40.645
2015    2        3     1   4    4.6679   569.3    2.986      40.585
2015    2        3     1   9    4.6657   569.0    2.988      40.526
2015    2        3     1  14    4.6635   568.7    2.990      40.466
2015    2        3     1  19    4.6614   568.4    2.991      40.408
2015    2        3     1  24    4.6592   568.1    2.993      40.349
2015    2        3     1  29    4.6570   567.8    2.995      40.291
2015    2        3     1  34    4.6549   567.5    2.997      40.233
2015    2        3     1  39    4.6527   567.2    2.999      40.175
2015    2        3     1  44    4.6505   566.9    3.001      40.117
2015    2        3     1  49    4.6484   566.5    3.003      40.060
2015    2        3     1  55    4.6463   566.2    3.005      40.003
2015    2        3     2   0    4.6442   565.9    3.007      39.946
2015    2        3     2   5    4.6421   565.6    3.009      39.889
2015    2        3     2  10    4.6399   565.3    3.011      39.833
2015    2        3     2  15    4.6378   565.0    3.013      39.776
2015    2        3     2  20    4.6357   564.7    3.015      39.720
2015    2        3     2  25    4.6336   564.3    3.017      39.664
2015    2        3     2  30    4.6316   564.0    3.019      39.609
2015    2        3     2  35    4.6295   563.7    3.021      39.554
2015    2        3     2  41    4.6275   563.4    3.023      39.499
2015    2        3     2  46    4.6255   563.1    3.025      39.444
2015    2        3     2  51    4.6235   562.8    3.027      39.390
2015    2        3     2  56    4.6215   562.4    3.029      39.336
2015    2        3     3   1    4.6196   562.1    3.031      39.282
2015    2        3     3   6    4.6176   561.8    3.033      39.228
2015    2        3     3  11    4.6156   561.5    3.035      39.175
2015    2        3     3  16    4.6138   561.2    3.037      39.122
2015    2        3     3  21    4.6119   560.8    3.039      39.069
2015    2        3     3  26    4.6100   560.5    3.041      39.016
2015    2        3     3  32    4.6082   560.2    3.043      38.963
2015    2        3     3  37    4.6064   559.9    3.045      38.910
2015    2        3     3  42    4.6046   559.6    3.047      38.857
2015    2        3     3  47    4.6028   559.2    3.049      38.805
2015    2        3     3  52    4.6010   558.9    3.051      38.752
2015    2        3     3  57    4.5993   558.6    3.053      38.700
2015    2        3     4   2    4.5975   558.3    3.055      38.648
2015    2        3     4   7    4.5958   558.0    3.057      38.595
2015    2        3     4  12    4.5941   557.6    3.059      38.543
2015    2        3     4  17    4.5924   557.3    3.061      38.491
2015    2        3     4  23    4.5907   557.0    3.063      38.438
2015    2        3     4  28    4.5891   556.7    3.065      38.386
2015    2        3     4  33    4.5874   556.4    3.067      38.334
2015    2        3     4  38    4.5857   556.0    3.069      38.281
2015    2        3     4  43    4.5841   555.7    3.071      38.229
2015    2        3     4  48    4.5824   555.4    3.073      38.177
2015    2        3     4  53    4.5808   555.1    3.075      38.124
2015    2        3     4  58    4.5791   554.8    3.077      38.072
2015    2        3     5   3    4.5774   554.4    3.079      38.019
2015    2        3     5   9    4.5757   554.1    3.081      37.967
2015    2        3     5  14    4.5741   553.8    3.082      37.914
2015    2        3     5  19    4.5724   553.5    3.084      37.861
2015    2        3     5  24    4.5708   553.1    3.086      37.808
2015    2        3     5  29    4.5692   552.8    3.088      37.754
2015    2        3     5  34    4.5675   552.5    3.089      37.701
2015    2        3     5  39    4.5659   552.2    3.091      37.647
2015    2        3     5  44    4.5642   551.8    3.093      37.593
2015    2        3     5  49    4.5625   551.5    3.095      37.539
2015    2        3     5  54    4.5609   551.2    3.096      37.484
2015    2        3     6   0    4.5592   550.8    3.098      37.429
2015    2        3     6   5    4.5576   550.5    3.099      37.374
2015    2        3     6  10    4.5561   550.1    3.101      37.319
2015    2        3     6  15    4.5544   549.8    3.103      37.264
2015    2        3     6  20    4.5528   549.5    3.104      37.209
2015    2        3     6  25    4.5511   549.1    3.106      37.153
2015    2        3     6  30    4.5495   548.8    3.107      37.097
2015    2        3     6  35    4.5479   548.5    3.109      37.041
2015    2        3     6  40    4.5465   548.1    3.111      36.986
2015    2        3     6  46    4.5448   547.8    3.112      36.930
2015    2        3     6  51    4.5432   547.4    3.114      36.874
2015    2        3     6  56    4.5418   547.1    3.116      36.818
2015    2        3     7   1    4.5403   546.7    3.117      36.762
2015    2        3     7   6    4.5386   546.4    3.119      36.706
2015    2        3     7  11    4.5371   546.1    3.121      36.651
2015    2        3     7  16    4.5357   545.7    3.123      36.595
2015    2        3     7  21    4.5342   545.4    3.125      36.539
2015    2        3     7  26    4.5327   545.0    3.127      36.484
2015    2        3     7  31    4.5313   544.7    3.129      36.429
2015    2        3     7  37    4.5299   544.3    3.131      36.373
2015    2        3     7  42    4.5285   544.0    3.133      36.318
2015    2        3     7  47    4.5270   543.6    3.135      36.263
2015    2        3     7  52    4.5257   543.3    3.137      36.208
2015    2        3     7  57    4.5243   542.9    3.139      36.154
2015    2        3     8   2    4.5228   542.6    3.141      36.099
2015    2        3     8   7    4.5215   542.3    3.143      36.045
2015    2        3     8  12    4.5201   541.9    3.146      35.990
2015    2        3     8  17    4.5189   541.6    3.148      35.936
2015    2        3     8  22    4.5176   541.2    3.150      35.882
2015    2        3     8  28    4.5162   540.9    3.153      35.828
2015    2        3     8  33    4.5150   540.5    3.155      35.775
2015    2        3     8  38    4.5137   540.2    3.158      35.721
2015    2        3     8  43    4.5124   539.8    3.160      35.667
2015    2        3     8  48    4.5111   539.5    3.163      35.614
2015    2        3     8  53    4.5098   539.1    3.165      35.561
2015    2        3     8  58    4.5086   538.8    3.168      35.508
2015    2        3     9   3    4.5074   538.4    3.171      35.455
2015    2        3     9   8    4.5062   538.1    3.174      35.402
2015    2        3     9  14    4.5050   537.7    3.176      35.349
2015    2        3     9  19    4.5037   537.4    3.179      35.296
2015    2        3     9  24    4.5026   537.0    3.182      35.244
2015    2        3     9  29    4.5014   536.7    3.185      35.192
2015    2        3     9  34    4.5002   536.3    3.188      35.140
2015    2        3     9  39    4.4991   535.9    3.191      35.088
2015    2        3     9  44    4.4980   535.6    3.194      35.036
2015    2        3     9  49    4.4969   535.2    3.196      34.985
2015    2        3     9  54    4.4957   534.9    3.200      34.933
2015    2        3     9  59    4.4946   534.5    3.203      34.882
2015    2        3    10   5    4.4935   534.2    3.206      34.831
2015    2        3    10  10    4.4925   533.8    3.209      34.781
2015    2        3    10  15    4.4915   533.5    3.212      34.730
2015    2        3    10  20    4.4905   533.1    3.215      34.680
2015    2        3    10  25    4.4894   532.8    3.218      34.630
2015    2        3    10  30    4.4885   532.4    3.222      34.581
2015    2        3    10  35    4.4875   532.1    3.225      34.531
2015    2        3    10  40    4.4865   531.7    3.228      34.482
2015    2        3    10  45    4.4855   531.4    3.232      34.433
2015    2        3    10  51    4.4846   531.0    3.235      34.385
2015    2        3    10  56    4.4837   530.7    3.239      34.336
2015    2        3    11   1    4.4828   530.3    3.242      34.288
2015    2        3    11   6    4.4819   530.0    3.246      34.241
2015    2        3    11  11    4.4810   529.6    3.249      34.194
2015    2        3    11  16    4.4802   529.3    3.253      34.147
2015    2        3    11  21    4.4794   528.9    3.257      34.100
2015    2        3    11  26    4.4785   528.6    3.260      34.053
2015    2        3    11  31    4.4777   528.2    3.264      34.007
2015    2        3    11  36    4.4769   527.9    3.268      33.961
2015    2        3    11  42    4.4761   527.5    3.272      33.916
2015    2        3    11  47    4.4753   527.2    3.276      33.871
2015    2        3    11  52    4.4746   526.8    3.279      33.826
2015    2        3    11  57    4.4738   526.5    3.283      33.781
2015    2        3    12   2    4.4731   526.2    3.287      33.737
2015    2        3    12   7    4.4724   525.8    3.291      33.692
2015    2        3    12  12    4.4716   525.5    3.295      33.649
2015    2        3    12  17    4.4710   525.1    3.299      33.605
2015    2        3    12  22    4.4702   524.8    3.303      33.562
2015    2        3    12  27    4.4696   524.4    3.307      33.518
2015    2        3    12  33    4.4689   524.1    3.311      33.475
2015    2        3    12  38    4.4683   523.8    3.315      33.432
2015    2        3    12  43    4.4676   523.4    3.320      33.390
2015    2        3    12  48    4.4670   523.1    3.324      33.347
2015    2        3    12  53    4.4664   522.7    3.328      33.305
2015    2        3    12  58    4.4657   522.4    3.332      33.263
2015    2        3    13   3    4.4651   522.1    3.336      33.221
2015    2        3    13   8    4.4645   521.7    3.340      33.179
2015    2        3    13  13    4.4639   521.4    3.344      33.137
2015    2        3    13  19    4.4633   521.1    3.349      33.095
2015    2        3    13  24    4.4627   520.7    3.353      33.053
2015    2        3    13  29    4.4622   520.4    3.357      33.011
2015    2        3    13  34    4.4615   520.0    3.361      32.968
2015    2        3    13  39    4.4610   519.7    3.365      32.926
2015    2        3    13  44    4.4605   519.4    3.369      32.884
2015    2        3    13  49    4.4600   519.0    3.373      32.842
2015    2        3    13  54    4.4594   518.7    3.377      32.799
2015    2        3    13  59    4.4590   518.4    3.381      32.757
2015    2        3    14   4    4.4585   518.0    3.385      32.714
2015    2        3    14  10    4.4580   517.7    3.390      32.672
2015    2        3    14  15    4.4575   517.4    3.394      32.629
2015    2        3    14  20    4.4570   517.0    3.397      32.586
2015    2        3    14  25    4.4565   516.7    3.401      32.543
2015    2        3    14  30    4.4562   516.4    3.405      32.500
2015    2        3    14  35    4.4557   516.0    3.409      32.457
2015    2        3    14  40    4.4552   515.7    3.413      32.413
2015    2        3    14  45    4.4549   515.4    3.417      32.370
2015    2        3    14  50    4.4544   515.0    3.421      32.327
2015    2        3    14  56    4.4542   514.7    3.425      32.283
2015    2        3    15   1    4.4538   514.3    3.429      32.240
2015    2        3    15   6    4.4534   514.0    3.433      32.196
2015    2        3    15  11    4.4530   513.7    3.436      32.152
2015    2        3    15  16    4.4527   513.3    3.440      32.109
2015    2        3    15  21    4.4524   513.0    3.444      32.065
2015    2        3    15  26    4.4523   512.7    3.448      32.021
2015    2        3    15  31    4.4519   512.3    3.452      31.977
2015    2        3    15  36    4.4518   512.0    3.455      31.933
2015    2        3    15  41    4.4514   511.7    3.459      31.890
2015    2        3    15  47    4.4513   511.3    3.463      31.846
2015    2        3    15  52    4.4510   511.0    3.467      31.802
2015    2        3    15  57    4.4508   510.7    3.470      31.759
2015    2        3    16   2    4.4508   510.3    3.474      31.715
2015    2        3    16   7    4.4505   510.0    3.478      31.671
2015    2        3    16  12    4.4505   509.7    3.482      31.628
2015    2        3    16  17    4.4503   509.3    3.486      31.584
2015    2        3    16  22    4.4502   509.0    3.489      31.541
2015    2        3    16  27    4.4501   508.7    3.493      31.497
2015    2        3    16  32    4.4502   508.3    3.497      31.454
2015    2        3    16  38    4.4501   508.0    3.501      31.411
2015    2        3    16  43    4.4500   507.7    3.505      31.368
2015    2        3    16  48    4.4501   507.3    3.509      31.325
2015    2        3    16  53    4.4501   507.0    3.512      31.282
2015    2        3    16  58    4.4501   506.7    3.516      31.239
2015    2        3    17   3    4.4500   506.3    3.520      31.197
2015    2        3    17   8    4.4502   506.0    3.524      31.154
2015    2        3    17  13    4.4503   505.7    3.528      31.112
2015    2        3    17  18    4.4504   505.3    3.532      31.070
2015    2        3    17  24    4.4505   505.0    3.536      31.028
2015    2        3    17  29    4.4505   504.7    3.540      30.986
2015    2        3    17  34    4.4506   504.3    3.544      30.944
2015    2        3    17  39    4.4508   504.0    3.548      30.903
2015    2        3    17  44    4.4510   503.7    3.553      30.862
2015    2        3    17  49    4.4512   503.3    3.557      30.820
2015    2        3    17  54    4.4514   503.0    3.561      30.779
2015    2        3    17  59    4.4516   502.7    3.565      30.739
2015    2        3    18   4    4.4519   502.3    3.569      30.698
2015    2        3    18   9    4.4523   502.0    3.574      30.657
2015    2        3    18  15    4.4526   501.7    3.578      30.617
2015    2        3    18  20    4.4529   501.3    3.582      30.577
2015    2        3    18  25    4.4531   501.0    3.587      30.537
2015    2        3    18  30    4.4535   500.7    3.591      30.497
2015    2        3    18  35    4.4538   500.4    3.596      30.458
2015    2        3    18  40    4.4541   500.0    3.600      30.419
2015    2        3    18  45    4.4545   499.7    3.605      30.379
2015    2        3    18  50    4.4551   499.4    3.609      30.340
2015    2        3    18  55    4.4554   499.0    3.614      30.302
2015    2        3    19   0    4.4558   498.7    3.619      30.263
2015    2        3    19   6    4.4564   498.4    3.623      30.224
2015    2        3    19  11    4.4568   498.0    3.628      30.186
2015    2        3    19  16    4.4574   497.7    3.633      30.148
2015    2        3    19  21    4.4579   497.4    3.638      30.110
2015    2        3    19  26    4.4584   497.1    3.642      30.073
2015    2        3    19  31    4.4589   496.7    3.647      30.035
2015    2        3    19  36    4.4595   496.4    3.652      29.998
2015    2        3    19  41    4.4601   496.1    3.657      29.960
2015    2        3    19  46    4.4608   495.8    3.662      29.924
2015    2        3    19  52    4.4614   495.4    3.667      29.887
2015    2        3    19  57    4.4620   495.1    3.672      29.850
2015    2        3    20   2    4.4627   494.8    3.678      29.814
2015    2        3    20   7    4.4634   494.5    3.683      29.778
2015    2        3    20  12    4.4641   494.1    3.688      29.742
2015    2        3    20  17    4.4649   493.8    3.693      29.706
2015    2        3    20  22    4.4656   493.5    3.699      29.670
2015    2        3    20  27    4.4665   493.2    3.704      29.634
2015    2        3    20  32    4.4673   492.8    3.709      29.599
2015    2        3    20  37    4.4680   492.5    3.715      29.564
2015    2        3    20  43    4.4690   492.2    3.720      29.529
2015    2        3    20  48    4.4698   491.9    3.726      29.494
2015    2        3    20  53    4.4706   491.6    3.731      29.459
2015    2        3    20  58    4.4714   491.3    3.737      29.425
2015    2        3    21   3    4.4723   490.9    3.742      29.391
2015    2        3    21   8    4.4733   490.6    3.748      29.356
2015    2        3    21  13    4.4742   490.3    3.753      29.322
2015    2        3    21  18    4.4753   490.0    3.759      29.288
2015    2        3    21  23    4.4763   489.7    3.765      29.254
2015    2        3    21  29    4.4773   489.4    3.770      29.221
2015    2        3    21  34    4.4783   489.1    3.776      29.187
2015    2        3    21  39    4.4793   488.8    3.782      29.153
2015    2        3    21  44    4.4804   488.4    3.788      29.120
2015    2        3    21  49    4.4814   488.1    3.793      29.086
2015    2        3    21  54    4.4823   487.8    3.799      29.053
2015    2        3    21  59    4.4834   487.5    3.805      29.020
2015    2        3    22   4    4.4845   487.2    3.811      28.987
2015    2        3    22   9    4.4858   486.9    3.816      28.954
2015    2        3    22  14    4.4869   486.6    3.822      28.921
2015    2        3    22  20    4.4880   486.3    3.828      28.888
2015    2        3    22  25    4.4890   486.0    3.834      28.855
2015    2        3    22  30    4.4903   485.7    3.839      28.822
2015    2        3    22  35    4.4915   485.4    3.845      28.789
2015    2        3    22  40    4.4925   485.1    3.851      28.757
2015    2        3    22  45    4.4937   484.8    3.857      28.724
2015    2        3    22  50    4.4949   484.5    3.862      28.692
2015    2        3    22  55    4.4963   484.2    3.868      28.659
2015    2        3    23   0    4.4975   483.9    3.874      28.627
2015    2        3    23   5    4.4986   483.6    3.880      28.595
2015    2        3    23  11    4.4999   483.3    3.885      28.563
2015    2        3    23  16    4.5011   483.0    3.891      28.531
2015    2        3    23  21    4.5024   482.7    3.897      28.499
2015    2        3    23  26    4.5037   482.4    3.903      28.467
2015    2        3    23  31    4.5050   482.1    3.908      28.435
2015    2        3    23  36    4.5063   481.8    3.914      28.404
2015    2        3    23  41    4.5077   481.5    3.920      28.372
2015    2        3    23  46    4.5090   481.2    3.925      28.341
2015    2        3    23  51    4.5104   480.9    3.931      28.310
2015    2        3    23  57    4.5118   480.6    3.937      28.279
2015    2        4     0   2    4.5133   480.3    3.943      28.248
2015    2        4     0   7    4.5147   480.0    3.948      28.217
2015    2        4     0  12    4.5161   479.7    3.954      28.187
2015    2        4     0  17    4.5174   479.4    3.960      28.156
2015    2        4     0  22    4.5189   479.1    3.966      28.126
2015    2        4     0  27    4.5205   478.8    3.972      28.096
2015    2        4     0  32    4.5220   478.5    3.978      28.066
2015    2        4     0  37    4.5234   478.2    3.983      28.037
2015    2        4     0  42    4.5249   477.9    3.989      28.007
2015    2        4     0  48    4.5265   477.6    3.995      27.978
2015    2        4     0  53    4.5281   477.3    4.001      27.949
2015    2        4     0  58    4.5296   477.0    4.007      27.921
2015    2        4     1   3    4.5312   476.7    4.013      27.892
2015    2        4     1   8    4.5330   476.4    4.019      27.864
2015    2        4     1  13    4.5345   476.1    4.025      27.836
2015    2        4     1  18    4.5362   475.8    4.031      27.808
2015    2        4     1  23    4.5379   475.6    4.038      27.781
2015    2        4     1  28    4.5397   475.3    4.044      27.754
2015    2        4     1  34    4.5414   475.0    4.050      27.727
2015    2        4     1  39    4.5432   474.7    4.056      27.700
2015    2        4     1  44    4.5448   474.4    4.062      27.674
2015    2        4     1  49    4.5467   474.1    4.069      27.648
2015    2        4     1  54    4.5485   473.8    4.075      27.622
2015    2        4     1  59    4.5502   473.5    4.082      27.596
2015    2        4     2   4    4.5522   473.2    4.088      27.571
2015    2        4     2   9    4.5541   473.0    4.095      27.546
2015    2        4     2  14    4.5558   472.7    4.101      27.521
2015    2        4     2  19    4.5578   472.4    4.108      27.496
2015    2        4     2  25    4.5596   472.1    4.115      27.472
2015    2        4     2  30    4.5617   471.8    4.121      27.448
2015    2        4     2  35    4.5637   471.5    4.128      27.424
2015    2        4     2  40    4.5655   471.2    4.135      27.401
2015    2        4     2  45    4.5677   471.0    4.142      27.377
2015    2        4     2  50    4.5695   470.7    4.149      27.354
2015    2        4     2  55    4.5716   470.4    4.156      27.332
2015    2        4     3   0    4.5736   470.1    4.163      27.309
2015    2        4     3   5    4.5759   469.8    4.170      27.287
2015    2        4     3  10    4.5778   469.6    4.177      27.265
2015    2        4     3  16    4.5800   469.3    4.184      27.243
2015    2        4     3  21    4.5821   469.0    4.191      27.222
2015    2        4     3  26    4.5844   468.7    4.198      27.201
2015    2        4     3  31    4.5865   468.4    4.206      27.180
2015    2        4     3  36    4.5887   468.2    4.213      27.159
2015    2        4     3  41    4.5909   467.9    4.221      27.138
2015    2        4     3  46    4.5934   467.6    4.228      27.118
2015    2        4     3  51    4.5955   467.3    4.236      27.098
2015    2        4     3  56    4.5979   467.1    4.243      27.078
2015    2        4     4   2    4.6001   466.8    4.251      27.058
2015    2        4     4   7    4.6025   466.5    4.258      27.039
2015    2        4     4  12    4.6050   466.2    4.266      27.020
2015    2        4     4  17    4.6074   466.0    4.274      27.001
2015    2        4     4  22    4.6098   465.7    4.281      26.982
2015    2        4     4  27    4.6121   465.4    4.289      26.963
2015    2        4     4  32    4.6145   465.2    4.297      26.945
2015    2        4     4  37    4.6172   464.9    4.305      26.926
2015    2        4     4  42    4.6195   464.6    4.313      26.908
2015    2        4     4  47    4.6220   464.4    4.321      26.890
2015    2        4     4  53    4.6246   464.1    4.328      26.872
2015    2        4     4  58    4.6273   463.8    4.336      26.854
2015    2        4     5   3    4.6299   463.6    4.344      26.836
2015    2        4     5   8    4.6325   463.3    4.352      26.819
2015    2        4     5  13    4.6349   463.1    4.360      26.801
2015    2        4     5  18    4.6376   462.8    4.368      26.784
2015    2        4     5  23    4.6403   462.5    4.376      26.767
2015    2        4     5  28    4.6429   462.3    4.384      26.749
2015    2        4     5  33    4.6457   462.0    4.392      26.732
2015    2        4     5  38    4.6482   461.8    4.400      26.715
2015    2        4     5  44    4.6511   461.5    4.408      26.698
2015    2        4     5  49    4.6537   461.3    4.416      26.681
2015    2        4     5  54    4.6564   461.0    4.423      26.664
2015    2        4     5  59    4.6592   460.8    4.431      26.647
2015    2        4     6   4    4.6619   460.5    4.439      26.630
2015    2        4     6   9    4.6649   460.3    4.447      26.613
2015    2        4     6  14    4.6675   460.0    4.455      26.597
2015    2        4     6  19    4.6703   459.8    4.463      26.580
2015    2        4     6  24    4.6731   459.5    4.470      26.564
2015    2        4     6  30    4.6760   459.3    4.478      26.547
2015    2        4     6  35    4.6790   459.0    4.486      26.531
2015    2        4     6  40    4.6819   458.8    4.494      26.515
2015    2        4     6  45    4.6847   458.5    4.502      26.498
2015    2        4     6  50    4.6875   458.3    4.509      26.482
2015    2        4     6  55    4.6904   458.1    4.517      26.466
2015    2        4     7   0    4.6935   457.8    4.525      26.450
2015    2        4     7   5    4.6964   457.6    4.532      26.435
2015    2        4     7  10    4.6992   457.3    4.540      26.419
2015    2        4     7  15    4.7022   457.1    4.548      26.404
2015    2        4     7  21    4.7053   456.9    4.555      26.388
2015    2        4     7  26    4.7082   456.6    4.563      26.373
2015    2        4     7  31    4.7112   456.4    4.571      26.358
2015    2        4     7  36    4.7143   456.2    4.578      26.343
2015    2        4     7  41    4.7174   455.9    4.586      26.329
2015    2        4     7  46    4.7203   455.7    4.594      26.314
2015    2        4     7  51    4.7235   455.5    4.601      26.300
2015    2        4     7  56    4.7264   455.2    4.609      26.286
2015    2        4     8   1    4.7295   455.0    4.617      26.272
2015    2        4     8   7    4.7326   454.8    4.625      26.259
2015    2        4     8  12    4.7357   454.5    4.632      26.245
2015    2        4     8  17    4.7389   454.3    4.640      26.232
2015    2        4     8  22    4.7419   454.1    4.648      26.220
2015    2        4     8  27    4.7452   453.9    4.656      26.207
2015    2        4     8  32    4.7484   453.6    4.663      26.195
2015    2        4     8  37    4.7515   453.4    4.671      26.183
2015    2        4     8  42    4.7547   453.2    4.679      26.172
2015    2        4     8  47    4.7579   453.0    4.687      26.161
2015    2        4     8  52    4.7611   452.8    4.695      26.150
2015    2        4     8  58    4.7644   452.5    4.703      26.139
2015    2        4     9   3    4.7676   452.3    4.711      26.129
2015    2        4     9   8    4.7708   452.1    4.719      26.119
2015    2        4     9  13    4.7741   451.9    4.727      26.110
2015    2        4     9  18    4.7774   451.7    4.735      26.100
2015    2        4     9  23    4.7807   451.5    4.743      26.091
2015    2        4     9  28    4.7840   451.3    4.751      26.083
2015    2        4     9  33    4.7873   451.0    4.760      26.075
2015    2        4     9  38    4.7906   450.8    4.768      26.067
2015    2        4     9  43    4.7938   450.6    4.776      26.060
2015    2        4     9  49    4.7973   450.4    4.785      26.052
2015    2        4     9  54    4.8006   450.2    4.793      26.046
2015    2        4     9  59    4.8041   450.0    4.801      26.039
2015    2        4    10   4    4.8074   449.8    4.810      26.033
2015    2        4    10   9    4.8109   449.6    4.819      26.028
2015    2        4    10  14    4.8143   449.4    4.827      26.022
2015    2        4    10  19    4.8178   449.2    4.836      26.017
2015    2        4    10  24    4.8213   449.0    4.845      26.013
2015    2        4    10  29    4.8249   448.8    4.853      26.008
2015    2        4    10  35    4.8284   448.6    4.862      26.005
2015    2        4    10  40    4.8318   448.4    4.871      26.001
2015    2        4    10  45    4.8355   448.1    4.880      25.997
2015    2        4    10  50    4.8390   447.9    4.889      25.994
2015    2        4    10  55    4.8427   447.8    4.898      25.992
2015    2        4    11   0    4.8464   447.6    4.907      25.989
2015    2        4    11   5    4.8500   447.4    4.916      25.987
2015    2        4    11  10    4.8537   447.2    4.926      25.985
2015    2        4    11  15    4.8574   447.0    4.935      25.983
2015    2        4    11  20    4.8611   446.8    4.944      25.982
2015    2        4    11  26    4.8647   446.6    4.953      25.981
2015    2        4    11  31    4.8685   446.4    4.963      25.980
2015    2        4    11  36    4.8722   446.2    4.972      25.979
2015    2        4    11  41    4.8761   446.0    4.982      25.979
2015    2        4    11  46    4.8798   445.8    4.991      25.979
2015    2        4    11  51    4.8838   445.6    5.001      25.978
2015    2        4    11  56    4.8876   445.4    5.010      25.978
2015    2        4    12   1    4.8914   445.3    5.020      25.979
2015    2        4    12   6    4.8953   445.1    5.029      25.979
2015    2        4    12  12    4.8993   444.9    5.039      25.979
2015    2        4    12  17    4.9031   444.7    5.048      25.980
2015    2        4    12  22    4.9072   444.5    5.058      25.980
2015    2        4    12  27    4.9111   444.4    5.068      25.981
2015    2        4    12  32    4.9152   444.2    5.077      25.982
2015    2        4    12  37    4.9190   444.0    5.087      25.982
2015    2        4    12  42    4.9232   443.8    5.096      25.983
2015    2        4    12  47    4.9272   443.6    5.106      25.984
2015    2        4    12  52    4.9311   443.5    5.115      25.985
2015    2        4    12  57    4.9353   443.3    5.125      25.986
2015    2        4    13   3    4.9393   443.1    5.134      25.987
2015    2        4    13   8    4.9434   442.9    5.144      25.988
2015    2        4    13  13    4.9476   442.8    5.153      25.988
2015    2        4    13  18    4.9517   442.6    5.162      25.989
2015    2        4    13  23    4.9557   442.4    5.172      25.990
2015    2        4    13  28    4.9599   442.3    5.181      25.991
2015    2        4    13  33    4.9640   442.1    5.190      25.992
2015    2        4    13  38    4.9683   441.9    5.200      25.993
2015    2        4    13  43    4.9725   441.8    5.209      25.994
2015    2        4    13  48    4.9766   441.6    5.218      25.995
2015    2        4    13  54    4.9807   441.4    5.227      25.996
2015    2        4    13  59    4.9851   441.3    5.236      25.997
2015    2        4    14   4    4.9892   441.1    5.245      25.998
2015    2        4    14   9    4.9935   440.9    5.254      25.999
2015    2        4    14  14    4.9976   440.8    5.263      26.000
2015    2        4    14  19    5.0020   440.6    5.271      26.001
2015    2        4    14  24    5.0061   440.5    5.280      26.002
2015    2        4    14  29    5.0104   440.3    5.289      26.003
2015    2        4    14  34    5.0148   440.1    5.297      26.004
2015    2        4    14  40    5.0190   440.0    5.306      26.006
2015    2        4    14  45    5.0233   439.8    5.315      26.007
2015    2        4    14  50    5.0276   439.7    5.323      26.008
2015    2        4    14  55    5.0319   439.5    5.332      26.010
2015    2        4    15   0    5.0361   439.4    5.340      26.012
2015    2        4    15   5    5.0404   439.2    5.349      26.013
2015    2        4    15  10    5.0448   439.1    5.357      26.015
2015    2        4    15  15    5.0490   438.9    5.365      26.017
2015    2        4    15  20    5.0533   438.8    5.374      26.019
2015    2        4    15  25    5.0576   438.6    5.382      26.022
2015    2        4    15  31    5.0620   438.5    5.390      26.024
2015    2        4    15  36    5.0664   438.3    5.399      26.027
2015    2        4    15  41    5.0708   438.2    5.407      26.030
2015    2        4    15  46    5.0750   438.0    5.415      26.033
2015    2        4    15  51    5.0794   437.9    5.423      26.037
2015    2        4    15  56    5.0839   437.7    5.431      26.040
2015    2        4    16   1    5.0882   437.6    5.439      26.044
2015    2        4    16   6    5.0926   437.4    5.448      26.049
2015    2        4    16  11    5.0969   437.3    5.456      26.053
2015    2        4    16  17    5.1014   437.1    5.464      26.058
2015    2        4    16  22    5.1057   437.0    5.472      26.063
2015    2        4    16  27    5.1102   436.9    5.480      26.068
2015    2        4    16  32    5.1146   436.7    5.488      26.074
2015    2        4    16  37    5.1190   436.6    5.496      26.080
2015    2        4    16  42    5.1235   436.4    5.504      26.086
2015    2        4    16  47    5.1279   436.3    5.512      26.093
2015    2        4    16  52    5.1323   436.2    5.520      26.099
2015    2        4    16  57    5.1368   436.0    5.529      26.107
2015    2        4    17   2    5.1413   435.9    5.537      26.114
2015    2        4    17   8    5.1457   435.8    5.545      26.122
2015    2        4    17  13    5.1502   435.6    5.553      26.131
2015    2        4    17  18    5.1547   435.5    5.561      26.139
2015    2        4    17  23    5.1593   435.4    5.569      26.148
2015    2        4    17  28    5.1637   435.2    5.578      26.157
2015    2        4    17  33    5.1682   435.1    5.586      26.167
2015    2        4    17  38    5.1728   435.0    5.594      26.177
2015    2        4    17  43    5.1773   434.9    5.602      26.187
2015    2        4    17  48    5.1819   434.7    5.611      26.197
2015    2        4    17  53    5.1865   434.6    5.619      26.208
2015    2        4    17  59    5.1911   434.5    5.627      26.219
2015    2        4    18   4    5.1956   434.4    5.636      26.231
2015    2        4    18   9    5.2003   434.2    5.644      26.242
2015    2        4    18  14    5.2049   434.1    5.653      26.254
2015    2        4    18  19    5.2095   434.0    5.661      26.267
2015    2        4    18  24    5.2141   433.9    5.669      26.279
2015    2        4    18  29    5.2188   433.8    5.678      26.292
2015    2        4    18  34    5.2235   433.6    5.686      26.305
2015    2        4    18  39    5.2282   433.5    5.695      26.318
2015    2        4    18  45    5.2329   433.4    5.703      26.331
2015    2        4    18  50    5.2375   433.3    5.712      26.344
2015    2        4    18  55    5.2422   433.2    5.720      26.358
2015    2        4    19   0    5.2469   433.1    5.729      26.372
2015    2        4    19   5    5.2516   433.0    5.737      26.385
2015    2        4    19  10    5.2563   432.8    5.746      26.399
2015    2        4    19  15    5.2611   432.7    5.754      26.413
2015    2        4    19  20    5.2659   432.6    5.763      26.427
2015    2        4    19  25    5.2705   432.5    5.771      26.442
2015    2        4    19  30    5.2753   432.4    5.780      26.456
2015    2        4    19  36    5.2801   432.3    5.788      26.470
2015    2        4    19  41    5.2848   432.2    5.797      26.484
2015    2        4    19  46    5.2896   432.1    5.805      26.499
2015    2        4    19  51    5.2944   432.0    5.814      26.513
2015    2        4    19  56    5.2992   431.9    5.822      26.527
2015    2        4    20   1    5.3041   431.8    5.831      26.541
2015    2        4    20   6    5.3088   431.7    5.839      26.556
2015    2        4    20  11    5.3137   431.6    5.847      26.570
2015    2        4    20  16    5.3186   431.5    5.856      26.584
2015    2        4    20  22    5.3234   431.4    5.864      26.598
2015    2        4    20  27    5.3282   431.3    5.872      26.613
2015    2        4    20  32    5.3331   431.1    5.880      26.627
2015    2        4    20  37    5.3380   431.0    5.889      26.641
2015    2        4    20  42    5.3429   430.9    5.897      26.655
2015    2        4    20  47    5.3477   430.8    5.905      26.669
2015    2        4    20  52    5.3526   430.7    5.913      26.682
2015    2        4    20  57    5.3575   430.6    5.921      26.696
2015    2        4    21   2    5.3624   430.5    5.929      26.710
2015    2        4    21   7    5.3673   430.5    5.937      26.724
2015    2        4    21  13    5.3722   430.4    5.945      26.738
2015    2        4    21  18    5.3772   430.3    5.953      26.751
2015    2        4    21  23    5.3821   430.2    5.961      26.765
2015    2        4    21  28    5.3871   430.1    5.969      26.779
2015    2        4    21  33    5.3920   430.0    5.977      26.792
2015    2        4    21  38    5.3970   429.9    5.985      26.806
2015    2        4    21  43    5.4020   429.8    5.993      26.819
2015    2        4    21  48    5.4070   429.7    6.001      26.833
2015    2        4    21  53    5.4120   429.6    6.008      26.846
2015    2        4    21  58    5.4169   429.5    6.016      26.860
2015    2        4    22   4    5.4219   429.4    6.024      26.874
2015    2        4    22   9    5.4270   429.3    6.032      26.887
2015    2        4    22  14    5.4321   429.2    6.039      26.901
2015    2        4    22  19    5.4370   429.1    6.047      26.915
2015    2        4    22  24    5.4421   429.0    6.055      26.929
2015    2        4    22  29    5.4471   429.0    6.062      26.942
2015    2        4    22  34    5.4522   428.9    6.070      26.956
2015    2        4    22  39    5.4572   428.8    6.078      26.970
2015    2        4    22  44    5.4624   428.7    6.085      26.985
2015    2        4    22  50    5.4674   428.6    6.093      26.999
2015    2        4    22  55    5.4725   428.5    6.100      27.013
2015    2        4    23   0    5.4776   428.4    6.108      27.028
2015    2        4    23   5    5.4827   428.4    6.115      27.042
2015    2        4    23  10    5.4878   428.3    6.123      27.057
2015    2        4    23  15    5.4928   428.2    6.130      27.072
2015    2        4    23  20    5.4979   428.1    6.138      27.087
2015    2        4    23  25    5.5030   428.0    6.145      27.103
2015    2        4    23  30    5.5081   428.0    6.152      27.118
2015    2        4    23  35    5.5132   427.9    6.159      27.134
2015    2        4    23  41    5.5183   427.8    6.167      27.150
2015    2        4    23  46    5.5234   427.7    6.174      27.166
2015    2        4    23  51    5.5285   427.6    6.181      27.183
2015    2        4    23  56    5.5336   427.6    6.188      27.199
2015    2        5     0   1    5.5387   427.5    6.195      27.216
2015    2        5     0   6    5.5438   427.4    6.202      27.233
2015    2        5     0  11    5.5489   427.3    6.209      27.250
2015    2        5     0  16    5.5540   427.3    6.216      27.267
2015    2        5     0  21    5.5591   427.2    6.222      27.284
2015    2        5     0  27    5.5641   427.1    6.229      27.302
2015    2        5     0  32    5.5693   427.0    6.236      27.320
2015    2        5     0  37    5.5743   427.0    6.243      27.337
2015    2        5     0  42    5.5794   426.9    6.249      27.355
2015    2        5     0  47    5.5845   426.8    6.256      27.373
2015    2        5     0  52    5.5896   426.8    6.263      27.391
2015    2        5     0  57    5.5948   426.7    6.269      27.410
2015    2        5     1   2    5.5999   426.6    6.276      27.428
2015    2        5     1   7    5.6050   426.5    6.282      27.447
2015    2        5     1  12    5.6101   426.5    6.289      27.465
2015    2        5     1  18    5.6152   426.4    6.295      27.484
2015    2        5     1  23    5.6203   426.3    6.302      27.503
2015    2        5     1  28    5.6254   426.3    6.308      27.522
2015    2        5     1  33    5.6306   426.2    6.315      27.541
2015    2        5     1  38    5.6357   426.1    6.321      27.560
2015    2        5     1  43    5.6409   426.1    6.327      27.579
2015    2        5     1  48    5.6460   426.0    6.334      27.599
2015    2        5     1  53    5.6511   425.9    6.340      27.618
2015    2        5     1  58    5.6562   425.9    6.346      27.637
2015    2        5     2   3    5.6614   425.8    6.353      27.657
2015    2        5     2   9    5.6665   425.8    6.359      27.677
2015    2        5     2  14    5.6717   425.7    6.365      27.696
2015    2        5     2  19    5.6768   425.6    6.372      27.716
2015    2        5     2  24    5.6820   425.6    6.378      27.736
2015    2        5     2  29    5.6872   425.5    6.384      27.756
2015    2        5     2  34    5.6923   425.4    6.390      27.776
2015    2        5     2  39    5.6975   425.4    6.396      27.796
2015    2        5     2  44    5.7027   425.3    6.403      27.816
2015    2        5     2  49    5.7079   425.3    6.409      27.836
2015    2        5     2  55    5.7131   425.2    6.415      27.857
2015    2        5     3   0    5.7183   425.1    6.421      27.877
2015    2        5     3   5    5.7235   425.1    6.427      27.897
2015    2        5     3  10    5.7287   425.0    6.434      27.918
2015    2        5     3  15    5.7339   425.0    6.440      27.938
2015    2        5     3  20    5.7391   424.9    6.446      27.959
2015    2        5     3  25    5.7444   424.8    6.452      27.980
2015    2        5     3  30    5.7496   424.8    6.458      28.000
2015    2        5     3  35    5.7549   424.7    6.465      28.021
2015    2        5     3  40    5.7601   424.7    6.471      28.042
2015    2        5     3  46    5.7654   424.6    6.477      28.063
2015    2        5     3  51    5.7707   424.6    6.483      28.084
2015    2        5     3  56    5.7760   424.5    6.489      28.105
2015    2        5     4   1    5.7813   424.4    6.496      28.127
2015    2        5     4   6    5.7866   424.4    6.502      28.148
2015    2        5     4  11    5.7920   424.3    6.508      28.169
2015    2        5     4  16    5.7973   424.3    6.515      28.191
2015    2        5     4  21    5.8027   424.2    6.521      28.212
2015    2        5     4  26    5.8080   424.2    6.527      28.234
2015    2        5     4  32    5.8134   424.1    6.534      28.256
2015    2        5     4  37    5.8188   424.1    6.540      28.278
2015    2        5     4  42    5.8243   424.0    6.547      28.300
2015    2        5     4  47    5.8297   424.0    6.553      28.322
2015    2        5     4  52    5.8351   423.9    6.560      28.345
2015    2        5     4  57    5.8406   423.9    6.567      28.367
2015    2        5     5   2    5.8461   423.8    6.573      28.390
2015    2        5     5   7    5.8516   423.8    6.580      28.413
2015    2        5     5  12    5.8571   423.7    6.587      28.436
2015    2        5     5  17    5.8627   423.7    6.594      28.459
2015    2        5     5  23    5.8682   423.6    6.601      28.482
2015    2        5     5  28    5.8738   423.6    6.608      28.506
2015    2        5     5  33    5.8793   423.5    6.615      28.530
2015    2        5     5  38    5.8849   423.5    6.622      28.555
2015    2        5     5  43    5.8905   423.5    6.629      28.579
2015    2        5     5  48    5.8960   423.4    6.636      28.604
2015    2        5     5  53    5.9016   423.4    6.643      28.630
2015    2        5     5  58    5.9072   423.4    6.649      28.655
2015    2        5     6   3    5.9127   423.3    6.656      28.680
2015    2        5     6   9    5.9183   423.3    6.663      28.706
2015    2        5     6  14    5.9238   423.3    6.670      28.732
2015    2        5     6  19    5.9294   423.2    6.676      28.758
2015    2        5     6  24    5.9349   423.2    6.683      28.784
2015    2        5     6  29    5.9404   423.2    6.689      28.810
2015    2        5     6  34    5.9459   423.1    6.696      28.836
2015    2        5     6  39    5.9515   423.1    6.702      28.862
2015    2        5     6  44    5.9570   423.1    6.708      28.888
2015    2        5     6  49    5.9625   423.0    6.714      28.915
2015    2        5     6  54    5.9680   423.0    6.720      28.941
2015    2        5     7   0    5.9735   423.0    6.726      28.966
2015    2        5     7   5    5.9789   423.0    6.732      28.992
2015    2        5     7  10    5.9844   422.9    6.737      29.018
2015    2        5     7  15    5.9899   422.9    6.743      29.043
2015    2        5     7  20    5.9954   422.9    6.748      29.069
2015    2        5     7  25    6.0008   422.9    6.754      29.094
2015    2        5     7  30    6.0063   422.8    6.759      29.119
2015    2        5     7  35    6.0118   422.8    6.765      29.144
2015    2        5     7  40    6.0172   422.8    6.770      29.169
2015    2        5     7  45    6.0226   422.8    6.775      29.194
2015    2        5     7  51    6.0281   422.7    6.780      29.219
2015    2        5     7  56    6.0335   422.7    6.785      29.244
2015    2        5     8   1    6.0389   422.7    6.791      29.268
2015    2        5     8   6    6.0444   422.7    6.796      29.293
2015    2        5     8  11    6.0498   422.6    6.800      29.317
2015    2        5     8  16    6.0553   422.6    6.805      29.342
2015    2        5     8  21    6.0607   422.6    6.810      29.366
2015    2        5     8  26    6.0661   422.6    6.815      29.390
2015    2        5     8  31    6.0715   422.5    6.820      29.414
2015    2        5     8  37    6.0770   422.5    6.824      29.438
2015    2        5     8  42    6.0824   422.5    6.829      29.462
2015    2        5     8  47    6.0878   422.5    6.834      29.486
2015    2        5     8  52    6.0932   422.5    6.838      29.510
2015    2        5     8  57    6.0986   422.4    6.843      29.534
2015    2        5     9   2    6.1040   422.4    6.847      29.558
2015    2        5     9   7    6.1094   422.4    6.852      29.582
2015    2        5     9  12    6.1148   422.4    6.856      29.605
2015    2        5     9  17    6.1202   422.3    6.861      29.629
2015    2        5     9  22    6.1256   422.3    6.865      29.653
2015    2        5     9  28    6.1310   422.3    6.869      29.677
2015    2        5     9  33    6.1363   422.3    6.874      29.701
2015    2        5     9  38    6.1417   422.3    6.878      29.724
2015    2        5     9  43    6.1471   422.2    6.882      29.748
2015    2        5     9  48    6.1525   422.2    6.887      29.772
2015    2        5     9  53    6.1579   422.2    6.891      29.797
2015    2        5     9  58    6.1633   422.2    6.895      29.821
2015    2        5    10   3    6.1687   422.2    6.900      29.845
2015    2        5    10   8    6.1741   422.1    6.904      29.869
2015    2        5    10  14    6.1795   422.1    6.908      29.894
2015    2        5    10  19    6.1849   422.1    6.913      29.919
2015    2        5    10  24    6.1903   422.1    6.917      29.944
2015    2        5    10  29    6.1957   422.1    6.922      29.969
2015    2        5    10  34    6.2012   422.1    6.926      29.995
2015    2        5    10  39    6.2066   422.0    6.930      30.020
2015    2        5    10  44    6.2120   422.0    6.935      30.046
2015    2        5    10  49    6.2175   422.0    6.939      30.073
2015    2        5    10  54    6.2229   422.0    6.944      30.099
2015    2        5    10  59    6.2283   422.0    6.948      30.126
2015    2        5    11   5    6.2338   422.0    6.953      30.153
2015    2        5    11  10    6.2393   421.9    6.958      30.180
2015    2        5    11  15    6.2448   421.9    6.962      30.208
2015    2        5    11  20    6.2503   421.9    6.967      30.236
2015    2        5    11  25    6.2557   421.9    6.972      30.265
2015    2        5    11  30    6.2612   421.9    6.977      30.293
2015    2        5    11  35    6.2668   421.9    6.981      30.322
2015    2        5    11  40    6.2723   421.9    6.986      30.351
2015    2        5    11  45    6.2778   421.9    6.991      30.381
2015    2        5    11  50    6.2833   421.9    6.996      30.411
2015    2        5    11  56    6.2890   421.8    7.002      30.441
2015    2        5    12   1    6.2946   421.8    7.007      30.472
2015    2        5    12   6    6.3001   421.8    7.012      30.503
2015    2        5    12  11    6.3058   421.8    7.018      30.534
2015    2        5    12  16    6.3114   421.8    7.023      30.565
2015    2        5    12  21    6.3170   421.8    7.029      30.598
2015    2        5    12  26    6.3227   421.8    7.034      30.630
2015    2        5    12  31    6.3284   421.8    7.040      30.663
2015    2        5    12  36    6.3341   421.8    7.046      30.697
2015    2        5    12  42    6.3397   421.8    7.052      30.731
2015    2        5    12  47    6.3454   421.8    7.058      30.766
2015    2        5    12  52    6.3510   421.8    7.064      30.801
2015    2        5    12  57    6.3568   421.8    7.069      30.836
2015    2        5    13   2    6.3624   421.8    7.075      30.872
2015    2        5    13   7    6.3681   421.8    7.081      30.908
2015    2        5    13  12    6.3738   421.8    7.087      30.944
2015    2        5    13  17    6.3795   421.8    7.093      30.981
2015    2        5    13  22    6.3852   421.8    7.099      31.018
2015    2        5    13  27    6.3909   421.8    7.105      31.055
2015    2        5    13  33    6.3966   421.9    7.111      31.092
2015    2        5    13  38    6.4022   421.9    7.117      31.130
2015    2        5    13  43    6.4079   421.9    7.123      31.168
2015    2        5    13  48    6.4136   421.9    7.129      31.206
2015    2        5    13  53    6.4192   421.9    7.135      31.244
2015    2        5    13  58    6.4249   421.9    7.140      31.283
2015    2        5    14   3    6.4306   421.9    7.146      31.321
2015    2        5    14   8    6.4362   422.0    7.152      31.360
2015    2        5    14  13    6.4418   422.0    7.157      31.398
2015    2        5    14  19    6.4475   422.0    7.163      31.436
2015    2        5    14  24    6.4531   422.0    7.168      31.475
2015    2        5    14  29    6.4586   422.0    7.173      31.513
2015    2        5    14  34    6.4642   422.1    7.178      31.550
2015    2        5    14  39    6.4697   422.1    7.183      31.588
2015    2        5    14  44    6.4753   422.1    7.188      31.626
2015    2        5    14  49    6.4808   422.1    7.193      31.663
2015    2        5    14  54    6.4863   422.2    7.198      31.700
2015    2        5    14  59    6.4917   422.2    7.202      31.737
2015    2        5    15   4    6.4972   422.2    7.206      31.774
2015    2        5    15  10    6.5027   422.2    7.211      31.810
2015    2        5    15  15    6.5081   422.3    7.215      31.846
2015    2        5    15  20    6.5135   422.3    7.219      31.881
2015    2        5    15  25    6.5189   422.3    7.223      31.916
2015    2        5    15  30    6.5243   422.3    7.227      31.951
2015    2        5    15  35    6.5297   422.4    7.230      31.986
2015    2        5    15  40    6.5350   422.4    7.234      32.021
2015    2        5    15  45    6.5404   422.4    7.238      32.055
2015    2        5    15  50    6.5457   422.4    7.241      32.089
2015    2        5    15  55    6.5511   422.5    7.244      32.123
2015    2        5    16   1    6.5564   422.5    7.248      32.156
2015    2        5    16   6    6.5617   422.5    7.251      32.190
2015    2        5    16  11    6.5670   422.6    7.254      32.223
2015    2        5    16  16    6.5723   422.6    7.257      32.257
2015    2        5    16  21    6.5776   422.6    7.260      32.290
2015    2        5    16  26    6.5829   422.6    7.263      32.323
2015    2        5    16  31    6.5881   422.7    7.266      32.356
2015    2        5    16  36    6.5934   422.7    7.269      32.389
2015    2        5    16  41    6.5987   422.7    7.271      32.422
2015    2        5    16  47    6.6040   422.8    7.274      32.454
2015    2        5    16  52    6.6092   422.8    7.277      32.487
2015    2        5    16  57    6.6145   422.8    7.279      32.520
2015    2        5    17   2    6.6198   422.8    7.282      32.553
2015    2        5    17   7    6.6250   422.9    7.284      32.585
2015    2        5    17  12    6.6302   422.9    7.287      32.618
2015    2        5    17  17    6.6355   422.9    7.289      32.651
2015    2        5    17  22    6.6407   423.0    7.292      32.684
2015    2        5    17  27    6.6460   423.0    7.294      32.717
2015    2        5    17  32    6.6512   423.0    7.296      32.749
2015    2        5    17  38    6.6565   423.1    7.299      32.782
2015    2        5    17  43    6.6617   423.1    7.301      32.816
2015    2        5    17  48    6.6670   423.1    7.304      32.849
2015    2        5    17  53    6.6723   423.1    7.306      32.882
2015    2        5    17  58    6.6776   423.2    7.308      32.915
2015    2        5    18   3    6.6828   423.2    7.311      32.949
2015    2        5    18   8    6.6881   423.2    7.313      32.983
2015    2        5    18  13    6.6934   423.3    7.316      33.017
2015    2        5    18  18    6.6987   423.3    7.318      33.051
2015    2        5    18  24    6.7039   423.3    7.320      33.085
2015    2        5    18  29    6.7092   423.4    7.323      33.120
2015    2        5    18  34    6.7145   423.4    7.325      33.155
2015    2        5    18  39    6.7198   423.4    7.328      33.190
2015    2        5    18  44    6.7251   423.5    7.330      33.225
2015    2        5    18  49    6.7304   423.5    7.333      33.261
2015    2        5    18  54    6.7356   423.6    7.336      33.296
2015    2        5    18  59    6.7410   423.6    7.338      33.332
2015    2        5    19   4    6.7464   423.6    7.341      33.369
2015    2        5    19   9    6.7516   423.7    7.344      33.405
2015    2        5    19  15    6.7570   423.7    7.347      33.442
2015    2        5    19  20    6.7623   423.7    7.350      33.479
2015    2        5    19  25    6.7677   423.8    7.353      33.517
2015    2        5    19  30    6.7731   423.8    7.356      33.555
2015    2        5    19  35    6.7784   423.9    7.359      33.593
2015    2        5    19  40    6.7837   423.9    7.362      33.632
2015    2        5    19  45    6.7892   423.9    7.365      33.672
2015    2        5    19  50    6.7944   424.0    7.369      33.711
2015    2        5    19  55    6.7999   424.0    7.372      33.752
2015    2        5    20   0    6.8053   424.1    7.376      33.792
2015    2        5    20   6    6.8106   424.1    7.379      33.833
2015    2        5    20  11    6.8161   424.2    7.383      33.874
2015    2        5    20  16    6.8215   424.2    7.387      33.916
2015    2        5    20  21    6.8269   424.2    7.391      33.958
2015    2        5    20  26    6.8323   424.3    7.395      34.001
2015    2        5    20  31    6.8376   424.3    7.399      34.044
2015    2        5    20  36    6.8430   424.4    7.403      34.088
2015    2        5    20  41    6.8484   424.4    7.407      34.133
2015    2        5    20  46    6.8538   424.5    7.411      34.178
2015    2        5    20  52    6.8590   424.6    7.416      34.223
2015    2        5    20  57    6.8643   424.6    7.420      34.269
2015    2        5    21   2    6.8697   424.7    7.424      34.315
2015    2        5    21   7    6.8750   424.7    7.428      34.361
2015    2        5    21  12    6.8801   424.8    7.433      34.407
2015    2        5    21  17    6.8855   424.8    7.437      34.454
2015    2        5    21  22    6.8907   424.9    7.441      34.501
2015    2        5    21  27    6.8958   425.0    7.445      34.548
2015    2        5    21  32    6.9011   425.0    7.449      34.595
2015    2        5    21  37    6.9062   425.1    7.453      34.642
2015    2        5    21  43    6.9112   425.2    7.458      34.690
2015    2        5    21  48    6.9165   425.2    7.462      34.737
2015    2        5    21  53    6.9216   425.3    7.466      34.784
2015    2        5    21  58    6.9267   425.4    7.470      34.832
2015    2        5    22   3    6.9317   425.4    7.474      34.879
2015    2        5    22   8    6.9367   425.5    7.478      34.926
2015    2        5    22  13    6.9419   425.6    7.482      34.974
2015    2        5    22  18    6.9468   425.6    7.486      35.021
2015    2        5    22  23    6.9519   425.7    7.490      35.068
2015    2        5    22  29    6.9568   425.8    7.494      35.116
2015    2        5    22  34    6.9618   425.8    7.498      35.164
2015    2        5    22  39    6.9668   425.9    7.502      35.212
2015    2        5    22  44    6.9718   426.0    7.506      35.261
2015    2        5    22  49    6.9768   426.1    7.510      35.310
2015    2        5    22  54    6.9817   426.1    7.514      35.359
2015    2        5    22  59    6.9866   426.2    7.517      35.408
2015    2        5    23   4    6.9914   426.3    7.521      35.458
2015    2        5    23   9    6.9963   426.4    7.524      35.507
2015    2        5    23  14    7.0011   426.4    7.527      35.556
2015    2        5    23  20    7.0059   426.5    7.530      35.606
2015    2        5    23  25    7.0107   426.6    7.533      35.655
2015    2        5    23  30    7.0156   426.7    7.536      35.705
2015    2        5    23  35    7.0203   426.8    7.539      35.754
2015    2        5    23  40    7.0250   426.8    7.541      35.803
2015    2        5    23  45    7.0298   426.9    7.544      35.852
2015    2        5    23  50    7.0345   427.0    7.546      35.900
2015    2        5    23  55    7.0392   427.1    7.548      35.948
2015    2        6     0   0    7.0438   427.2    7.550      35.996
2015    2        6     0   5    7.0486   427.2    7.552      36.043
2015    2        6     0  11    7.0531   427.3    7.553      36.090
2015    2        6     0  16    7.0579   427.4    7.555      36.136
2015    2        6     0  21    7.0624   427.5    7.556      36.182
2015    2        6     0  26    7.0670   427.5    7.558      36.228
2015    2        6     0  31    7.0716   427.6    7.559      36.273
2015    2        6     0  36    7.0762   427.7    7.560      36.318
2015    2        6     0  41    7.0808   427.8    7.561      36.362
2015    2        6     0  46    7.0853   427.9    7.562      36.407
2015    2        6     0  51    7.0899   427.9    7.563      36.451
2015    2        6     0  57    7.0943   428.0    7.564      36.494
2015    2        6     1   2    7.0989   428.1    7.564      36.538
2015    2        6     1   7    7.1034   428.2    7.565      36.581
2015    2        6     1  12    7.1080   428.3    7.565      36.623
2015    2        6     1  17    7.1124   428.3    7.566      36.666
2015    2        6     1  22    7.1170   428.4    7.566      36.708
2015    2        6     1  27    7.1215   428.5    7.566      36.750
2015    2        6     1  32    7.1260   428.6    7.567      36.792
2015    2        6     1  37    7.1305   428.7    7.567      36.834
2015    2        6     1  42    7.1350   428.8    7.567      36.875
2015    2        6     1  48    7.1394   428.8    7.567      36.917
2015    2        6     1  53    7.1439   428.9    7.567      36.958
2015    2        6     1  58    7.1485   429.0    7.567      36.999
2015    2        6     2   3    7.1529   429.1    7.567      37.041
2015    2        6     2   8    7.1574   429.2    7.567      37.082
2015    2        6     2  13    7.1620   429.3    7.568      37.123
2015    2        6     2  18    7.1665   429.3    7.568      37.164
2015    2        6     2  23    7.1710   429.4    7.568      37.206
2015    2        6     2  28    7.1756   429.5    7.568      37.247
2015    2        6     2  34    7.1802   429.6    7.568      37.289
2015    2        6     2  39    7.1848   429.7    7.568      37.331
2015    2        6     2  44    7.1893   429.8    7.568      37.373
2015    2        6     2  49    7.1940   429.9    7.568      37.415
2015    2        6     2  54    7.1986   430.0    7.569      37.457
2015    2        6     2  59    7.2033   430.1    7.569      37.500
2015    2        6     3   4    7.2080   430.2    7.569      37.543
2015    2        6     3   9    7.2127   430.2    7.570      37.586
2015    2        6     3  14    7.2174   430.3    7.570      37.630
2015    2        6     3  19    7.2223   430.4    7.571      37.673
2015    2        6     3  25    7.2272   430.5    7.572      37.718
2015    2        6     3  30    7.2321   430.6    7.572      37.762
2015    2        6     3  35    7.2371   430.7    7.573      37.807
2015    2        6     3  40    7.2421   430.8    7.574      37.853
2015    2        6     3  45    7.2473   430.9    7.575      37.898
2015    2        6     3  50    7.2525   431.0    7.576      37.945
2015    2        6     3  55    7.2578   431.1    7.578      37.992
2015    2        6     4   0    7.2633   431.2    7.579      38.040
2015    2        6     4   5    7.2688   431.3    7.581      38.089
2015    2        6     4  10    7.2745   431.4    7.583      38.138
2015    2        6     4  16    7.2803   431.5    7.585      38.189
2015    2        6     4  21    7.2862   431.6    7.588      38.240
2015    2        6     4  26    7.2923   431.7    7.590      38.292
2015    2        6     4  31    7.2986   431.9    7.593      38.346
2015    2        6     4  36    7.3049   432.0    7.596      38.400
2015    2        6     4  41    7.3115   432.1    7.599      38.455
2015    2        6     4  46    7.3184   432.2    7.603      38.512
2015    2        6     4  51    7.3252   432.3    7.607      38.569
2015    2        6     4  56    7.3326   432.5    7.611      38.628
2015    2        6     5   2    7.3400   432.6    7.615      38.688
2015    2        6     5   7    7.3473   432.7    7.620      38.750
2015    2        6     5  12    7.3551   432.9    7.625      38.813
2015    2        6     5  17    7.3635   433.0    7.631      38.878
2015    2        6     5  22    7.3717   433.1    7.637      38.943
2015    2        6     5  27    7.3803   433.3    7.643      39.009
2015    2        6     5  32    7.3886   433.4    7.650      39.078
2015    2        6     5  37    7.3976   433.6    7.657      39.149
2015    2        6     5  42    7.4071   433.8    7.664      39.222
2015    2        6     5  47    7.4164   433.9    7.671      39.297
2015    2        6     5  53    7.4258   434.1    7.679      39.375
2015    2        6     5  58    7.4354   434.3    7.687      39.453
2015    2        6     6   3    7.4450   434.4    7.695      39.534
2015    2        6     6   8    7.4548   434.6    7.702      39.615
2015    2        6     6  13    7.4641   434.8    7.710      39.697
2015    2        6     6  18    7.4739   435.0    7.717      39.778
2015    2        6     6  23    7.4841   435.2    7.724      39.860
2015    2        6     6  28    7.4934   435.3    7.731      39.942
2015    2        6     6  33    7.5031   435.5    7.738      40.024
2015    2        6     6  39    7.5132   435.7    7.744      40.106
2015    2        6     6  44    7.5224   435.9    7.750      40.187
2015    2        6     6  49    7.5320   436.1    7.756      40.266
2015    2        6     6  54    7.5419   436.2    7.761      40.343
2015    2        6     6  59    7.5510   436.4    7.767      40.419
2015    2        6     7   4    7.5607   436.6    7.771      40.494
2015    2        6     7   9    7.5698   436.8    7.776      40.567
2015    2        6     7  14    7.5791   436.9    7.780      40.639
2015    2        6     7  19    7.5884   437.1    7.784      40.709
2015    2        6     7  24    7.5975   437.3    7.788      40.778
2015    2        6     7  30    7.6069   437.4    7.791      40.846
2015    2        6     7  35    7.6159   437.6    7.795      40.913
2015    2        6     7  40    7.6249   437.8    7.798      40.979
2015    2        6     7  45    7.6338   437.9    7.801      41.045
2015    2        6     7  50    7.6427   438.1    7.804      41.110
2015    2        6     7  55    7.6516   438.3    7.806      41.174
2015    2        6     8   0    7.6604   438.4    7.809      41.238
2015    2        6     8   5    7.6692   438.6    7.811      41.300
2015    2        6     8  10    7.6778   438.7    7.813      41.362
2015    2        6     8  15    7.6863   438.9    7.815      41.422
2015    2        6     8  21    7.6946   439.1    7.816      41.482
2015    2        6     8  26    7.7029   439.2    7.818      41.541
2015    2        6     8  31    7.7110   439.4    7.819      41.598
2015    2        6     8  36    7.7189   439.5    7.819      41.655
2015    2        6     8  41    7.7266   439.7    7.820      41.711
2015    2        6     8  46    7.7340   439.9    7.820      41.766
2015    2        6     8  51    7.7412   440.0    7.820      41.819
2015    2        6     8  56    7.7484   440.2    7.820      41.871
2015    2        6     9   1    7.7552   440.3    7.820      41.921
2015    2        6     9   7    7.7618   440.5    7.819      41.971
2015    2        6     9  12    7.7685   440.6    7.818      42.019
2015    2        6     9  17    7.7744   440.7    7.817      42.066
2015    2        6     9  22    7.7805   440.9    7.816      42.112
2015    2        6     9  27    7.7859   441.0    7.814      42.157
2015    2        6     9  32    7.7916   441.2    7.813      42.202
2015    2        6     9  37    7.7969   441.3    7.811      42.245
2015    2        6     9  42    7.8018   441.5    7.809      42.287
2015    2        6     9  47    7.8061   441.6    7.806      42.329
2015    2        6     9  52    7.8105   441.7    7.804      42.369
2015    2        6     9  58    7.8147   441.9    7.801      42.409
2015    2        6    10   3    7.8187   442.0    7.798      42.448
2015    2        6    10   8    7.8229   442.1    7.795      42.486
2015    2        6    10  13    7.8260   442.3    7.792      42.524
2015    2        6    10  18    7.8298   442.4    7.789      42.561
2015    2        6    10  23    7.8324   442.5    7.785      42.598
2015    2        6    10  28    7.8358   442.6    7.782      42.634
2015    2        6    10  33    7.8381   442.8    7.778      42.669
2015    2        6    10  38    7.8411   442.9    7.775      42.704
2015    2        6    10  44    7.8430   443.0    7.771      42.738
2015    2        6    10  49    7.8457   443.1    7.767      42.772
2015    2        6    10  54    7.8477   443.2    7.763      42.805
2015    2        6    10  59    7.8492   443.4    7.759      42.838
2015    2        6    11   4    7.8514   443.5    7.755      42.871
2015    2        6    11   9    7.8525   443.6    7.751      42.903
2015    2        6    11  14    7.8544   443.7    7.748      42.935
2015    2        6    11  19    7.8558   443.8    7.744      42.968
2015    2        6    11  24    7.8566   443.9    7.740      42.999
2015    2        6    11  29    7.8582   444.0    7.737      43.031
2015    2        6    11  35    7.8589   444.2    7.733      43.063
2015    2        6    11  40    7.8598   444.3    7.730      43.096
2015    2        6    11  45    7.8612   444.4    7.727      43.128
2015    2        6    11  50    7.8620   444.5    7.723      43.161
2015    2        6    11  55    7.8624   444.6    7.721      43.194
2015    2        6    12   0    7.8635   444.7    7.718      43.227
2015    2        6    12   5    7.8637   444.8    7.715      43.261
2015    2        6    12  10    7.8643   444.9    7.713      43.296
2015    2        6    12  15    7.8651   445.1    7.711      43.331
2015    2        6    12  21    7.8656   445.2    7.708      43.369
2015    2        6    12  26    7.8660   445.3    7.706      43.407
2015    2        6    12  31    7.8663   445.5    7.704      43.447
2015    2        6    12  36    7.8666   445.6    7.702      43.488
2015    2        6    12  41    7.8669   445.7    7.700      43.530
2015    2        6    12  46    7.8670   445.9    7.698      43.573
2015    2        6    12  51    7.8672   446.0    7.695      43.617
2015    2        6    12  56    7.8673   446.1    7.693      43.662
2015    2        6    13   1    7.8670   446.3    7.691      43.707
2015    2        6    13   6    7.8672   446.4    7.688      43.752
2015    2        6    13  12    7.8668   446.6    7.686      43.798
2015    2        6    13  17    7.8670   446.7    7.683      43.844
2015    2        6    13  22    7.8668   446.9    7.680      43.891
2015    2        6    13  27    7.8662   447.0    7.677      43.937
2015    2        6    13  32    7.8660   447.2    7.674      43.984
2015    2        6    13  37    7.8660   447.3    7.670      44.031
2015    2        6    13  42    7.8654   447.5    7.667      44.077
2015    2        6    13  47    7.8653   447.6    7.663      44.122
2015    2        6    13  52    7.8647   447.8    7.659      44.167
2015    2        6    13  57    7.8647   447.9    7.655      44.212
2015    2        6    14   3    7.8641   448.1    7.652      44.256
2015    2        6    14   8    7.8640   448.2    7.648      44.300
2015    2        6    14  13    7.8634   448.4    7.644      44.344
2015    2        6    14  18    7.8631   448.5    7.639      44.388
2015    2        6    14  23    7.8628   448.7    7.635      44.432
2015    2        6    14  28    7.8626   448.8    7.631      44.475
2015    2        6    14  33    7.8626   449.0    7.627      44.518
2015    2        6    14  38    7.8622   449.1    7.623      44.561
2015    2        6    14  43    7.8622   449.3    7.619      44.605
2015    2        6    14  49    7.8622   449.4    7.615      44.648
2015    2        6    14  54    7.8619   449.6    7.611      44.691
2015    2        6    14  59    7.8620   449.7    7.607      44.734
2015    2        6    15   4    7.8623   449.9    7.603      44.777
2015    2        6    15   9    7.8623   450.0    7.599      44.821
2015    2        6    15  14    7.8625   450.2    7.595      44.864
2015    2        6    15  19    7.8629   450.3    7.591      44.907
2015    2        6    15  24    7.8635   450.5    7.588      44.951
2015    2        6    15  29    7.8640   450.6    7.584      44.995
2015    2        6    15  34    7.8646   450.8    7.581      45.039
2015    2        6    15  40    7.8651   450.9    7.577      45.083
2015    2        6    15  45    7.8660   451.1    7.573      45.127
2015    2        6    15  50    7.8669   451.3    7.570      45.171
2015    2        6    15  55    7.8678   451.4    7.566      45.215
2015    2        6    16   0    7.8689   451.6    7.563      45.258
2015    2        6    16   5    7.8700   451.8    7.559      45.302
2015    2        6    16  10    7.8713   451.9    7.556      45.345
2015    2        6    16  15    7.8725   452.1    7.552      45.388
2015    2        6    16  20    7.8739   452.3    7.548      45.431
2015    2        6    16  25    7.8755   452.5    7.544      45.473
2015    2        6    16  31    7.8770   452.6    7.541      45.515
2015    2        6    16  36    7.8787   452.8    7.537      45.557
2015    2        6    16  41    7.8803   453.0    7.533      45.598
2015    2        6    16  46    7.8820   453.2    7.529      45.639
2015    2        6    16  51    7.8838   453.3    7.524      45.679
2015    2        6    16  56    7.8856   453.5    7.520      45.718
2015    2        6    17   1    7.8875   453.7    7.516      45.758
2015    2        6    17   6    7.8894   453.9    7.511      45.797
2015    2        6    17  11    7.8914   454.1    7.507      45.835
2015    2        6    17  17    7.8933   454.3    7.502      45.873
2015    2        6    17  22    7.8953   454.4    7.498      45.911
2015    2        6    17  27    7.8973   454.6    7.493      45.948
2015    2        6    17  32    7.8993   454.8    7.488      45.986
2015    2        6    17  37    7.9014   455.0    7.484      46.023
2015    2        6    17  42    7.9034   455.2    7.479      46.059
2015    2        6    17  47    7.9055   455.4    7.475      46.096
2015    2        6    17  52    7.9076   455.5    7.470      46.132
2015    2        6    17  57    7.9097   455.7    7.465      46.168
2015    2        6    18   2    7.9118   455.9    7.461      46.204
2015    2        6    18   8    7.9140   456.1    7.456      46.240
2015    2        6    18  13    7.9162   456.3    7.452      46.276
2015    2        6    18  18    7.9184   456.5    7.448      46.312
2015    2        6    18  23    7.9206   456.6    7.443      46.348
2015    2        6    18  28    7.9230   456.8    7.439      46.384
2015    2        6    18  33    7.9252   457.0    7.435      46.420
2015    2        6    18  38    7.9277   457.2    7.432      46.456
2015    2        6    18  43    7.9301   457.4    7.428      46.493
2015    2        6    18  48    7.9325   457.6    7.425      46.530
2015    2        6    18  54    7.9351   457.7    7.421      46.567
2015    2        6    18  59    7.9376   457.9    7.419      46.605
2015    2        6    19   4    7.9404   458.1    7.416      46.642
2015    2        6    19   9    7.9429   458.3    7.413      46.681
2015    2        6    19  14    7.9458   458.5    7.411      46.721
2015    2        6    19  19    7.9485   458.7    7.409      46.763
2015    2        6    19  24    7.9511   458.9    7.407      46.806
2015    2        6    19  29    7.9538   459.1    7.406      46.851
2015    2        6    19  34    7.9567   459.3    7.404      46.898
2015    2        6    19  39    7.9594   459.5    7.403      46.946
2015    2        6    19  45    7.9618   459.7    7.401      46.997
2015    2        6    19  50    7.9646   459.9    7.400      47.048
2015    2        6    19  55    7.9669   460.1    7.398      47.102
2015    2        6    20   0    7.9693   460.3    7.397      47.156
2015    2        6    20   5    7.9715   460.5    7.396      47.211
2015    2        6    20  10    7.9737   460.7    7.394      47.267
2015    2        6    20  15    7.9759   461.0    7.393      47.324
2015    2        6    20  20    7.9777   461.2    7.391      47.382
2015    2        6    20  25    7.9794   461.4    7.389      47.440
2015    2        6    20  31    7.9813   461.7    7.386      47.498
2015    2        6    20  36    7.9825   461.9    7.384      47.556
2015    2        6    20  41    7.9841   462.1    7.381      47.613
2015    2        6    20  46    7.9854   462.4    7.379      47.669
2015    2        6    20  51    7.9862   462.6    7.376      47.725
2015    2        6    20  56    7.9872   462.8    7.372      47.780
2015    2        6    21   1    7.9882   463.1    7.369      47.834
2015    2        6    21   6    7.9887   463.3    7.365      47.888
2015    2        6    21  11    7.9893   463.6    7.361      47.941
2015    2        6    21  16    7.9900   463.8    7.357      47.992
2015    2        6    21  22    7.9902   464.0    7.353      48.043
2015    2        6    21  27    7.9904   464.3    7.349      48.094
2015    2        6    21  32    7.9906   464.5    7.344      48.143
2015    2        6    21  37    7.9907   464.7    7.339      48.192
2015    2        6    21  42    7.9910   465.0    7.335      48.240
2015    2        6    21  47    7.9909   465.2    7.330      48.288
2015    2        6    21  52    7.9905   465.4    7.325      48.335
2015    2        6    21  57    7.9903   465.7    7.320      48.381
2015    2        6    22   2    7.9900   465.9    7.314      48.427
2015    2        6    22   7    7.9898   466.1    7.309      48.472
2015    2        6    22  13    7.9894   466.4    7.304      48.517
2015    2        6    22  18    7.9886   466.6    7.298      48.561
2015    2        6    22  23    7.9883   466.8    7.293      48.605
2015    2        6    22  28    7.9876   467.1    7.288      48.648
2015    2        6    22  33    7.9869   467.3    7.282      48.691
2015    2        6    22  38    7.9861   467.5    7.277      48.734
2015    2        6    22  43    7.9849   467.7    7.271      48.776
2015    2        6    22  48    7.9839   468.0    7.266      48.818
2015    2        6    22  53    7.9832   468.2    7.260      48.859
2015    2        6    22  59    7.9821   468.4    7.254      48.900
2015    2        6    23   4    7.9809   468.6    7.249      48.940
2015    2        6    23   9    7.9792   468.9    7.243      48.980
2015    2        6    23  14    7.9782   469.1    7.237      49.019
2015    2        6    23  19    7.9767   469.3    7.232      49.058
2015    2        6    23  24    7.9748   469.5    7.226      49.096
2015    2        6    23  29    7.9731   469.7    7.220      49.134
2015    2        6    23  34    7.9713   469.9    7.214      49.171
2015    2        6    23  39    7.9699   470.2    7.209      49.208
2015    2        6    23  44    7.9676   470.4    7.203      49.245
2015    2        6    23  50    7.9661   470.6    7.197      49.281
2015    2        6    23  55    7.9637   470.8    7.191      49.316
2015    2        7     0   0    7.9616   471.0    7.186      49.352
2015    2        7     0   5    7.9600   471.2    7.180      49.387
2015    2        7     0  10    7.9579   471.4    7.174      49.423
2015    2        7     0  15    7.9554   471.6    7.169      49.459
2015    2        7     0  20    7.9533   471.8    7.163      49.495
2015    2        7     0  25    7.9517   472.0    7.157      49.531
2015    2        7     0  30    7.9492   472.2    7.152      49.567
2015    2        7     0  36    7.9476   472.4    7.146      49.604
2015    2        7     0  41    7.9452   472.6    7.141      49.641
2015    2        7     0  46    7.9436   472.8    7.135      49.678
2015    2        7     0  51    7.9417   473.0    7.130      49.715
2015    2        7     0  56    7.9393   473.2    7.124      49.752
2015    2        7     1   1    7.9374   473.4    7.119      49.789
2015    2        7     1   6    7.9359   473.6    7.114      49.827
2015    2        7     1  11    7.9335   473.8    7.108      49.864
2015    2        7     1  16    7.9319   474.0    7.103      49.900
2015    2        7     1  21    7.9300   474.2    7.097      49.937
2015    2        7     1  27    7.9276   474.4    7.091      49.972
2015    2        7     1  32    7.9260   474.6    7.086      50.007
2015    2        7     1  37    7.9239   474.8    7.080      50.041
2015    2        7     1  42    7.9219   475.0    7.074      50.075
2015    2        7     1  47    7.9195   475.2    7.068      50.107
2015    2        7     1  52    7.9178   475.4    7.062      50.139
2015    2        7     1  57    7.9157   475.6    7.056      50.170
2015    2        7     2   2    7.9136   475.8    7.049      50.199
2015    2        7     2   7    7.9114   476.0    7.043      50.228
2015    2        7     2  13    7.9093   476.2    7.036      50.256
2015    2        7     2  18    7.9071   476.4    7.029      50.283
2015    2        7     2  23    7.9045   476.6    7.022      50.308
2015    2        7     2  28    7.9023   476.8    7.015      50.333
2015    2        7     2  33    7.9004   477.0    7.008      50.357
2015    2        7     2  38    7.8982   477.2    7.000      50.380
2015    2        7     2  43    7.8955   477.4    6.992      50.402
2015    2        7     2  48    7.8932   477.6    6.984      50.423
2015    2        7     2  53    7.8909   477.7    6.976      50.443
2015    2        7     2  58    7.8886   477.9    6.968      50.462
2015    2        7     3   4    7.8863   478.1    6.959      50.480
2015    2        7     3   9    7.8839   478.3    6.951      50.498
2015    2        7     3  14    7.8819   478.5    6.942      50.514
2015    2        7     3  19    7.8792   478.7    6.933      50.529
2015    2        7     3  24    7.8773   478.9    6.924      50.543
2015    2        7     3  29    7.8746   479.1    6.915      50.556
2015    2        7     3  34    7.8726   479.2    6.905      50.567
2015    2        7     3  39    7.8699   479.4    6.896      50.578
2015    2        7     3  44    7.8680   479.6    6.886      50.588
2015    2        7     3  49    7.8654   479.8    6.877      50.597
2015    2        7     3  55    7.8631   480.0    6.867      50.605
2015    2        7     4   0    7.8609   480.2    6.857      50.612
2015    2        7     4   5    7.8589   480.4    6.847      50.620
2015    2        7     4  10    7.8567   480.6    6.836      50.627
2015    2        7     4  15    7.8544   480.8    6.826      50.634
2015    2        7     4  20    7.8521   481.0    6.815      50.639
2015    2        7     4  25    7.8498   481.2    6.805      50.644
2015    2        7     4  30    7.8472   481.4    6.794      50.647
2015    2        7     4  35    7.8451   481.6    6.783      50.650
2015    2        7     4  41    7.8427   481.8    6.773      50.652
2015    2        7     4  46    7.8402   482.0    6.762      50.654
2015    2        7     4  51    7.8375   482.1    6.751      50.654
2015    2        7     4  56    7.8350   482.3    6.740      50.654
2015    2        7     5   1    7.8325   482.5    6.730      50.653
2015    2        7     5   6    7.8303   482.6    6.719      50.652
2015    2        7     5  11    7.8276   482.8    6.709      50.650
2015    2        7     5  16    7.8255   483.0    6.699      50.649
2015    2        7     5  21    7.8231   483.1    6.689      50.647
2015    2        7     5  26    7.8208   483.2    6.679      50.645
2015    2        7     5  32    7.8186   483.4    6.670      50.645
2015    2        7     5  37    7.8162   483.5    6.660      50.646
2015    2        7     5  42    7.8145   483.7    6.651      50.648
2015    2        7     5  47    7.8125   483.8    6.642      50.652
2015    2        7     5  52    7.8108   483.9    6.633      50.657
2015    2        7     5  57    7.8088   484.1    6.624      50.664
2015    2        7     6   2    7.8076   484.2    6.615      50.672
2015    2        7     6   7    7.8059   484.4    6.606      50.681
2015    2        7     6  12    7.8048   484.6    6.597      50.693
2015    2        7     6  18    7.8032   484.7    6.588      50.704
2015    2        7     6  23    7.8023   484.9    6.579      50.717
2015    2        7     6  28    7.8010   485.1    6.570      50.729
2015    2        7     6  33    7.7998   485.3    6.561      50.742
2015    2        7     6  38    7.7982   485.5    6.552      50.754
2015    2        7     6  43    7.7971   485.7    6.543      50.765
2015    2        7     6  48    7.7954   485.9    6.534      50.776
2015    2        7     6  53    7.7943   486.1    6.524      50.786
2015    2        7     6  58    7.7927   486.2    6.515      50.794
2015    2        7     7   3    7.7908   486.4    6.505      50.801
2015    2        7     7   9    7.7893   486.6    6.495      50.808
2015    2        7     7  14    7.7874   486.8    6.485      50.812
2015    2        7     7  19    7.7854   487.0    6.475      50.816
2015    2        7     7  24    7.7833   487.2    6.465      50.817
2015    2        7     7  29    7.7811   487.4    6.454      50.818
2015    2        7     7  34    7.7788   487.6    6.444      50.817
2015    2        7     7  39    7.7765   487.7    6.433      50.815
2015    2        7     7  44    7.7738   487.9    6.422      50.813
2015    2        7     7  49    7.7714   488.1    6.412      50.809
2015    2        7     7  54    7.7691   488.2    6.401      50.806
2015    2        7     8   0    7.7663   488.4    6.390      50.801
2015    2        7     8   5    7.7639   488.6    6.379      50.797
2015    2        7     8  10    7.7612   488.7    6.368      50.791
2015    2        7     8  15    7.7585   488.9    6.357      50.785
2015    2        7     8  20    7.7557   489.0    6.346      50.778
2015    2        7     8  25    7.7527   489.2    6.335      50.771
2015    2        7     8  30    7.7498   489.4    6.324      50.764
2015    2        7     8  35    7.7469   489.5    6.313      50.755
2015    2        7     8  40    7.7442   489.7    6.302      50.746
2015    2        7     8  46    7.7412   489.8    6.291      50.736
2015    2        7     8  51    7.7378   490.0    6.280      50.725
2015    2        7     8  56    7.7350   490.1    6.269      50.714
2015    2        7     9   1    7.7317   490.3    6.258      50.702
2015    2        7     9   6    7.7282   490.4    6.247      50.691
2015    2        7     9  11    7.7248   490.6    6.236      50.679
2015    2        7     9  16    7.7217   490.8    6.225      50.669
2015    2        7     9  21    7.7181   490.9    6.214      50.657
2015    2        7     9  26    7.7146   491.1    6.203      50.646
2015    2        7     9  31    7.7109   491.3    6.192      50.634
2015    2        7     9  37    7.7072   491.4    6.181      50.622
2015    2        7     9  42    7.7034   491.6    6.170      50.609
2015    2        7     9  47    7.6996   491.7    6.159      50.597
2015    2        7     9  52    7.6957   491.9    6.149      50.584
2015    2        7     9  57    7.6918   492.0    6.139      50.571
2015    2        7    10   2    7.6876   492.2    6.128      50.559
2015    2        7    10   7    7.6839   492.3    6.118      50.546
2015    2        7    10  12    7.6799   492.4    6.109      50.533
2015    2        7    10  17    7.6760   492.6    6.099      50.521
2015    2        7    10  23    7.6720   492.7    6.090      50.508
2015    2        7    10  28    7.6681   492.8    6.081      50.497
2015    2        7    10  33    7.6642   492.9    6.073      50.486
2015    2        7    10  38    7.6601   493.0    6.065      50.477
2015    2        7    10  43    7.6563   493.1    6.057      50.469
2015    2        7    10  48    7.6528   493.2    6.049      50.464
2015    2        7    10  53    7.6491   493.3    6.041      50.462
2015    2        7    10  58    7.6455   493.4    6.034      50.462
2015    2        7    11   3    7.6418   493.5    6.027      50.464
2015    2        7    11   8    7.6383   493.6    6.019      50.467
2015    2        7    11  14    7.6345   493.7    6.013      50.473
2015    2        7    11  19    7.6309   493.8    6.006      50.479
2015    2        7    11  24    7.6273   493.9    5.999      50.486
2015    2        7    11  29    7.6239   494.1    5.992      50.494
2015    2        7    11  34    7.6201   494.2    5.985      50.503
2015    2        7    11  39    7.6167   494.3    5.979      50.511
2015    2        7    11  44    7.6128   494.4    5.972      50.520
2015    2        7    11  49    7.6093   494.6    5.965      50.528
2015    2        7    11  54    7.6053   494.7    5.958      50.536
2015    2        7    12   0    7.6017   494.8    5.951      50.544
2015    2        7    12   5    7.5976   494.9    5.944      50.551
2015    2        7    12  10    7.5936   495.1    5.937      50.557
2015    2        7    12  15    7.5896   495.2    5.929      50.563
2015    2        7    12  20    7.5856   495.3    5.922      50.567
2015    2        7    12  25    7.5817   495.5    5.915      50.569
2015    2        7    12  30    7.5774   495.6    5.908      50.571
2015    2        7    12  35    7.5732   495.7    5.900      50.572
2015    2        7    12  40    7.5692   495.8    5.893      50.573
2015    2        7    12  45    7.5650   495.9    5.885      50.572
2015    2        7    12  51    7.5607   496.1    5.878      50.572
2015    2        7    12  56    7.5564   496.2    5.871      50.570
2015    2        7    13   1    7.5521   496.3    5.863      50.569
2015    2        7    13   6    7.5479   496.4    5.856      50.567
2015    2        7    13  11    7.5435   496.5    5.849      50.566
2015    2        7    13  16    7.5393   496.6    5.841      50.564
2015    2        7    13  21    7.5351   496.7    5.834      50.562
2015    2        7    13  26    7.5308   496.8    5.827      50.560
2015    2        7    13  31    7.5264   497.0    5.820      50.558
2015    2        7    13  36    7.5222   497.1    5.813      50.556
2015    2        7    13  42    7.5180   497.2    5.806      50.554
2015    2        7    13  47    7.5137   497.3    5.799      50.552
2015    2        7    13  52    7.5095   497.4    5.792      50.550
2015    2        7    13  57    7.5053   497.5    5.785      50.549
2015    2        7    14   2    7.5011   497.6    5.778      50.547
2015    2        7    14   7    7.4969   497.7    5.772      50.545
2015    2        7    14  12    7.4927   497.9    5.765      50.544
2015    2        7    14  17    7.4886   498.0    5.758      50.542
2015    2        7    14  22    7.4845   498.1    5.752      50.541
2015    2        7    14  28    7.4804   498.2    5.746      50.539
2015    2        7    14  33    7.4763   498.3    5.739      50.537
2015    2        7    14  38    7.4722   498.4    5.733      50.535
2015    2        7    14  43    7.4682   498.5    5.727      50.533
2015    2        7    14  48    7.4642   498.6    5.721      50.532
2015    2        7    14  53    7.4603   498.7    5.715      50.529
2015    2        7    14  58    7.4563   498.8    5.709      50.527
2015    2        7    15   3    7.4524   498.9    5.703      50.525
2015    2        7    15   8    7.4485   499.0    5.698      50.523
2015    2        7    15  13    7.4447   499.1    5.692      50.521
2015    2        7    15  19    7.4409   499.2    5.687      50.520
2015    2        7    15  24    7.4371   499.3    5.681      50.518
2015    2        7    15  29    7.4335   499.4    5.676      50.516
2015    2        7    15  34    7.4298   499.5    5.671      50.515
2015    2        7    15  39    7.4260   499.6    5.666      50.515
2015    2        7    15  44    7.4224   499.7    5.661      50.515
2015    2        7    15  49    7.4188   499.7    5.656      50.515
2015    2        7    15  54    7.4153   499.8    5.652      50.515
2015    2        7    15  59    7.4117   499.9    5.648      50.516
2015    2        7    16   5    7.4082   500.0    5.643      50.518
2015    2        7    16  10    7.4049   500.1    5.639      50.521
2015    2        7    16  15    7.4014   500.1    5.635      50.525
2015    2        7    16  20    7.3980   500.2    5.631      50.530
2015    2        7    16  25    7.3947   500.3    5.627      50.535
2015    2        7    16  30    7.3912   500.4    5.623      50.541
2015    2        7    16  35    7.3879   500.4    5.620      50.548
2015    2        7    16  40    7.3846   500.5    5.616      50.555
2015    2        7    16  45    7.3814   500.6    5.612      50.563
2015    2        7    16  50    7.3781   500.7    5.608      50.571
2015    2        7    16  56    7.3749   500.7    5.605      50.579
2015    2        7    17   1    7.3719   500.8    5.601      50.587
2015    2        7    17   6    7.3687   500.9    5.597      50.596
2015    2        7    17  11    7.3654   501.0    5.593      50.604
2015    2        7    17  16    7.3624   501.0    5.589      50.612
2015    2        7    17  21    7.3591   501.1    5.585      50.620
2015    2        7    17  26    7.3559   501.2    5.581      50.628
2015    2        7    17  31    7.3529   501.3    5.577      50.636
2015    2        7    17  36    7.3497   501.4    5.573      50.643
2015    2        7    17  42    7.3465   501.4    5.568      50.650
2015    2        7    17  47    7.3434   501.5    5.564      50.657
2015    2        7    17  52    7.3404   501.6    5.560      50.662
2015    2        7    17  57    7.3372   501.7    5.555      50.667
2015    2        7    18   2    7.3341   501.8    5.551      50.672
2015    2        7    18   7    7.3308   501.8    5.546      50.677
2015    2        7    18  12    7.3276   501.9    5.542      50.681
2015    2        7    18  17    7.3243   502.0    5.537      50.685
2015    2        7    18  22    7.3211   502.1    5.532      50.689
2015    2        7    18  27    7.3180   502.1    5.528      50.692
2015    2        7    18  33    7.3148   502.2    5.523      50.695
2015    2        7    18  38    7.3115   502.3    5.519      50.698
2015    2        7    18  43    7.3083   502.4    5.514      50.701
2015    2        7    18  48    7.3051   502.4    5.509      50.704
2015    2        7    18  53    7.3018   502.5    5.505      50.707
2015    2        7    18  58    7.2986   502.6    5.500      50.710
2015    2        7    19   3    7.2954   502.6    5.496      50.712
2015    2        7    19   8    7.2922   502.7    5.491      50.715
2015    2        7    19  13    7.2890   502.8    5.487      50.718
2015    2        7    19  18    7.2858   502.8    5.482      50.721
2015    2        7    19  24    7.2826   502.9    5.478      50.725
2015    2        7    19  29    7.2795   503.0    5.474      50.728
2015    2        7    19  34    7.2765   503.0    5.470      50.732
2015    2        7    19  39    7.2732   503.1    5.466      50.736
2015    2        7    19  44    7.2701   503.2    5.462      50.740
2015    2        7    19  49    7.2670   503.2    5.458      50.745
2015    2        7    19  54    7.2640   503.3    5.454      50.750
2015    2        7    19  59    7.2609   503.4    5.450      50.755
2015    2        7    20   4    7.2579   503.4    5.447      50.761
2015    2        7    20  10    7.2549   503.5    5.443      50.768
2015    2        7    20  15    7.2520   503.6    5.440      50.775
2015    2        7    20  20    7.2490   503.6    5.437      50.782
2015    2        7    20  25    7.2462   503.7    5.434      50.789
2015    2        7    20  30    7.2432   503.8    5.431      50.798
2015    2        7    20  35    7.2404   503.8    5.428      50.806
2015    2        7    20  40    7.2375   503.9    5.425      50.815
2015    2        7    20  45    7.2346   504.0    5.423      50.825
2015    2        7    20  50    7.2319   504.0    5.420      50.836
2015    2        7    20  55    7.2290   504.1    5.418      50.847
2015    2        7    21   1    7.2262   504.2    5.415      50.858
2015    2        7    21   6    7.2236   504.2    5.413      50.869
2015    2        7    21  11    7.2207   504.3    5.411      50.881
2015    2        7    21  16    7.2182   504.4    5.409      50.893
2015    2        7    21  21    7.2153   504.4    5.407      50.905
2015    2        7    21  26    7.2127   504.5    5.404      50.917
2015    2        7    21  31    7.2100   504.6    5.402      50.928
2015    2        7    21  36    7.2073   504.6    5.400      50.939
2015    2        7    21  41    7.2048   504.7    5.397      50.950
2015    2        7    21  47    7.2020   504.8    5.395      50.961
2015    2        7    21  52    7.1994   504.8    5.393      50.971
2015    2        7    21  57    7.1969   504.9    5.390      50.981
2015    2        7    22   2    7.1943   505.0    5.387      50.991
2015    2        7    22   7    7.1916   505.0    5.385      51.000
2015    2        7    22  12    7.1890   505.1    5.382      51.008
2015    2        7    22  17    7.1864   505.2    5.379      51.016
2015    2        7    22  22    7.1839   505.2    5.376      51.024
2015    2        7    22  27    7.1813   505.3    5.373      51.031
2015    2        7    22  32    7.1788   505.3    5.371      51.038
2015    2        7    22  38    7.1764   505.4    5.368      51.044
2015    2        7    22  43    7.1738   505.5    5.364      51.050
2015    2        7    22  48    7.1714   505.5    5.361      51.056
2015    2        7    22  53    7.1689   505.6    5.358      51.062
2015    2        7    22  58    7.1665   505.7    5.355      51.067
2015    2        7    23   3    7.1639   505.7    5.352      51.072
2015    2        7    23   8    7.1615   505.8    5.349      51.076
2015    2        7    23  13    7.1592   505.8    5.345      51.081
2015    2        7    23  18    7.1569   505.9    5.342      51.085
2015    2        7    23  24    7.1545   506.0    5.339      51.089
2015    2        7    23  29    7.1521   506.0    5.335      51.093
2015    2        7    23  34    7.1498   506.1    5.332      51.096
2015    2        7    23  39    7.1474   506.1    5.329      51.099
2015    2        7    23  44    7.1449   506.2    5.325      51.102
2015    2        7    23  49    7.1426   506.3    5.322      51.105
2015    2        7    23  54    7.1403   506.3    5.318      51.107
2015    2        7    23  59    7.1380   506.4    5.315      51.109
2015    2        8     0   4    7.1357   506.4    5.311      51.111
2015    2        8     0   9    7.1334   506.5    5.308      51.113
2015    2        8     0  15    7.1310   506.5    5.304      51.114
2015    2        8     0  20    7.1286   506.6    5.300      51.115
2015    2        8     0  25    7.1264   506.7    5.297      51.116
2015    2        8     0  30    7.1240   506.7    5.293      51.116
2015    2        8     0  35    7.1217   506.8    5.289      51.117
2015    2        8     0  40    7.1193   506.8    5.285      51.117
2015    2        8     0  45    7.1170   506.9    5.282      51.117
2015    2        8     0  50    7.1146   506.9    5.278      51.117
2015    2        8     0  55    7.1123   507.0    5.274      51.116
2015    2        8     1   0    7.1100   507.0    5.270      51.116
2015    2        8     1   6    7.1076   507.1    5.267      51.115
2015    2        8     1  11    7.1052   507.1    5.263      51.114
2015    2        8     1  16    7.1029   507.2    5.259      51.114
2015    2        8     1  21    7.1006   507.2    5.255      51.113
2015    2        8     1  26    7.0982   507.3    5.252      51.113
2015    2        8     1  31    7.0959   507.3    5.248      51.112
2015    2        8     1  36    7.0935   507.4    5.245      51.112
2015    2        8     1  41    7.0911   507.4    5.241      51.111
2015    2        8     1  46    7.0888   507.5    5.237      51.111
2015    2        8     1  52    7.0864   507.5    5.234      51.111
2015    2        8     1  57    7.0842   507.6    5.230      51.111
2015    2        8     2   2    7.0818   507.6    5.227      51.112
2015    2        8     2   7    7.0794   507.7    5.224      51.112
2015    2        8     2  12    7.0770   507.7    5.220      51.113
2015    2        8     2  17    7.0748   507.8    5.217      51.115
2015    2        8     2  22    7.0725   507.8    5.214      51.116
2015    2        8     2  27    7.0701   507.9    5.211      51.118
2015    2        8     2  32    7.0678   507.9    5.208      51.121
2015    2        8     2  37    7.0655   507.9    5.205      51.124
2015    2        8     2  43    7.0632   508.0    5.202      51.127
2015    2        8     2  48    7.0609   508.0    5.200      51.131
2015    2        8     2  53    7.0587   508.1    5.197      51.135
2015    2        8     2  58    7.0564   508.1    5.195      51.140
2015    2        8     3   3    7.0542   508.2    5.192      51.145
2015    2        8     3   8    7.0520   508.2    5.190      51.151
2015    2        8     3  13    7.0498   508.2    5.188      51.157
2015    2        8     3  18    7.0476   508.3    5.186      51.164
2015    2        8     3  23    7.0455   508.3    5.184      51.171
2015    2        8     3  29    7.0432   508.4    5.182      51.179
2015    2        8     3  34    7.0411   508.4    5.180      51.187
2015    2        8     3  39    7.0390   508.5    5.178      51.196
2015    2        8     3  44    7.0368   508.5    5.177      51.205
2015    2        8     3  49    7.0347   508.5    5.175      51.214
2015    2        8     3  54    7.0326   508.6    5.174      51.223
2015    2        8     3  59    7.0306   508.6    5.173      51.234
2015    2        8     4   4    7.0284   508.7    5.171      51.244
2015    2        8     4   9    7.0264   508.7    5.170      51.255
2015    2        8     4  14    7.0244   508.7    5.169      51.266
2015    2        8     4  20    7.0224   508.8    5.168      51.278
2015    2        8     4  25    7.0203   508.8    5.167      51.289
2015    2        8     4  30    7.0182   508.9    5.165      51.300
2015    2        8     4  35    7.0162   508.9    5.164      51.311
2015    2        8     4  40    7.0143   508.9    5.163      51.322
2015    2        8     4  45    7.0123   509.0    5.162      51.333
2015    2        8     4  50    7.0103   509.0    5.161      51.343
2015    2        8     4  55    7.0084   509.1    5.159      51.353
2015    2        8     5   0    7.0063   509.1    5.158      51.362
2015    2        8     5   6    7.0045   509.1    5.156      51.371
2015    2        8     5  11    7.0024   509.2    5.155      51.380
2015    2        8     5  16    7.0005   509.2    5.153      51.389
2015    2        8     5  21    6.9987   509.2    5.152      51.396
2015    2        8     5  26    6.9967   509.3    5.150      51.403
2015    2        8     5  31    6.9948   509.3    5.148      51.410
2015    2        8     5  36    6.9930   509.4    5.146      51.416
2015    2        8     5  41    6.9911   509.4    5.144      51.422
2015    2        8     5  46    6.9893   509.4    5.143      51.427
2015    2        8     5  51    6.9875   509.5    5.141      51.432
2015    2        8     5  57    6.9858   509.5    5.139      51.437
2015    2        8     6   2    6.9839   509.5    5.137      51.441
2015    2        8     6   7    6.9822   509.6    5.135      51.445
2015    2        8     6  12    6.9804   509.6    5.132      51.449
2015    2        8     6  17    6.9785   509.6    5.130      51.453
2015    2        8     6  22    6.9769   509.7    5.128      51.456
2015    2        8     6  27    6.9750   509.7    5.126      51.459
2015    2        8     6  32    6.9734   509.8    5.124      51.461
2015    2        8     6  37    6.9715   509.8    5.122      51.464
2015    2        8     6  42    6.9698   509.8    5.119      51.466
2015    2        8     6  48    6.9682   509.9    5.117      51.468
2015    2        8     6  53    6.9664   509.9    5.115      51.470
2015    2        8     6  58    6.9647   509.9    5.113      51.471
2015    2        8     7   3    6.9630   510.0    5.110      51.473
2015    2        8     7   8    6.9612   510.0    5.108      51.474
2015    2        8     7  13    6.9596   510.0    5.105      51.475
2015    2        8     7  18    6.9579   510.1    5.103      51.475
2015    2        8     7  23    6.9561   510.1    5.100      51.475
2015    2        8     7  28    6.9545   510.1    5.098      51.475
2015    2        8     7  34    6.9527   510.1    5.095      51.475
2015    2        8     7  39    6.9510   510.2    5.093      51.474
2015    2        8     7  44    6.9492   510.2    5.090      51.474
2015    2        8     7  49    6.9475   510.2    5.088      51.472
2015    2        8     7  54    6.9458   510.3    5.085      51.471
2015    2        8     7  59    6.9440   510.3    5.082      51.469
2015    2        8     8   4    6.9423   510.3    5.080      51.468
2015    2        8     8   9    6.9406   510.3    5.077      51.466
2015    2        8     8  14    6.9388   510.4    5.074      51.463
2015    2        8     8  19    6.9370   510.4    5.071      51.461
2015    2        8     8  25    6.9353   510.4    5.069      51.458
2015    2        8     8  30    6.9336   510.4    5.066      51.456
2015    2        8     8  35    6.9318   510.5    5.063      51.453
2015    2        8     8  40    6.9300   510.5    5.060      51.450
2015    2        8     8  45    6.9283   510.5    5.058      51.447
2015    2        8     8  50    6.9265   510.5    5.055      51.444
2015    2        8     8  55    6.9248   510.6    5.052      51.441
2015    2        8     9   0    6.9231   510.6    5.050      51.439
2015    2        8     9   5    6.9214   510.6    5.047      51.436
2015    2        8     9  11    6.9196   510.6    5.045      51.434
2015    2        8     9  16    6.9179   510.6    5.042      51.432
2015    2        8     9  21    6.9162   510.6    5.040      51.430
2015    2        8     9  26    6.9146   510.7    5.037      51.428
2015    2        8     9  31    6.9129   510.7    5.035      51.427
2015    2        8     9  36    6.9113   510.7    5.033      51.426
2015    2        8     9  41    6.9096   510.7    5.031      51.425
2015    2        8     9  46    6.9081   510.7    5.029      51.425
2015    2        8     9  51    6.9064   510.7    5.027      51.426
2015    2        8     9  56    6.9049   510.8    5.025      51.427
2015    2        8    10   2    6.9034   510.8    5.023      51.428
2015    2        8    10   7    6.9019   510.8    5.021      51.430
2015    2        8    10  12    6.9003   510.8    5.020      51.433
2015    2        8    10  17    6.8988   510.8    5.018      51.436
2015    2        8    10  22    6.8974   510.8    5.017      51.440
2015    2        8    10  27    6.8960   510.8    5.016      51.445
2015    2        8    10  32    6.8946   510.9    5.014      51.450
2015    2        8    10  37    6.8933   510.9    5.013      51.456
2015    2        8    10  42    6.8919   510.9    5.012      51.462
2015    2        8    10  48    6.8906   510.9    5.011      51.469
2015    2        8    10  53    6.8892   510.9    5.011      51.477
2015    2        8    10  58    6.8879   511.0    5.010      51.485
2015    2        8    11   3    6.8866   511.0    5.009      51.493
2015    2        8    11   8    6.8853   511.0    5.009      51.502
2015    2        8    11  13    6.8842   511.0    5.008      51.512
2015    2        8    11  18    6.8829   511.0    5.008      51.523
2015    2        8    11  23    6.8816   511.0    5.008      51.533
2015    2        8    11  28    6.8804   511.1    5.008      51.544
2015    2        8    11  33    6.8792   511.1    5.008      51.555
2015    2        8    11  39    6.8780   511.1    5.007      51.567
2015    2        8    11  44    6.8769   511.1    5.007      51.579
2015    2        8    11  49    6.8757   511.1    5.007      51.591
2015    2        8    11  54    6.8745   511.2    5.007      51.603
2015    2        8    11  59    6.8732   511.2    5.007      51.616
2015    2        8    12   4    6.8721   511.2    5.007      51.629
2015    2        8    12   9    6.8708   511.2    5.007      51.641
2015    2        8    12  14    6.8698   511.2    5.007      51.654
2015    2        8    12  19    6.8686   511.2    5.007      51.666
2015    2        8    12  24    6.8673   511.3    5.006      51.678
2015    2        8    12  30    6.8662   511.3    5.006      51.689
2015    2        8    12  35    6.8650   511.3    5.006      51.701
2015    2        8    12  40    6.8637   511.3    5.005      51.712
2015    2        8    12  45    6.8627   511.3    5.005      51.722
2015    2        8    12  50    6.8615   511.4    5.004      51.732
2015    2        8    12  55    6.8604   511.4    5.004      51.742
2015    2        8    13   0    6.8591   511.4    5.003      51.750
2015    2        8    13   5    6.8580   511.4    5.002      51.759
2015    2        8    13  10    6.8569   511.4    5.002      51.767
2015    2        8    13  16    6.8556   511.4    5.001      51.774
2015    2        8    13  21    6.8546   511.4    5.000      51.781
2015    2        8    13  26    6.8534   511.5    4.999      51.788
2015    2        8    13  31    6.8524   511.5    4.998      51.794
2015    2        8    13  36    6.8513   511.5    4.997      51.800
2015    2        8    13  41    6.8501   511.5    4.996      51.806
2015    2        8    13  46    6.8490   511.5    4.995      51.811
2015    2        8    13  51    6.8479   511.5    4.994      51.816
2015    2        8    13  56    6.8469   511.5    4.993      51.821
2015    2        8    14   1    6.8459   511.6    4.992      51.826
2015    2        8    14   7    6.8448   511.6    4.991      51.830
2015    2        8    14  12    6.8437   511.6    4.990      51.834
2015    2        8    14  17    6.8427   511.6    4.989      51.838
2015    2        8    14  22    6.8416   511.6    4.988      51.841
2015    2        8    14  27    6.8406   511.6    4.986      51.845
2015    2        8    14  32    6.8395   511.6    4.985      51.848
2015    2        8    14  37    6.8384   511.6    4.984      51.850
2015    2        8    14  42    6.8374   511.6    4.982      51.853
2015    2        8    14  47    6.8365   511.7    4.981      51.855
2015    2        8    14  53    6.8354   511.7    4.980      51.856
2015    2        8    14  58    6.8344   511.7    4.978      51.858
2015    2        8    15   3    6.8334   511.7    4.977      51.859
2015    2        8    15   8    6.8324   511.7    4.975      51.859
2015    2        8    15  13    6.8313   511.7    4.974      51.860
2015    2        8    15  18    6.8303   511.7    4.972      51.860
2015    2        8    15  23    6.8293   511.7    4.970      51.859
2015    2        8    15  28    6.8284   511.7    4.969      51.859
2015    2        8    15  33    6.8273   511.7    4.967      51.858
2015    2        8    15  38    6.8263   511.7    4.966      51.857
2015    2        8    15  44    6.8252   511.7    4.964      51.855
2015    2        8    15  49    6.8243   511.7    4.962      51.854
2015    2        8    15  54    6.8232   511.7    4.961      51.852
2015    2        8    15  59    6.8223   511.7    4.959      51.850
2015    2        8    16   4    6.8213   511.7    4.957      51.848
2015    2        8    16   9    6.8203   511.7    4.956      51.846
2015    2        8    16  14    6.8193   511.7    4.954      51.843
2015    2        8    16  19    6.8183   511.7    4.952      51.841
2015    2        8    16  24    6.8172   511.7    4.951      51.839
2015    2        8    16  30    6.8163   511.7    4.949      51.836
2015    2        8    16  35    6.8153   511.7    4.948      51.834
2015    2        8    16  40    6.8144   511.7    4.946      51.832
2015    2        8    16  45    6.8134   511.7    4.945      51.830
2015    2        8    16  50    6.8124   511.7    4.943      51.829
2015    2        8    16  55    6.8114   511.6    4.942      51.828
2015    2        8    17   0    6.8106   511.6    4.941      51.827
2015    2        8    17   5    6.8097   511.6    4.940      51.827
2015    2        8    17  10    6.8088   511.6    4.939      51.827
2015    2        8    17  15    6.8080   511.6    4.938      51.828
2015    2        8    17  21    6.8072   511.6    4.937      51.829
2015    2        8    17  26    6.8063   511.6    4.936      51.831
2015    2        8    17  31    6.8056   511.6    4.935      51.833
2015    2        8    17  36    6.8048   511.6    4.935      51.837
2015    2        8    17  41    6.8041   511.6    4.934      51.841
2015    2        8    17  46    6.8034   511.6    4.934      51.846
2015    2        8    17  51    6.8027   511.6    4.933      51.852
2015    2        8    17  56    6.8020   511.5    4.933      51.858
2015    2        8    18   1    6.8013   511.5    4.933      51.865
2015    2        8    18   7    6.8008   511.5    4.933      51.873
2015    2        8    18  12    6.8002   511.5    4.934      51.882
2015    2        8    18  17    6.7996   511.5    4.934      51.892
2015    2        8    18  22    6.7991   511.5    4.935      51.903
2015    2        8    18  27    6.7985   511.5    4.935      51.914
2015    2        8    18  32    6.7980   511.5    4.936      51.926
2015    2        8    18  37    6.7975   511.5    4.937      51.938
2015    2        8    18  42    6.7970   511.5    4.937      51.951
2015    2        8    18  47    6.7965   511.5    4.938      51.965
2015    2        8    18  52    6.7961   511.5    4.939      51.980
2015    2        8    18  58    6.7956   511.5    4.940      51.996
2015    2        8    19   3    6.7951   511.5    4.941      52.013
2015    2        8    19   8    6.7946   511.5    4.942      52.031
2015    2        8    19  13    6.7941   511.5    4.943      52.049
2015    2        8    19  18    6.7936   511.5    4.945      52.068
2015    2        8    19  23    6.7931   511.5    4.946      52.087
2015    2        8    19  28    6.7926   511.5    4.946      52.106
2015    2        8    19  33    6.7921   511.5    4.947      52.125
2015    2        8    19  38    6.7915   511.5    4.948      52.144
2015    2        8    19  43    6.7911   511.5    4.949      52.163
2015    2        8    19  49    6.7906   511.5    4.950      52.182
2015    2        8    19  54    6.7901   511.5    4.950      52.201
2015    2        8    19  59    6.7896   511.5    4.951      52.219
2015    2        8    20   4    6.7891   511.5    4.952      52.237
2015    2        8    20   9    6.7886   511.5    4.952      52.254
2015    2        8    20  14    6.7882   511.5    4.952      52.270
2015    2        8    20  19    6.7876   511.5    4.953      52.286
2015    2        8    20  24    6.7872   511.5    4.953      52.302
2015    2        8    20  29    6.7868   511.5    4.953      52.316
2015    2        8    20  35    6.7863   511.5    4.953      52.331
2015    2        8    20  40    6.7859   511.5    4.953      52.344
2015    2        8    20  45    6.7855   511.5    4.954      52.357
2015    2        8    20  50    6.7851   511.5    4.954      52.370
2015    2        8    20  55    6.7847   511.5    4.954      52.382
2015    2        8    21   0    6.7843   511.5    4.953      52.394
2015    2        8    21   5    6.7839   511.5    4.953      52.405
2015    2        8    21  10    6.7835   511.5    4.953      52.416
2015    2        8    21  15    6.7831   511.5    4.953      52.426
2015    2        8    21  20    6.7828   511.5    4.953      52.437
2015    2        8    21  26    6.7824   511.5    4.953      52.446
2015    2        8    21  31    6.7821   511.5    4.952      52.456
2015    2        8    21  36    6.7818   511.5    4.952      52.465
2015    2        8    21  41    6.7815   511.5    4.952      52.474
2015    2        8    21  46    6.7812   511.5    4.951      52.482
2015    2        8    21  51    6.7809   511.5    4.951      52.490
2015    2        8    21  56    6.7806   511.5    4.950      52.498
2015    2        8    22   1    6.7804   511.5    4.950      52.505
2015    2        8    22   6    6.7801   511.5    4.949      52.512
2015    2        8    22  12    6.7799   511.5    4.949      52.519
2015    2        8    22  17    6.7797   511.5    4.948      52.525
2015    2        8    22  22    6.7794   511.5    4.948      52.532
2015    2        8    22  27    6.7792   511.5    4.947      52.538
2015    2        8    22  32    6.7790   511.5    4.946      52.543
2015    2        8    22  37    6.7788   511.5    4.946      52.548
2015    2        8    22  42    6.7786   511.5    4.945      52.553
2015    2        8    22  47    6.7784   511.5    4.944      52.558
2015    2        8    22  52    6.7782   511.5    4.944      52.563
2015    2        8    22  57    6.7780   511.5    4.943      52.567
2015    2        8    23   3    6.7778   511.5    4.942      52.572
2015    2        8    23   8    6.7776   511.5    4.942      52.576
2015    2        8    23  13    6.7774   511.5    4.941      52.580
2015    2        8    23  18    6.7771   511.5    4.940      52.584
2015    2        8    23  23    6.7769   511.5    4.939      52.587
2015    2        8    23  28    6.7767   511.5    4.939      52.591
2015    2        8    23  33    6.7765   511.5    4.938      52.594
2015    2        8    23  38    6.7763   511.5    4.937      52.598
2015    2        8    23  43    6.7761   511.5    4.937      52.602
2015    2        8    23  49    6.7758   511.5    4.936      52.605
2015    2        8    23  54    6.7756   511.5    4.936      52.609
2015    2        8    23  59    6.7755   511.5    4.935      52.613
2015    2        9     0   4    6.7752   511.5    4.934      52.617
2015    2        9     0   9    6.7750   511.5    4.934      52.622
2015    2        9     0  14    6.7748   511.5    4.934      52.626
2015    2        9     0  19    6.7746   511.5    4.933      52.632
2015    2        9     0  24    6.7744   511.5    4.933      52.637
2015    2        9     0  29    6.7743   511.5    4.933      52.643
2015    2        9     0  34    6.7741   511.4    4.933      52.650
2015    2        9     0  40    6.7738   511.4    4.933      52.657
2015    2        9     0  45    6.7737   511.4    4.933      52.664
2015    2        9     0  50    6.7736   511.4    4.933      52.673
2015    2        9     0  55    6.7735   511.4    4.933      52.682
2015    2        9     1   0    6.7733   511.4    4.933      52.692
2015    2        9     1   5    6.7732   511.4    4.934      52.703
2015    2        9     1  10    6.7731   511.4    4.934      52.714
2015    2        9     1  15    6.7730   511.4    4.935      52.727
2015    2        9     1  20    6.7729   511.4    4.936      52.740
2015    2        9     1  25    6.7729   511.4    4.937      52.754
2015    2        9     1  31    6.7728   511.4    4.938      52.769
2015    2        9     1  36    6.7728   511.4    4.939      52.784
2015    2        9     1  41    6.7727   511.4    4.940      52.800
2015    2        9     1  46    6.7727   511.4    4.941      52.818
2015    2        9     1  51    6.7727   511.4    4.943      52.836
2015    2        9     1  56    6.7726   511.4    4.944      52.854
2015    2        9     2   1    6.7726   511.4    4.946      52.874
2015    2        9     2   6    6.7726   511.3    4.948      52.896
2015    2        9     2  11    6.7726   511.3    4.949      52.919
2015    2        9     2  17    6.7726   511.4    4.951      52.943
2015    2        9     2  22    6.7726   511.4    4.953      52.968
2015    2        9     2  27    6.7726   511.4    4.954      52.994
2015    2        9     2  32    6.7725   511.4    4.956      53.020
2015    2        9     2  37    6.7726   511.4    4.957      53.047
2015    2        9     2  42    6.7726   511.4    4.959      53.075
2015    2        9     2  47    6.7725   511.4    4.960      53.102
2015    2        9     2  52    6.7726   511.4    4.961      53.129
2015    2        9     2  57    6.7725   511.4    4.963      53.157
2015    2        9     3   2    6.7725   511.4    4.964      53.184
2015    2        9     3   8    6.7725   511.4    4.965      53.211
2015    2        9     3  13    6.7725   511.4    4.966      53.237
2015    2        9     3  18    6.7725   511.4    4.967      53.263
2015    2        9     3  23    6.7725   511.4    4.967      53.288
2015    2        9     3  28    6.7725   511.4    4.968      53.313
2015    2        9     3  33    6.7725   511.4    4.969      53.336
2015    2        9     3  38    6.7725   511.4    4.969      53.359
2015    2        9     3  43    6.7725   511.4    4.969      53.381
2015    2        9     3  48    6.7726   511.4    4.970      53.402
2015    2        9     3  54    6.7726   511.4    4.970      53.423
2015    2        9     3  59    6.7727   511.4    4.970      53.443
2015    2        9     4   4    6.7727   511.4    4.971      53.463
2015    2        9     4   9    6.7728   511.4    4.971      53.482
2015    2        9     4  14    6.7729   511.4    4.971      53.500
2015    2        9     4  19    6.7730   511.4    4.971      53.518
2015    2        9     4  24    6.7730   511.4    4.971      53.536
2015    2        9     4  29    6.7732   511.4    4.971      53.553
2015    2        9     4  34    6.7733   511.4    4.971      53.570
2015    2        9     4  39    6.7735   511.4    4.971      53.586
2015    2        9     4  45    6.7736   511.4    4.970      53.602
2015    2        9     4  50    6.7738   511.4    4.970      53.617
2015    2        9     4  55    6.7739   511.4    4.970      53.632
2015    2        9     5   0    6.7741   511.4    4.970      53.647
2015    2        9     5   5    6.7743   511.4    4.969      53.661
2015    2        9     5  10    6.7745   511.4    4.969      53.675
2015    2        9     5  15    6.7747   511.4    4.969      53.689
2015    2        9     5  20    6.7749   511.4    4.968      53.702
2015    2        9     5  25    6.7752   511.4    4.968      53.715
2015    2        9     5  31    6.7754   511.4    4.967      53.728
2015    2        9     5  36    6.7757   511.4    4.967      53.741
2015    2        9     5  41    6.7759   511.4    4.966      53.753
2015    2        9     5  46    6.7762   511.4    4.966      53.765
2015    2        9     5  51    6.7765   511.4    4.966      53.777
2015    2        9     5  56    6.7768   511.4    4.965      53.789
2015    2        9     6   1    6.7771   511.4    4.965      53.801
2015    2        9     6   6    6.7774   511.4    4.964      53.813
2015    2        9     6  11    6.7778   511.4    4.963      53.825
2015    2        9     6  16    6.7781   511.4    4.963      53.836
2015    2        9     6  22    6.7785   511.4    4.963      53.848
2015    2        9     6  27    6.7788   511.4    4.962      53.860
2015    2        9     6  32    6.7791   511.4    4.962      53.871
2015    2        9     6  37    6.7796   511.4    4.961      53.883
2015    2        9     6  42    6.7800   511.4    4.961      53.896
2015    2        9     6  47    6.7804   511.4    4.960      53.908
2015    2        9     6  52    6.7808   511.4    4.960      53.921
2015    2        9     6  57    6.7812   511.4    4.960      53.933
2015    2        9     7   2    6.7816   511.4    4.959      53.947
2015    2        9     7   8    6.7821   511.4    4.959      53.960
2015    2        9     7  13    6.7825   511.4    4.959      53.974
2015    2        9     7  18    6.7830   511.4    4.959      53.989
2015    2        9     7  23    6.7834   511.4    4.959      54.004
2015    2        9     7  28    6.7839   511.4    4.959      54.019
2015    2        9     7  33    6.7843   511.4    4.959      54.035
2015    2        9     7  38    6.7847   511.5    4.959      54.051
2015    2        9     7  43    6.7852   511.5    4.959      54.068
2015    2        9     7  48    6.7857   511.5    4.960      54.086
2015    2        9     7  53    6.7861   511.5    4.960      54.105
2015    2        9     7  59    6.7865   511.5    4.961      54.124
2015    2        9     8   4    6.7870   511.5    4.961      54.143
2015    2        9     8   9    6.7873   511.5    4.962      54.164
2015    2        9     8  14    6.7877   511.5    4.963      54.185
2015    2        9     8  19    6.7881   511.5    4.964      54.207
2015    2        9     8  24    6.7885   511.5    4.964      54.230
2015    2        9     8  29    6.7889   511.6    4.966      54.253
2015    2        9     8  34    6.7892   511.6    4.967      54.277
2015    2        9     8  39    6.7895   511.6    4.968      54.302
2015    2        9     8  44    6.7898   511.6    4.969      54.328
2015    2        9     8  50    6.7901   511.6    4.971      54.354
2015    2        9     8  55    6.7904   511.6    4.972      54.381
2015    2        9     9   0    6.7907   511.6    4.974      54.408
2015    2        9     9   5    6.7909   511.6    4.976      54.436
2015    2        9     9  10    6.7911   511.7    4.978      54.465
2015    2        9     9  15    6.7913   511.7    4.979      54.495
2015    2        9     9  20    6.7916   511.7    4.981      54.526
2015    2        9     9  25    6.7917   511.7    4.983      54.558
2015    2        9     9  30    6.7919   511.7    4.985      54.592
2015    2        9     9  36    6.7921   511.7    4.987      54.626
2015    2        9     9  41    6.7923   511.8    4.988      54.662
2015    2        9     9  46    6.7924   511.8    4.990      54.698
2015    2        9     9  51    6.7926   511.8    4.992      54.736
2015    2        9     9  56    6.7927   511.8    4.993      54.773
2015    2        9    10   1    6.7929   511.8    4.995      54.812
2015    2        9    10   6    6.7930   511.8    4.996      54.850
2015    2        9    10  11    6.7932   511.9    4.997      54.889
2015    2        9    10  16    6.7933   511.9    4.999      54.928
2015    2        9    10  21    6.7934   511.9    5.000      54.967
2015    2        9    10  27    6.7936   511.9    5.001      55.006
2015    2        9    10  32    6.7937   511.9    5.001      55.044
2015    2        9    10  37    6.7939   511.9    5.002      55.082
2015    2        9    10  42    6.7940   511.9    5.003      55.120
2015    2        9    10  47    6.7942   511.9    5.004      55.156
2015    2        9    10  52    6.7944   512.0    5.004      55.192
2015    2        9    10  57    6.7945   512.0    5.005      55.227
2015    2        9    11   2    6.7947   512.0    5.005      55.262
2015    2        9    11   7    6.7949   512.0    5.006      55.296
2015    2        9    11  13    6.7951   512.0    5.006      55.330
2015    2        9    11  18    6.7953   512.0    5.006      55.363
2015    2        9    11  23    6.7955   512.0    5.006      55.395
2015    2        9    11  28    6.7958   512.0    5.007      55.427
2015    2        9    11  33    6.7960   512.1    5.007      55.458
2015    2        9    11  38    6.7962   512.1    5.007      55.488
2015    2        9    11  43    6.7965   512.1    5.007      55.519
2015    2        9    11  48    6.7968   512.1    5.007      55.548
2015    2        9    11  53    6.7971   512.1    5.006      55.577
2015    2        9    11  58    6.7974   512.1    5.006      55.606
2015    2        9    12   4    6.7977   512.1    5.006      55.634
2015    2        9    12   9    6.7980   512.1    5.006      55.661
2015    2        9    12  14    6.7983   512.2    5.006      55.688
2015    2        9    12  19    6.7987   512.2    5.005      55.715
2015    2        9    12  24    6.7990   512.2    5.005      55.742
2015    2        9    12  29    6.7993   512.2    5.005      55.767
2015    2        9    12  34    6.7997   512.2    5.004      55.793
2015    2        9    12  39    6.8000   512.2    5.004      55.818
2015    2        9    12  44    6.8005   512.2    5.003      55.843
2015    2        9    12  50    6.8008   512.2    5.003      55.867
2015    2        9    12  55    6.8012   512.3    5.002      55.891
2015    2        9    13   0    6.8017   512.3    5.002      55.915
2015    2        9    13   5    6.8021   512.3    5.001      55.938
2015    2        9    13  10    6.8025   512.3    5.001      55.961
2015    2        9    13  15    6.8029   512.3    5.000      55.984
2015    2        9    13  20    6.8034   512.3    4.999      56.007
2015    2        9    13  25    6.8038   512.3    4.999      56.030
2015    2        9    13  30    6.8043   512.3    4.998      56.052
2015    2        9    13  35    6.8047   512.4    4.998      56.075
2015    2        9    13  41    6.8052   512.4    4.997      56.097
2015    2        9    13  46    6.8057   512.4    4.996      56.120
2015    2        9    13  51    6.8062   512.4    4.996      56.142
2015    2        9    13  56    6.8067   512.4    4.995      56.165
2015    2        9    14   1    6.8072   512.4    4.995      56.187
2015    2        9    14   6    6.8078   512.4    4.994      56.210
2015    2        9    14  11    6.8083   512.5    4.994      56.233
2015    2        9    14  16    6.8089   512.5    4.993      56.257
2015    2        9    14  21    6.8094   512.5    4.993      56.280
2015    2        9    14  27    6.8100   512.5    4.992      56.304
2015    2        9    14  32    6.8105   512.5    4.992      56.328
2015    2        9    14  37    6.8111   512.5    4.991      56.353
2015    2        9    14  42    6.8117   512.6    4.991      56.378
2015    2        9    14  47    6.8123   512.6    4.991      56.403
2015    2        9    14  52    6.8128   512.6    4.991      56.429
2015    2        9    14  57    6.8134   512.6    4.991      56.456
2015    2        9    15   2    6.8140   512.6    4.990      56.483
2015    2        9    15   7    6.8145   512.7    4.990      56.510
2015    2        9    15  12    6.8150   512.7    4.991      56.538
2015    2        9    15  18    6.8155   512.7    4.991      56.567
2015    2        9    15  23    6.8160   512.7    4.991      56.597
2015    2        9    15  28    6.8165   512.8    4.991      56.627
2015    2        9    15  33    6.8170   512.8    4.992      56.657
2015    2        9    15  38    6.8174   512.8    4.992      56.689
2015    2        9    15  43    6.8178   512.8    4.993      56.721
2015    2        9    15  48    6.8182   512.9    4.993      56.753
2015    2        9    15  53    6.8186   512.9    4.994      56.787
2015    2        9    15  58    6.8189   512.9    4.995      56.821
2015    2        9    16   3    6.8192   512.9    4.996      56.855
2015    2        9    16   9    6.8195   513.0    4.997      56.890
2015    2        9    16  14    6.8198   513.0    4.998      56.926
2015    2        9    16  19    6.8201   513.0    4.999      56.962
2015    2        9    16  24    6.8203   513.1    5.001      56.998
2015    2        9    16  29    6.8205   513.1    5.002      57.035
2015    2        9    16  34    6.8207   513.1    5.003      57.073
2015    2        9    16  39    6.8209   513.2    5.005      57.111
2015    2        9    16  44    6.8211   513.2    5.006      57.150
2015    2        9    16  49    6.8213   513.2    5.008      57.190
2015    2        9    16  55    6.8214   513.2    5.010      57.230
2015    2        9    17   0    6.8216   513.3    5.011      57.271
2015    2        9    17   5    6.8217   513.3    5.013      57.313
2015    2        9    17  10    6.8218   513.3    5.015      57.356
2015    2        9    17  15    6.8220   513.4    5.016      57.399
2015    2        9    17  20    6.8221   513.4    5.018      57.442
2015    2        9    17  25    6.8222   513.4    5.020      57.487
2015    2        9    17  30    6.8223   513.5    5.021      57.532
2015    2        9    17  35    6.8224   513.5    5.023      57.578
2015    2        9    17  40    6.8225   513.5    5.025      57.624
2015    2        9    17  46    6.8227   513.6    5.026      57.672
2015    2        9    17  51    6.8228   513.6    5.028      57.721
2015    2        9    17  56    6.8229   513.6    5.029      57.770
2015    2        9    18   1    6.8231   513.7    5.030      57.819
2015    2        9    18   6    6.8232   513.7    5.032      57.870
2015    2        9    18  11    6.8233   513.7    5.033      57.920
2015    2        9    18  16    6.8235   513.8    5.034      57.971
2015    2        9    18  21    6.8236   513.8    5.035      58.021
2015    2        9    18  26    6.8237   513.8    5.036      58.071
2015    2        9    18  32    6.8239   513.9    5.037      58.122
2015    2        9    18  37    6.8240   513.9    5.038      58.172
2015    2        9    18  42    6.8242   513.9    5.038      58.222
2015    2        9    18  47    6.8243   514.0    5.039      58.271
2015    2        9    18  52    6.8245   514.0    5.039      58.320
2015    2        9    18  57    6.8246   514.0    5.040      58.367
2015    2        9    19   2    6.8248   514.1    5.040      58.415
2015    2        9    19   7    6.8249   514.1    5.040      58.461
2015    2        9    19  12    6.8251   514.1    5.040      58.506
2015    2        9    19  17    6.8252   514.2    5.041      58.551
2015    2        9    19  23    6.8254   514.2    5.041      58.595
2015    2        9    19  28    6.8255   514.3    5.041      58.639
2015    2        9    19  33    6.8257   514.3    5.040      58.681
2015    2        9    19  38    6.8258   514.3    5.040      58.723
2015    2        9    19  43    6.8260   514.4    5.040      58.764
2015    2        9    19  48    6.8262   514.4    5.040      58.805
2015    2        9    19  53    6.8264   514.4    5.040      58.845
2015    2        9    19  58    6.8266   514.5    5.039      58.884
2015    2        9    20   3    6.8267   514.5    5.039      58.922
2015    2        9    20   9    6.8269   514.5    5.039      58.960
2015    2        9    20  14    6.8271   514.6    5.038      58.998
2015    2        9    20  19    6.8273   514.6    5.038      59.035
2015    2        9    20  24    6.8275   514.6    5.037      59.071
2015    2        9    20  29    6.8277   514.7    5.036      59.107
2015    2        9    20  34    6.8279   514.7    5.036      59.142
2015    2        9    20  39    6.8281   514.7    5.035      59.177
2015    2        9    20  44    6.8283   514.8    5.035      59.211
2015    2        9    20  49    6.8286   514.8    5.034      59.245
2015    2        9    20  54    6.8288   514.8    5.033      59.278
2015    2        9    21   0    6.8290   514.9    5.033      59.311
2015    2        9    21   5    6.8293   514.9    5.032      59.344
2015    2        9    21  10    6.8295   514.9    5.031      59.376
2015    2        9    21  15    6.8298   515.0    5.030      59.408
2015    2        9    21  20    6.8300   515.0    5.029      59.440
2015    2        9    21  25    6.8303   515.1    5.029      59.471
2015    2        9    21  30    6.8306   515.1    5.028      59.502
2015    2        9    21  35    6.8309   515.1    5.027      59.533
2015    2        9    21  40    6.8312   515.2    5.026      59.564
2015    2        9    21  46    6.8315   515.2    5.026      59.595
2015    2        9    21  51    6.8318   515.2    5.025      59.626
2015    2        9    21  56    6.8321   515.3    5.024      59.657
2015    2        9    22   1    6.8324   515.3    5.023      59.687
2015    2        9    22   6    6.8327   515.3    5.022      59.718
2015    2        9    22  11    6.8330   515.4    5.022      59.749
2015    2        9    22  16    6.8333   515.4    5.021      59.779
2015    2        9    22  21    6.8336   515.5    5.020      59.810
2015    2        9    22  26    6.8339   515.5    5.020      59.841
2015    2        9    22  31    6.8342   515.5    5.019      59.872
2015    2        9    22  37    6.8344   515.6    5.019      59.904
2015    2        9    22  42    6.8346   515.6    5.018      59.935
2015    2        9    22  47    6.8349   515.7    5.018      59.967
2015    2        9    22  52    6.8350   515.7    5.017      59.998
2015    2        9    22  57    6.8352   515.7    5.017      60.031
2015    2        9    23   2    6.8354   515.8    5.016      60.063
2015    2        9    23   7    6.8355   515.8    5.016      60.096
2015    2        9    23  12    6.8356   515.9    5.016      60.129
2015    2        9    23  17    6.8357   515.9    5.016      60.162
2015    2        9    23  23    6.8358   516.0    5.016      60.195
2015    2        9    23  28    6.8358   516.0    5.016      60.229
2015    2        9    23  33    6.8358   516.1    5.016      60.263
2015    2        9    23  38    6.8358   516.1    5.016      60.297
2015    2        9    23  43    6.8358   516.2    5.016      60.332
2015    2        9    23  48    6.8358   516.2    5.016      60.367
2015    2        9    23  53    6.8357   516.2    5.016      60.403
2015    2        9    23  58    6.8357   516.3    5.016      60.438
2015    2       10     0   3    6.8356   516.3    5.017      60.474
2015    2       10     0   8    6.8354   516.4    5.017      60.510
2015    2       10     0  14    6.8353   516.4    5.017      60.546
2015    2       10     0  19    6.8352   516.5    5.018      60.583
2015    2       10     0  24    6.8350   516.5    5.018      60.620
2015    2       10     0  29    6.8348   516.6    5.019      60.657
2015    2       10     0  34    6.8347   516.6    5.019      60.694
2015    2       10     0  39    6.8344   516.7    5.020      60.732
2015    2       10     0  44    6.8342   516.7    5.021      60.769
2015    2       10     0  49    6.8340   516.8    5.021      60.807
2015    2       10     0  54    6.8338   516.8    5.022      60.845
2015    2       10     0  59    6.8335   516.9    5.023      60.883
2015    2       10     1   5    6.8333   517.0    5.023      60.921
2015    2       10     1  10    6.8330   517.0    5.024      60.960
2015    2       10     1  15    6.8327   517.1    5.025      60.998
2015    2       10     1  20    6.8324   517.1    5.025      61.038
2015    2       10     1  25    6.8322   517.2    5.026      61.078
2015    2       10     1  30    6.8319   517.2    5.026      61.118
2015    2       10     1  35    6.8316   517.3    5.027      61.159
2015    2       10     1  40    6.8312   517.3    5.027      61.200
2015    2       10     1  45    6.8310   517.4    5.028      61.241
2015    2       10     1  51    6.8306   517.4    5.028      61.282
2015    2       10     1  56    6.8303   517.5    5.028      61.323
2015    2       10     2   1    6.8300   517.6    5.028      61.364
2015    2       10     2   6    6.8297   517.6    5.028      61.406
2015    2       10     2  11    6.8294   517.7    5.028      61.446
2015    2       10     2  16    6.8290   517.7    5.028      61.487
2015    2       10     2  21    6.8287   517.8    5.028      61.527
2015    2       10     2  26    6.8284   517.8    5.028      61.566
2015    2       10     2  31    6.8280   517.9    5.028      61.605
2015    2       10     2  36    6.8276   518.0    5.027      61.643
2015    2       10     2  42    6.8273   518.0    5.027      61.681
2015    2       10     2  47    6.8269   518.1    5.026      61.717
2015    2       10     2  52    6.8265   518.1    5.026      61.754
2015    2       10     2  57    6.8262   518.2    5.025      61.789
2015    2       10     3   2    6.8258   518.2    5.024      61.824
2015    2       10     3   7    6.8254   518.3    5.024      61.858
2015    2       10     3  12    6.8250   518.3    5.023      61.892
2015    2       10     3  17    6.8247   518.4    5.022      61.926
2015    2       10     3  22    6.8243   518.5    5.021      61.959
2015    2       10     3  28    6.8239   518.5    5.020      61.991
2015    2       10     3  33    6.8235   518.6    5.019      62.023
2015    2       10     3  38    6.8232   518.6    5.018      62.055
2015    2       10     3  43    6.8227   518.7    5.017      62.087
2015    2       10     3  48    6.8224   518.7    5.016      62.118
2015    2       10     3  53    6.8220   518.8    5.015      62.149
2015    2       10     3  58    6.8217   518.9    5.014      62.180
2015    2       10     4   3    6.8213   518.9    5.013      62.210
2015    2       10     4   8    6.8209   519.0    5.012      62.241
2015    2       10     4  13    6.8205   519.0    5.011      62.271
2015    2       10     4  19    6.8202   519.1    5.010      62.301
2015    2       10     4  24    6.8198   519.1    5.008      62.331
2015    2       10     4  29    6.8195   519.2    5.007      62.361
2015    2       10     4  34    6.8191   519.3    5.006      62.391
2015    2       10     4  39    6.8188   519.3    5.005      62.420
2015    2       10     4  44    6.8184   519.4    5.003      62.450
2015    2       10     4  49    6.8180   519.4    5.002      62.479
2015    2       10     4  54    6.8177   519.5    5.001      62.509
2015    2       10     4  59    6.8173   519.5    4.999      62.538
2015    2       10     5   5    6.8170   519.6    4.998      62.568
2015    2       10     5  10    6.8166   519.7    4.997      62.597
2015    2       10     5  15    6.8162   519.7    4.995      62.627
2015    2       10     5  20    6.8158   519.8    4.994      62.656
2015    2       10     5  25    6.8154   519.8    4.993      62.686
2015    2       10     5  30    6.8150   519.9    4.991      62.715
2015    2       10     5  35    6.8145   520.0    4.990      62.745
2015    2       10     5  40    6.8140   520.0    4.989      62.775
2015    2       10     5  45    6.8136   520.1    4.987      62.804
2015    2       10     5  50    6.8130   520.1    4.986      62.834
2015    2       10     5  56    6.8125   520.2    4.985      62.864
2015    2       10     6   1    6.8119   520.3    4.983      62.895
2015    2       10     6   6    6.8113   520.3    4.982      62.925
2015    2       10     6  11    6.8107   520.4    4.981      62.955
2015    2       10     6  16    6.8102   520.5    4.980      62.986
2015    2       10     6  21    6.8095   520.5    4.979      63.017
2015    2       10     6  26    6.8087   520.6    4.977      63.048
2015    2       10     6  31    6.8081   520.6    4.976      63.078
2015    2       10     6  36    6.8073   520.7    4.975      63.109
2015    2       10     6  42    6.8066   520.8    4.974      63.141
2015    2       10     6  47    6.8058   520.8    4.973      63.172
2015    2       10     6  52    6.8049   520.9    4.972      63.204
2015    2       10     6  57    6.8040   521.0    4.971      63.236
2015    2       10     7   2    6.8032   521.0    4.970      63.268
2015    2       10     7   7    6.8023   521.1    4.969      63.300
2015    2       10     7  12    6.8014   521.2    4.968      63.331
2015    2       10     7  17    6.8004   521.2    4.967      63.363
2015    2       10     7  22    6.7993   521.3    4.966      63.395
2015    2       10     7  27    6.7984   521.4    4.965      63.426
2015    2       10     7  33    6.7973   521.5    4.964      63.457
2015    2       10     7  38    6.7962   521.5    4.963      63.488
2015    2       10     7  43    6.7951   521.6    4.962      63.518
2015    2       10     7  48    6.7939   521.7    4.960      63.548
2015    2       10     7  53    6.7929   521.7    4.959      63.578
2015    2       10     7  58    6.7917   521.8    4.958      63.607
2015    2       10     8   3    6.7905   521.9    4.957      63.635
2015    2       10     8   8    6.7893   522.0    4.956      63.663
2015    2       10     8  13    6.7880   522.0    4.954      63.691
2015    2       10     8  19    6.7868   522.1    4.953      63.718
2015    2       10     8  24    6.7856   522.2    4.951      63.745
2015    2       10     8  29    6.7843   522.3    4.950      63.772
2015    2       10     8  34    6.7830   522.3    4.949      63.798
2015    2       10     8  39    6.7817   522.4    4.947      63.824
2015    2       10     8  44    6.7805   522.5    4.946      63.849
2015    2       10     8  49    6.7791   522.5    4.944      63.874
2015    2       10     8  54    6.7777   522.6    4.942      63.898
2015    2       10     8  59    6.7764   522.7    4.941      63.923
2015    2       10     9   4    6.7750   522.7    4.939      63.947
2015    2       10     9  10    6.7736   522.8    4.937      63.971
2015    2       10     9  15    6.7723   522.9    4.936      63.994
2015    2       10     9  20    6.7709   523.0    4.934      64.017
2015    2       10     9  25    6.7695   523.0    4.932      64.039
2015    2       10     9  30    6.7681   523.1    4.930      64.062
2015    2       10     9  35    6.7668   523.2    4.929      64.084
2015    2       10     9  40    6.7654   523.2    4.927      64.105
2015    2       10     9  45    6.7639   523.3    4.925      64.127
2015    2       10     9  50    6.7626   523.4    4.923      64.148
2015    2       10     9  56    6.7611   523.4    4.921      64.169
2015    2       10    10   1    6.7597   523.5    4.919      64.191
2015    2       10    10   6    6.7584   523.6    4.917      64.212
2015    2       10    10  11    6.7570   523.6    4.915      64.233
2015    2       10    10  16    6.7555   523.7    4.913      64.254
2015    2       10    10  21    6.7541   523.8    4.912      64.275
2015    2       10    10  26    6.7527   523.8    4.910      64.296
2015    2       10    10  31    6.7512   523.9    4.908      64.317
2015    2       10    10  36    6.7499   524.0    4.906      64.338
2015    2       10    10  41    6.7485   524.1    4.904      64.360
2015    2       10    10  47    6.7470   524.1    4.901      64.381
2015    2       10    10  52    6.7456   524.2    4.899      64.403
2015    2       10    10  57    6.7442   524.3    4.897      64.424
2015    2       10    11   2    6.7428   524.3    4.895      64.447
2015    2       10    11   7    6.7413   524.4    4.893      64.469
2015    2       10    11  12    6.7399   524.5    4.891      64.492
2015    2       10    11  17    6.7385   524.5    4.889      64.514
2015    2       10    11  22    6.7369   524.6    4.887      64.538
2015    2       10    11  27    6.7354   524.7    4.885      64.561
2015    2       10    11  32    6.7339   524.8    4.882      64.585
2015    2       10    11  38    6.7325   524.8    4.880      64.609
2015    2       10    11  43    6.7307   524.9    4.878      64.633
2015    2       10    11  48    6.7293   525.0    4.876      64.657
2015    2       10    11  53    6.7276   525.0    4.873      64.681
2015    2       10    11  58    6.7260   525.1    4.871      64.705
2015    2       10    12   3    6.7241   525.2    4.869      64.729
2015    2       10    12   8    6.7225   525.3    4.866      64.753
2015    2       10    12  13    6.7208   525.3    4.864      64.777
2015    2       10    12  18    6.7190   525.4    4.861      64.800
2015    2       10    12  24    6.7170   525.5    4.859      64.823
2015    2       10    12  29    6.7152   525.5    4.856      64.846
2015    2       10    12  34    6.7133   525.6    4.854      64.869
2015    2       10    12  39    6.7114   525.7    4.851      64.891
2015    2       10    12  44    6.7096   525.8    4.849      64.913
2015    2       10    12  49    6.7077   525.8    4.846      64.934
2015    2       10    12  54    6.7057   525.9    4.844      64.956
2015    2       10    12  59    6.7037   526.0    4.841      64.976
2015    2       10    13   4    6.7015   526.0    4.838      64.997
2015    2       10    13   9    6.6997   526.1    4.836      65.017
2015    2       10    13  15    6.6974   526.2    4.833      65.037
2015    2       10    13  20    6.6954   526.2    4.831      65.057
2015    2       10    13  25    6.6933   526.3    4.828      65.076
2015    2       10    13  30    6.6913   526.4    4.826      65.096
2015    2       10    13  35    6.6890   526.4    4.823      65.115
2015    2       10    13  40    6.6869   526.5    4.821      65.134
2015    2       10    13  45    6.6848   526.5    4.819      65.153
2015    2       10    13  50    6.6825   526.6    4.816      65.172
2015    2       10    13  55    6.6804   526.7    4.814      65.191
2015    2       10    14   1    6.6780   526.7    4.812      65.210
2015    2       10    14   6    6.6758   526.8    4.810      65.229
2015    2       10    14  11    6.6735   526.9    4.808      65.248
2015    2       10    14  16    6.6714   526.9    4.806      65.268
2015    2       10    14  21    6.6690   527.0    4.804      65.287
2015    2       10    14  26    6.6668   527.0    4.802      65.307
2015    2       10    14  31    6.6645   527.1    4.801      65.328
2015    2       10    14  36    6.6621   527.1    4.799      65.349
2015    2       10    14  41    6.6598   527.2    4.798      65.371
2015    2       10    14  46    6.6572   527.3    4.796      65.394
2015    2       10    14  52    6.6550   527.3    4.795      65.418
2015    2       10    14  57    6.6524   527.4    4.793      65.443
2015    2       10    15   2    6.6502   527.5    4.792      65.469
2015    2       10    15   7    6.6477   527.5    4.790      65.495
2015    2       10    15  12    6.6453   527.6    4.789      65.521
2015    2       10    15  17    6.6426   527.6    4.787      65.547
2015    2       10    15  22    6.6403   527.7    4.785      65.573
2015    2       10    15  27    6.6376   527.8    4.784      65.599
2015    2       10    15  32    6.6351   527.8    4.782      65.625
2015    2       10    15  38    6.6326   527.9    4.780      65.650
2015    2       10    15  43    6.6302   528.0    4.778      65.675
2015    2       10    15  48    6.6276   528.0    4.776      65.700
2015    2       10    15  53    6.6250   528.1    4.774      65.723
2015    2       10    15  58    6.6224   528.2    4.772      65.746
2015    2       10    16   3    6.6198   528.2    4.770      65.767
2015    2       10    16   8    6.6172   528.3    4.768      65.788
2015    2       10    16  13    6.6145   528.3    4.765      65.807
2015    2       10    16  18    6.6117   528.4    4.763      65.826
2015    2       10    16  23    6.6091   528.5    4.760      65.844
2015    2       10    16  29    6.6064   528.5    4.758      65.861
2015    2       10    16  34    6.6037   528.6    4.755      65.877
2015    2       10    16  39    6.6011   528.6    4.753      65.893
2015    2       10    16  44    6.5984   528.7    4.750      65.908
2015    2       10    16  49    6.5956   528.8    4.748      65.922
2015    2       10    16  54    6.5929   528.8    4.745      65.935
2015    2       10    16  59    6.5902   528.9    4.742      65.948
2015    2       10    17   4    6.5875   528.9    4.740      65.960
2015    2       10    17   9    6.5847   529.0    4.737      65.972
2015    2       10    17  15    6.5820   529.0    4.734      65.984
2015    2       10    17  20    6.5793   529.1    4.731      65.995
2015    2       10    17  25    6.5767   529.2    4.728      66.005
2015    2       10    17  30    6.5740   529.2    4.726      66.016
2015    2       10    17  35    6.5711   529.3    4.723      66.026
2015    2       10    17  40    6.5684   529.3    4.720      66.036
2015    2       10    17  45    6.5656   529.4    4.717      66.047
2015    2       10    17  50    6.5630   529.4    4.714      66.057
2015    2       10    17  55    6.5601   529.5    4.711      66.067
2015    2       10    18   0    6.5573   529.5    4.708      66.078
2015    2       10    18   6    6.5547   529.6    4.705      66.088
2015    2       10    18  11    6.5519   529.6    4.702      66.098
2015    2       10    18  16    6.5489   529.7    4.699      66.108
2015    2       10    18  21    6.5461   529.7    4.696      66.118
2015    2       10    18  26    6.5434   529.8    4.693      66.127
2015    2       10    18  31    6.5405   529.8    4.690      66.136
2015    2       10    18  36    6.5375   529.9    4.687      66.145
2015    2       10    18  41    6.5346   529.9    4.684      66.154
2015    2       10    18  46    6.5318   530.0    4.681      66.162
2015    2       10    18  51    6.5287   530.0    4.678      66.170
2015    2       10    18  57    6.5257   530.1    4.675      66.177
2015    2       10    19   2    6.5229   530.1    4.671      66.184
2015    2       10    19   7    6.5199   530.2    4.668      66.191
2015    2       10    19  12    6.5168   530.2    4.665      66.197
2015    2       10    19  17    6.5138   530.3    4.662      66.202
2015    2       10    19  22    6.5106   530.3    4.659      66.207
2015    2       10    19  27    6.5077   530.4    4.655      66.211
2015    2       10    19  32    6.5046   530.4    4.652      66.215
2015    2       10    19  37    6.5015   530.5    4.649      66.219
2015    2       10    19  43    6.4984   530.5    4.646      66.222
2015    2       10    19  48    6.4953   530.6    4.642      66.225
2015    2       10    19  53    6.4921   530.6    4.639      66.227
2015    2       10    19  58    6.4888   530.6    4.636      66.230
2015    2       10    20   3    6.4858   530.7    4.633      66.231
2015    2       10    20   8    6.4826   530.7    4.630      66.233
2015    2       10    20  13    6.4794   530.8    4.626      66.235
2015    2       10    20  18    6.4762   530.8    4.623      66.236
2015    2       10    20  23    6.4729   530.9    4.620      66.237
2015    2       10    20  28    6.4696   530.9    4.617      66.238
2015    2       10    20  34    6.4665   530.9    4.614      66.239
2015    2       10    20  39    6.4631   531.0    4.611      66.240
2015    2       10    20  44    6.4598   531.0    4.608      66.241
2015    2       10    20  49    6.4566   531.0    4.605      66.242
2015    2       10    20  54    6.4532   531.1    4.603      66.243
2015    2       10    20  59    6.4500   531.1    4.600      66.243
2015    2       10    21   4    6.4466   531.1    4.597      66.245
2015    2       10    21   9    6.4432   531.2    4.594      66.246
2015    2       10    21  14    6.4400   531.2    4.592      66.248
2015    2       10    21  20    6.4365   531.2    4.589      66.250
2015    2       10    21  25    6.4331   531.3    4.587      66.252
2015    2       10    21  30    6.4297   531.3    4.584      66.255
2015    2       10    21  35    6.4263   531.3    4.582      66.258
2015    2       10    21  40    6.4230   531.3    4.580      66.262
2015    2       10    21  45    6.4196   531.4    4.578      66.267
2015    2       10    21  50    6.4161   531.4    4.576      66.272
2015    2       10    21  55    6.4126   531.4    4.573      66.277
2015    2       10    22   0    6.4091   531.4    4.572      66.284
2015    2       10    22   5    6.4058   531.5    4.570      66.291
2015    2       10    22  11    6.4022   531.5    4.568      66.299
2015    2       10    22  16    6.3989   531.5    4.566      66.307
2015    2       10    22  21    6.3953   531.5    4.565      66.316
2015    2       10    22  26    6.3918   531.6    4.563      66.327
2015    2       10    22  31    6.3883   531.6    4.562      66.338
2015    2       10    22  36    6.3849   531.6    4.560      66.350
2015    2       10    22  41    6.3814   531.6    4.559      66.362
2015    2       10    22  46    6.3780   531.6    4.557      66.375
2015    2       10    22  51    6.3744   531.7    4.556      66.388
2015    2       10    22  57    6.3710   531.7    4.554      66.400
2015    2       10    23   2    6.3676   531.7    4.553      66.412
2015    2       10    23   7    6.3640   531.7    4.551      66.424
2015    2       10    23  12    6.3605   531.7    4.550      66.436
2015    2       10    23  17    6.3570   531.8    4.548      66.446
2015    2       10    23  22    6.3536   531.8    4.546      66.456
2015    2       10    23  27    6.3501   531.8    4.545      66.466
2015    2       10    23  32    6.3466   531.8    4.543      66.474
2015    2       10    23  37    6.3431   531.8    4.541      66.482
2015    2       10    23  42    6.3396   531.9    4.539      66.488
2015    2       10    23  48    6.3360   531.9    4.537      66.493
2015    2       10    23  53    6.3325   531.9    4.535      66.497
2015    2       10    23  58    6.3290   531.9    4.532      66.500
2015    2       11     0   3    6.3255   531.9    4.530      66.502
2015    2       11     0   8    6.3220   531.9    4.528      66.503
2015    2       11     0  13    6.3184   532.0    4.526      66.503
2015    2       11     0  18    6.3147   532.0    4.523      66.502
2015    2       11     0  23    6.3112   532.0    4.521      66.501
2015    2       11     0  28    6.3076   532.0    4.518      66.498
2015    2       11     0  34    6.3040   532.0    4.516      66.495
2015    2       11     0  39    6.3003   532.0    4.513      66.491
2015    2       11     0  44    6.2968   532.1    4.511      66.486
2015    2       11     0  49    6.2931   532.1    4.508      66.480
2015    2       11     0  54    6.2895   532.1    4.505      66.474
2015    2       11     0  59    6.2858   532.1    4.503      66.467
2015    2       11     1   4    6.2821   532.1    4.500      66.459
2015    2       11     1   9    6.2784   532.1    4.497      66.451
2015    2       11     1  14    6.2747   532.1    4.494      66.442
2015    2       11     1  19    6.2710   532.1    4.492      66.433
2015    2       11     1  25    6.2673   532.1    4.489      66.423
2015    2       11     1  30    6.2636   532.1    4.486      66.413
2015    2       11     1  35    6.2598   532.1    4.483      66.402
2015    2       11     1  40    6.2561   532.1    4.480      66.391
2015    2       11     1  45    6.2523   532.1    4.477      66.379
2015    2       11     1  50    6.2485   532.1    4.475      66.367
2015    2       11     1  55    6.2448   532.1    4.472      66.354
2015    2       11     2   0    6.2410   532.1    4.469      66.341
2015    2       11     2   5    6.2372   532.1    4.466      66.327
2015    2       11     2  11    6.2334   532.1    4.463      66.313
2015    2       11     2  16    6.2296   532.1    4.460      66.299
2015    2       11     2  21    6.2258   532.1    4.457      66.284
2015    2       11     2  26    6.2220   532.1    4.454      66.268
2015    2       11     2  31    6.2182   532.1    4.452      66.252
2015    2       11     2  36    6.2143   532.1    4.449      66.236
2015    2       11     2  41    6.2105   532.1    4.446      66.220
2015    2       11     2  46    6.2067   532.1    4.443      66.203
2015    2       11     2  51    6.2029   532.1    4.440      66.186
2015    2       11     2  56    6.1991   532.1    4.437      66.168
2015    2       11     3   2    6.1953   532.1    4.435      66.151
2015    2       11     3   7    6.1915   532.1    4.432      66.133
2015    2       11     3  12    6.1877   532.1    4.429      66.115
2015    2       11     3  17    6.1839   532.0    4.426      66.097
2015    2       11     3  22    6.1801   532.0    4.424      66.079
2015    2       11     3  27    6.1764   532.0    4.421      66.060
2015    2       11     3  32    6.1726   532.0    4.419      66.042
2015    2       11     3  37    6.1688   532.0    4.416      66.024
2015    2       11     3  42    6.1651   532.0    4.414      66.007
2015    2       11     3  48    6.1613   531.9    4.411      65.989
2015    2       11     3  53    6.1576   531.9    4.409      65.972
2015    2       11     3  58    6.1538   531.9    4.407      65.955
2015    2       11     4   3    6.1501   531.9    4.404      65.939
2015    2       11     4   8    6.1464   531.9    4.402      65.922
2015    2       11     4  13    6.1426   531.9    4.400      65.906
2015    2       11     4  18    6.1389   531.8    4.397      65.890
2015    2       11     4  23    6.1352   531.8    4.395      65.874
2015    2       11     4  28    6.1315   531.8    4.393      65.858
2015    2       11     4  33    6.1277   531.8    4.390      65.842
2015    2       11     4  39    6.1240   531.8    4.388      65.826
2015    2       11     4  44    6.1202   531.7    4.386      65.811
2015    2       11     4  49    6.1165   531.7    4.384      65.795
2015    2       11     4  54    6.1127   531.7    4.381      65.779
2015    2       11     4  59    6.1089   531.7    4.379      65.763
2015    2       11     5   4    6.1052   531.6    4.377      65.748
2015    2       11     5   9    6.1014   531.6    4.375      65.731
2015    2       11     5  14    6.0976   531.6    4.373      65.715
2015    2       11     5  19    6.0938   531.6    4.370      65.699
2015    2       11     5  24    6.0900   531.5    4.368      65.683
2015    2       11     5  30    6.0862   531.5    4.366      65.666
2015    2       11     5  35    6.0824   531.5    4.364      65.650
2015    2       11     5  40    6.0785   531.5    4.362      65.633
2015    2       11     5  45    6.0747   531.4    4.359      65.617
2015    2       11     5  50    6.0708   531.4    4.357      65.600
2015    2       11     5  55    6.0670   531.4    4.355      65.584
2015    2       11     6   0    6.0631   531.3    4.353      65.567
2015    2       11     6   5    6.0592   531.3    4.351      65.551
2015    2       11     6  10    6.0554   531.3    4.349      65.535
2015    2       11     6  16    6.0515   531.3    4.346      65.519
2015    2       11     6  21    6.0476   531.2    4.344      65.502
2015    2       11     6  26    6.0438   531.2    4.342      65.486
2015    2       11     6  31    6.0399   531.2    4.340      65.469
2015    2       11     6  36    6.0360   531.1    4.338      65.452
2015    2       11     6  41    6.0321   531.1    4.336      65.435
2015    2       11     6  46    6.0282   531.0    4.334      65.417
2015    2       11     6  51    6.0244   531.0    4.331      65.399
2015    2       11     6  56    6.0205   531.0    4.329      65.381
2015    2       11     7   1    6.0166   530.9    4.327      65.362
2015    2       11     7   7    6.0127   530.9    4.325      65.342
2015    2       11     7  12    6.0088   530.9    4.323      65.322
2015    2       11     7  17    6.0049   530.8    4.321      65.302
2015    2       11     7  22    6.0009   530.8    4.319      65.281
2015    2       11     7  27    5.9970   530.7    4.317      65.259
2015    2       11     7  32    5.9931   530.7    4.314      65.237
2015    2       11     7  37    5.9891   530.7    4.312      65.215
2015    2       11     7  42    5.9852   530.6    4.310      65.192
2015    2       11     7  47    5.9812   530.6    4.308      65.169
2015    2       11     7  53    5.9773   530.5    4.306      65.146
2015    2       11     7  58    5.9733   530.5    4.303      65.122
2015    2       11     8   3    5.9694   530.4    4.301      65.097
2015    2       11     8   8    5.9654   530.4    4.299      65.073
2015    2       11     8  13    5.9614   530.3    4.297      65.048
2015    2       11     8  18    5.9574   530.3    4.295      65.023
2015    2       11     8  23    5.9534   530.2    4.293      64.997
2015    2       11     8  28    5.9494   530.2    4.290      64.972
2015    2       11     8  33    5.9455   530.1    4.288      64.946
2015    2       11     8  38    5.9415   530.1    4.286      64.920
2015    2       11     8  44    5.9375   530.0    4.284      64.894
2015    2       11     8  49    5.9335   530.0    4.282      64.867
2015    2       11     8  54    5.9295   529.9    4.280      64.841
2015    2       11     8  59    5.9255   529.9    4.278      64.814
2015    2       11     9   4    5.9215   529.8    4.276      64.787
2015    2       11     9   9    5.9175   529.8    4.274      64.760
2015    2       11     9  14    5.9135   529.7    4.272      64.733
2015    2       11     9  19    5.9096   529.7    4.270      64.706
2015    2       11     9  24    5.9056   529.6    4.268      64.678
2015    2       11     9  30    5.9016   529.5    4.266      64.650
2015    2       11     9  35    5.8976   529.5    4.265      64.623
2015    2       11     9  40    5.8936   529.4    4.263      64.595
2015    2       11     9  45    5.8896   529.4    4.261      64.567
2015    2       11     9  50    5.8857   529.3    4.259      64.539
2015    2       11     9  55    5.8817   529.2    4.258      64.511
2015    2       11    10   0    5.8777   529.2    4.256      64.482
2015    2       11    10   5    5.8738   529.1    4.254      64.454
2015    2       11    10  10    5.8698   529.0    4.253      64.425
2015    2       11    10  15    5.8659   529.0    4.251      64.396
2015    2       11    10  21    5.8619   528.9    4.249      64.367
2015    2       11    10  26    5.8580   528.8    4.248      64.338
2015    2       11    10  31    5.8541   528.8    4.246      64.308
2015    2       11    10  36    5.8502   528.7    4.245      64.279
2015    2       11    10  41    5.8463   528.6    4.243      64.249
2015    2       11    10  46    5.8424   528.6    4.242      64.220
2015    2       11    10  51    5.8385   528.5    4.240      64.190
2015    2       11    10  56    5.8347   528.4    4.239      64.160
2015    2       11    11   1    5.8309   528.3    4.237      64.130
2015    2       11    11   7    5.8271   528.3    4.236      64.100
2015    2       11    11  12    5.8233   528.2    4.235      64.071
2015    2       11    11  17    5.8196   528.1    4.233      64.041
2015    2       11    11  22    5.8158   528.0    4.232      64.011
2015    2       11    11  27    5.8121   528.0    4.231      63.982
2015    2       11    11  32    5.8084   527.9    4.230      63.952
2015    2       11    11  37    5.8048   527.8    4.228      63.923
2015    2       11    11  42    5.8012   527.7    4.227      63.893
2015    2       11    11  47    5.7976   527.7    4.226      63.864
2015    2       11    11  52    5.7940   527.6    4.224      63.834
2015    2       11    11  58    5.7903   527.5    4.223      63.804
2015    2       11    12   3    5.7868   527.4    4.222      63.774
2015    2       11    12   8    5.7833   527.4    4.221      63.744
2015    2       11    12  13    5.7797   527.3    4.219      63.714
2015    2       11    12  18    5.7762   527.2    4.218      63.683
2015    2       11    12  23    5.7726   527.1    4.217      63.652
2015    2       11    12  28    5.7691   527.0    4.215      63.621
2015    2       11    12  33    5.7656   527.0    4.214      63.590
2015    2       11    12  38    5.7622   526.9    4.212      63.558
2015    2       11    12  44    5.7587   526.8    4.211      63.526
2015    2       11    12  49    5.7553   526.7    4.210      63.493
2015    2       11    12  54    5.7518   526.6    4.208      63.461
2015    2       11    12  59    5.7484   526.6    4.207      63.427
2015    2       11    13   4    5.7449   526.5    4.205      63.394
2015    2       11    13   9    5.7414   526.4    4.204      63.360
2015    2       11    13  14    5.7379   526.3    4.202      63.325
2015    2       11    13  19    5.7344   526.2    4.201      63.291
2015    2       11    13  24    5.7310   526.1    4.199      63.255
2015    2       11    13  29    5.7275   526.1    4.197      63.220
2015    2       11    13  35    5.7240   526.0    4.196      63.185
2015    2       11    13  40    5.7205   525.9    4.194      63.149
2015    2       11    13  45    5.7170   525.8    4.192      63.113
2015    2       11    13  50    5.7136   525.7    4.191      63.076
2015    2       11    13  55    5.7100   525.6    4.189      63.040
2015    2       11    14   0    5.7065   525.6    4.187      63.003
2015    2       11    14   5    5.7030   525.5    4.186      62.966
2015    2       11    14  10    5.6995   525.4    4.184      62.929
2015    2       11    14  15    5.6959   525.3    4.182      62.892
2015    2       11    14  21    5.6923   525.2    4.180      62.854
2015    2       11    14  26    5.6887   525.1    4.178      62.817
2015    2       11    14  31    5.6852   525.0    4.177      62.779
2015    2       11    14  36    5.6815   524.9    4.175      62.742
2015    2       11    14  41    5.6779   524.8    4.173      62.704
2015    2       11    14  46    5.6743   524.8    4.171      62.666
2015    2       11    14  51    5.6706   524.7    4.169      62.627
2015    2       11    14  56    5.6669   524.6    4.167      62.589
2015    2       11    15   1    5.6633   524.5    4.165      62.551
2015    2       11    15   6    5.6595   524.4    4.163      62.512
2015    2       11    15  12    5.6559   524.3    4.162      62.474
2015    2       11    15  17    5.6521   524.2    4.160      62.435
2015    2       11    15  22    5.6483   524.1    4.158      62.396
2015    2       11    15  27    5.6447   524.0    4.156      62.358
2015    2       11    15  32    5.6409   523.9    4.154      62.319
2015    2       11    15  37    5.6371   523.8    4.152      62.280
2015    2       11    15  42    5.6333   523.7    4.150      62.241
2015    2       11    15  47    5.6296   523.6    4.148      62.202
2015    2       11    15  52    5.6258   523.5    4.147      62.163
2015    2       11    15  58    5.6220   523.4    4.145      62.125
2015    2       11    16   3    5.6182   523.3    4.143      62.086
2015    2       11    16   8    5.6144   523.2    4.141      62.047
2015    2       11    16  13    5.6106   523.1    4.139      62.009
2015    2       11    16  18    5.6068   523.0    4.138      61.971
2015    2       11    16  23    5.6030   522.9    4.136      61.932
2015    2       11    16  28    5.5992   522.8    4.134      61.894
2015    2       11    16  33    5.5953   522.7    4.132      61.856
2015    2       11    16  38    5.5915   522.5    4.131      61.817
2015    2       11    16  43    5.5878   522.4    4.129      61.779
2015    2       11    16  49    5.5839   522.3    4.127      61.741
2015    2       11    16  54    5.5801   522.2    4.126      61.703
2015    2       11    16  59    5.5763   522.1    4.124      61.666
2015    2       11    17   4    5.5725   522.0    4.123      61.628
2015    2       11    17   9    5.5687   521.9    4.121      61.590
2015    2       11    17  14    5.5649   521.8    4.120      61.552
2015    2       11    17  19    5.5611   521.6    4.118      61.514
2015    2       11    17  24    5.5573   521.5    4.117      61.475
2015    2       11    17  29    5.5536   521.4    4.116      61.437
2015    2       11    17  35    5.5499   521.3    4.114      61.399
2015    2       11    17  40    5.5461   521.2    4.113      61.360
2015    2       11    17  45    5.5424   521.0    4.112      61.322
2015    2       11    17  50    5.5387   520.9    4.110      61.283
2015    2       11    17  55    5.5350   520.8    4.109      61.244
2015    2       11    18   0    5.5314   520.7    4.108      61.205
2015    2       11    18   5    5.5278   520.5    4.107      61.166
2015    2       11    18  10    5.5242   520.4    4.106      61.126
2015    2       11    18  15    5.5206   520.3    4.105      61.087
2015    2       11    18  20    5.5171   520.2    4.104      61.047
2015    2       11    18  26    5.5136   520.0    4.103      61.008
2015    2       11    18  31    5.5102   519.9    4.102      60.968
2015    2       11    18  36    5.5068   519.8    4.102      60.928
2015    2       11    18  41    5.5034   519.7    4.101      60.888
2015    2       11    18  46    5.5000   519.5    4.100      60.848
2015    2       11    18  51    5.4967   519.4    4.100      60.807
2015    2       11    18  56    5.4934   519.3    4.099      60.767
2015    2       11    19   1    5.4902   519.2    4.099      60.727
2015    2       11    19   6    5.4870   519.0    4.098      60.686
2015    2       11    19  11    5.4838   518.9    4.098      60.645
2015    2       11    19  17    5.4807   518.8    4.098      60.604
2015    2       11    19  22    5.4776   518.7    4.097      60.563
2015    2       11    19  27    5.4745   518.5    4.097      60.523
2015    2       11    19  32    5.4714   518.4    4.097      60.481
2015    2       11    19  37    5.4684   518.3    4.097      60.440
2015    2       11    19  42    5.4654   518.1    4.097      60.399
2015    2       11    19  47    5.4623   518.0    4.097      60.358
2015    2       11    19  52    5.4593   517.9    4.097      60.316
2015    2       11    19  57    5.4563   517.8    4.097      60.275
2015    2       11    20   3    5.4533   517.6    4.097      60.233
2015    2       11    20   8    5.4503   517.5    4.097      60.191
2015    2       11    20  13    5.4473   517.4    4.097      60.149
2015    2       11    20  18    5.4443   517.3    4.097      60.108
2015    2       11    20  23    5.4413   517.1    4.097      60.066
2015    2       11    20  28    5.4383   517.0    4.097      60.025
2015    2       11    20  33    5.4353   516.9    4.097      59.984
2015    2       11    20  38    5.4322   516.8    4.097      59.943
2015    2       11    20  43    5.4292   516.6    4.097      59.903
2015    2       11    20  48    5.4261   516.5    4.097      59.862
2015    2       11    20  54    5.4230   516.4    4.097      59.822
2015    2       11    20  59    5.4200   516.2    4.097      59.783
2015    2       11    21   4    5.4169   516.1    4.097      59.743
2015    2       11    21   9    5.4138   516.0    4.097      59.704
2015    2       11    21  14    5.4108   515.9    4.097      59.664
2015    2       11    21  19    5.4077   515.7    4.097      59.626
2015    2       11    21  24    5.4046   515.6    4.097      59.587
2015    2       11    21  29    5.4015   515.5    4.097      59.548
2015    2       11    21  34    5.3984   515.3    4.097      59.510
2015    2       11    21  40    5.3953   515.2    4.097      59.471
2015    2       11    21  45    5.3921   515.1    4.097      59.433
2015    2       11    21  50    5.3890   514.9    4.096      59.395
2015    2       11    21  55    5.3860   514.8    4.096      59.357
2015    2       11    22   0    5.3828   514.7    4.096      59.319
2015    2       11    22   5    5.3796   514.5    4.096      59.281
2015    2       11    22  10    5.3766   514.4    4.096      59.243
2015    2       11    22  15    5.3734   514.3    4.095      59.205
2015    2       11    22  20    5.3703   514.1    4.095      59.167
2015    2       11    22  25    5.3671   514.0    4.095      59.130
2015    2       11    22  31    5.3640   513.9    4.094      59.092
2015    2       11    22  36    5.3608   513.7    4.094      59.054
2015    2       11    22  41    5.3577   513.6    4.094      59.016
2015    2       11    22  46    5.3544   513.5    4.093      58.978
2015    2       11    22  51    5.3512   513.3    4.093      58.940
2015    2       11    22  56    5.3482   513.2    4.092      58.901
2015    2       11    23   1    5.3450   513.0    4.092      58.863
2015    2       11    23   6    5.3418   512.9    4.091      58.824
2015    2       11    23  11    5.3386   512.8    4.091      58.785
2015    2       11    23  17    5.3353   512.6    4.090      58.745
2015    2       11    23  22    5.3322   512.5    4.089      58.705
2015    2       11    23  27    5.3289   512.3    4.089      58.665
2015    2       11    23  32    5.3257   512.2    4.088      58.624
2015    2       11    23  37    5.3226   512.0    4.087      58.583
2015    2       11    23  42    5.3194   511.9    4.086      58.541
2015    2       11    23  47    5.3163   511.8    4.085      58.499
2015    2       11    23  52    5.3130   511.6    4.085      58.457
2015    2       11    23  57    5.3099   511.5    4.084      58.414
2015    2       12     0   3    5.3068   511.3    4.083      58.371
