year    month   day   hour  minute  B_enl V_enl   n_enl       T_enl
[year] [month] [day] [hour][minute] [nT]  [km/s]  [cm-3]      [kK]
2015    2       13     0   0    3.9722   455.8    3.812      40.529
2015    2       13     0   5    3.9723   455.5    3.817      40.488
2015    2       13     0  11    3.9725   455.2    3.821      40.447
2015    2       13     0  16    3.9729   454.9    3.825      40.406
2015    2       13     0  21    3.9731   454.6    3.830      40.365
2015    2       13     0  26    3.9734   454.3    3.834      40.325
2015    2       13     0  31    3.9738   454.0    3.839      40.285
2015    2       13     0  37    3.9739   453.6    3.843      40.246
2015    2       13     0  42    3.9743   453.3    3.848      40.207
2015    2       13     0  47    3.9748   453.0    3.853      40.169
2015    2       13     0  52    3.9752   452.7    3.858      40.131
2015    2       13     0  57    3.9759   452.4    3.863      40.094
2015    2       13     1   2    3.9764   452.1    3.868      40.058
2015    2       13     1   8    3.9770   451.8    3.873      40.022
2015    2       13     1  13    3.9774   451.5    3.878      39.987
2015    2       13     1  18    3.9783   451.2    3.884      39.952
2015    2       13     1  23    3.9789   450.9    3.889      39.918
2015    2       13     1  28    3.9796   450.6    3.895      39.884
2015    2       13     1  33    3.9804   450.3    3.901      39.851
2015    2       13     1  39    3.9812   450.0    3.906      39.819
2015    2       13     1  44    3.9820   449.7    3.912      39.787
2015    2       13     1  49    3.9829   449.4    3.918      39.756
2015    2       13     1  54    3.9838   449.1    3.924      39.725
2015    2       13     1  59    3.9845   448.8    3.930      39.695
2015    2       13     2   5    3.9857   448.5    3.936      39.665
2015    2       13     2  10    3.9866   448.2    3.942      39.636
2015    2       13     2  15    3.9877   447.9    3.949      39.607
2015    2       13     2  20    3.9887   447.6    3.955      39.578
2015    2       13     2  25    3.9898   447.3    3.961      39.550
2015    2       13     2  30    3.9909   447.0    3.968      39.522
2015    2       13     2  36    3.9920   446.7    3.974      39.494
2015    2       13     2  41    3.9930   446.4    3.980      39.467
2015    2       13     2  46    3.9944   446.1    3.987      39.440
2015    2       13     2  51    3.9956   445.8    3.993      39.413
2015    2       13     2  56    3.9966   445.5    4.000      39.386
2015    2       13     3   2    3.9978   445.2    4.006      39.359
2015    2       13     3   7    3.9994   445.0    4.013      39.332
2015    2       13     3  12    4.0007   444.7    4.019      39.306
2015    2       13     3  17    4.0020   444.4    4.025      39.279
2015    2       13     3  22    4.0033   444.1    4.032      39.252
2015    2       13     3  27    4.0047   443.8    4.038      39.225
2015    2       13     3  33    4.0061   443.5    4.045      39.199
2015    2       13     3  38    4.0075   443.2    4.051      39.172
2015    2       13     3  43    4.0090   443.0    4.057      39.145
2015    2       13     3  48    4.0104   442.7    4.064      39.118
2015    2       13     3  53    4.0119   442.4    4.070      39.091
2015    2       13     3  58    4.0134   442.1    4.076      39.064
2015    2       13     4   4    4.0150   441.8    4.082      39.037
2015    2       13     4   9    4.0166   441.5    4.089      39.010
2015    2       13     4  14    4.0182   441.2    4.095      38.983
2015    2       13     4  19    4.0198   441.0    4.101      38.956
2015    2       13     4  24    4.0215   440.7    4.107      38.928
2015    2       13     4  30    4.0232   440.4    4.113      38.901
2015    2       13     4  35    4.0249   440.1    4.119      38.874
2015    2       13     4  40    4.0267   439.8    4.126      38.847
2015    2       13     4  45    4.0283   439.6    4.132      38.820
2015    2       13     4  50    4.0304   439.3    4.138      38.792
2015    2       13     4  55    4.0323   439.0    4.144      38.765
2015    2       13     5   1    4.0342   438.7    4.150      38.738
2015    2       13     5   6    4.0359   438.5    4.156      38.711
2015    2       13     5  11    4.0382   438.2    4.162      38.684
2015    2       13     5  16    4.0402   437.9    4.168      38.657
2015    2       13     5  21    4.0423   437.6    4.175      38.630
2015    2       13     5  26    4.0441   437.4    4.181      38.604
2015    2       13     5  32    4.0465   437.1    4.187      38.577
2015    2       13     5  37    4.0485   436.8    4.193      38.550
2015    2       13     5  42    4.0509   436.6    4.199      38.524
2015    2       13     5  47    4.0532   436.3    4.205      38.498
2015    2       13     5  52    4.0555   436.0    4.212      38.471
2015    2       13     5  58    4.0575   435.8    4.218      38.445
2015    2       13     6   3    4.0601   435.5    4.224      38.419
2015    2       13     6   8    4.0625   435.3    4.231      38.393
2015    2       13     6  13    4.0649   435.0    4.237      38.367
2015    2       13     6  18    4.0673   434.7    4.243      38.342
2015    2       13     6  23    4.0698   434.5    4.250      38.316
2015    2       13     6  29    4.0723   434.2    4.256      38.291
2015    2       13     6  34    4.0748   434.0    4.263      38.266
2015    2       13     6  39    4.0773   433.7    4.269      38.241
2015    2       13     6  44    4.0796   433.5    4.276      38.216
2015    2       13     6  49    4.0822   433.2    4.283      38.192
2015    2       13     6  54    4.0848   432.9    4.289      38.167
2015    2       13     7   0    4.0876   432.7    4.296      38.143
2015    2       13     7   5    4.0903   432.4    4.303      38.119
2015    2       13     7  10    4.0929   432.2    4.310      38.096
2015    2       13     7  15    4.0956   431.9    4.317      38.072
2015    2       13     7  20    4.0983   431.7    4.324      38.049
2015    2       13     7  26    4.1010   431.4    4.331      38.026
2015    2       13     7  31    4.1038   431.2    4.338      38.003
2015    2       13     7  36    4.1065   431.0    4.345      37.980
2015    2       13     7  41    4.1093   430.7    4.352      37.958
2015    2       13     7  46    4.1119   430.5    4.359      37.936
2015    2       13     7  51    4.1147   430.2    4.366      37.914
2015    2       13     7  57    4.1175   430.0    4.374      37.893
2015    2       13     8   2    4.1207   429.7    4.381      37.872
2015    2       13     8   7    4.1233   429.5    4.389      37.852
2015    2       13     8  12    4.1265   429.3    4.397      37.831
2015    2       13     8  17    4.1292   429.0    4.404      37.812
2015    2       13     8  22    4.1321   428.8    4.412      37.792
2015    2       13     8  28    4.1354   428.5    4.420      37.773
2015    2       13     8  33    4.1382   428.3    4.428      37.755
2015    2       13     8  38    4.1415   428.1    4.436      37.736
2015    2       13     8  43    4.1445   427.8    4.444      37.719
2015    2       13     8  48    4.1476   427.6    4.453      37.702
2015    2       13     8  54    4.1508   427.4    4.461      37.685
2015    2       13     8  59    4.1537   427.1    4.469      37.669
2015    2       13     9   4    4.1568   426.9    4.478      37.653
2015    2       13     9   9    4.1603   426.7    4.487      37.638
2015    2       13     9  14    4.1636   426.5    4.495      37.623
2015    2       13     9  19    4.1666   426.2    4.504      37.609
2015    2       13     9  25    4.1699   426.0    4.513      37.595
2015    2       13     9  30    4.1735   425.8    4.522      37.582
2015    2       13     9  35    4.1766   425.6    4.531      37.569
2015    2       13     9  40    4.1800   425.3    4.540      37.557
2015    2       13     9  45    4.1834   425.1    4.550      37.545
2015    2       13     9  50    4.1869   424.9    4.559      37.534
2015    2       13     9  56    4.1904   424.7    4.569      37.523
2015    2       13    10   1    4.1939   424.5    4.578      37.513
2015    2       13    10   6    4.1977   424.2    4.588      37.503
2015    2       13    10  11    4.2010   424.0    4.597      37.493
2015    2       13    10  16    4.2048   423.8    4.607      37.484
2015    2       13    10  22    4.2085   423.6    4.617      37.476
2015    2       13    10  27    4.2121   423.4    4.627      37.468
2015    2       13    10  32    4.2158   423.2    4.637      37.460
2015    2       13    10  37    4.2195   423.0    4.647      37.452
2015    2       13    10  42    4.2232   422.8    4.657      37.445
2015    2       13    10  47    4.2270   422.6    4.667      37.438
2015    2       13    10  53    4.2307   422.4    4.677      37.431
2015    2       13    10  58    4.2343   422.2    4.687      37.424
2015    2       13    11   3    4.2381   422.0    4.697      37.418
2015    2       13    11   8    4.2419   421.8    4.707      37.412
2015    2       13    11  13    4.2457   421.6    4.717      37.406
2015    2       13    11  18    4.2498   421.4    4.727      37.400
2015    2       13    11  24    4.2535   421.2    4.737      37.394
2015    2       13    11  29    4.2573   421.0    4.747      37.388
2015    2       13    11  34    4.2615   420.8    4.757      37.383
2015    2       13    11  39    4.2654   420.6    4.767      37.377
2015    2       13    11  44    4.2691   420.4    4.777      37.372
2015    2       13    11  50    4.2733   420.2    4.787      37.367
2015    2       13    11  55    4.2773   420.0    4.797      37.361
2015    2       13    12   0    4.2813   419.8    4.807      37.356
2015    2       13    12   5    4.2851   419.6    4.817      37.350
2015    2       13    12  10    4.2891   419.5    4.827      37.345
2015    2       13    12  15    4.2931   419.3    4.837      37.340
2015    2       13    12  21    4.2972   419.1    4.847      37.334
2015    2       13    12  26    4.3013   418.9    4.856      37.329
2015    2       13    12  31    4.3054   418.7    4.866      37.324
2015    2       13    12  36    4.3095   418.5    4.876      37.319
2015    2       13    12  41    4.3138   418.4    4.885      37.313
2015    2       13    12  46    4.3179   418.2    4.895      37.308
2015    2       13    12  52    4.3221   418.0    4.904      37.303
2015    2       13    12  57    4.3261   417.8    4.914      37.297
2015    2       13    13   2    4.3305   417.6    4.923      37.292
2015    2       13    13   7    4.3345   417.5    4.932      37.286
2015    2       13    13  12    4.3387   417.3    4.942      37.281
2015    2       13    13  17    4.3430   417.1    4.951      37.275
2015    2       13    13  23    4.3474   416.9    4.960      37.270
2015    2       13    13  28    4.3517   416.8    4.970      37.264
2015    2       13    13  33    4.3560   416.6    4.979      37.259
2015    2       13    13  38    4.3601   416.4    4.988      37.253
2015    2       13    13  43    4.3644   416.2    4.997      37.248
2015    2       13    13  49    4.3689   416.1    5.007      37.242
2015    2       13    13  54    4.3731   415.9    5.016      37.237
2015    2       13    13  59    4.3775   415.7    5.025      37.232
2015    2       13    14   4    4.3820   415.6    5.034      37.227
2015    2       13    14   9    4.3862   415.4    5.043      37.221
2015    2       13    14  14    4.3906   415.2    5.053      37.216
2015    2       13    14  20    4.3951   415.1    5.062      37.211
2015    2       13    14  25    4.3996   414.9    5.071      37.207
2015    2       13    14  30    4.4039   414.7    5.080      37.202
2015    2       13    14  35    4.4084   414.6    5.090      37.197
2015    2       13    14  40    4.4130   414.4    5.099      37.193
2015    2       13    14  45    4.4175   414.3    5.108      37.189
2015    2       13    14  51    4.4220   414.1    5.118      37.185
2015    2       13    14  56    4.4265   413.9    5.127      37.182
2015    2       13    15   1    4.4309   413.8    5.137      37.178
2015    2       13    15   6    4.4356   413.6    5.146      37.175
2015    2       13    15  11    4.4401   413.5    5.156      37.172
2015    2       13    15  17    4.4445   413.3    5.165      37.170
2015    2       13    15  22    4.4491   413.2    5.175      37.167
2015    2       13    15  27    4.4537   413.0    5.185      37.166
2015    2       13    15  32    4.4585   412.9    5.195      37.164
2015    2       13    15  37    4.4630   412.7    5.205      37.163
2015    2       13    15  42    4.4678   412.6    5.215      37.162
2015    2       13    15  48    4.4723   412.4    5.225      37.161
2015    2       13    15  53    4.4771   412.3    5.235      37.161
2015    2       13    15  58    4.4818   412.1    5.245      37.161
2015    2       13    16   3    4.4864   412.0    5.256      37.162
2015    2       13    16   8    4.4911   411.8    5.266      37.163
2015    2       13    16  13    4.4960   411.7    5.277      37.165
2015    2       13    16  19    4.5006   411.6    5.287      37.166
2015    2       13    16  24    4.5054   411.4    5.298      37.169
2015    2       13    16  29    4.5102   411.3    5.309      37.171
2015    2       13    16  34    4.5150   411.1    5.319      37.174
2015    2       13    16  39    4.5198   411.0    5.330      37.178
2015    2       13    16  45    4.5248   410.9    5.341      37.181
2015    2       13    16  50    4.5296   410.7    5.352      37.185
2015    2       13    16  55    4.5346   410.6    5.364      37.190
2015    2       13    17   0    4.5395   410.5    5.375      37.195
2015    2       13    17   5    4.5444   410.4    5.386      37.200
2015    2       13    17  10    4.5493   410.2    5.397      37.206
2015    2       13    17  16    4.5541   410.1    5.409      37.212
2015    2       13    17  21    4.5591   410.0    5.420      37.218
2015    2       13    17  26    4.5642   409.8    5.432      37.224
2015    2       13    17  31    4.5691   409.7    5.444      37.231
2015    2       13    17  36    4.5742   409.6    5.455      37.238
2015    2       13    17  41    4.5792   409.5    5.467      37.246
2015    2       13    17  47    4.5841   409.4    5.479      37.254
2015    2       13    17  52    4.5893   409.2    5.490      37.262
2015    2       13    17  57    4.5943   409.1    5.502      37.270
2015    2       13    18   2    4.5994   409.0    5.514      37.278
2015    2       13    18   7    4.6044   408.9    5.526      37.287
2015    2       13    18  13    4.6096   408.8    5.538      37.296
2015    2       13    18  18    4.6147   408.7    5.550      37.305
2015    2       13    18  23    4.6198   408.5    5.562      37.314
2015    2       13    18  28    4.6249   408.4    5.574      37.324
2015    2       13    18  33    4.6301   408.3    5.586      37.333
2015    2       13    18  38    4.6354   408.2    5.598      37.343
2015    2       13    18  44    4.6405   408.1    5.610      37.353
2015    2       13    18  49    4.6457   408.0    5.622      37.363
2015    2       13    18  54    4.6509   407.9    5.634      37.373
2015    2       13    18  59    4.6562   407.8    5.645      37.383
2015    2       13    19   4    4.6615   407.7    5.657      37.394
2015    2       13    19   9    4.6667   407.5    5.669      37.404
2015    2       13    19  15    4.6720   407.4    5.681      37.415
2015    2       13    19  20    4.6775   407.3    5.693      37.425
2015    2       13    19  25    4.6828   407.2    5.705      37.436
2015    2       13    19  30    4.6881   407.1    5.716      37.447
2015    2       13    19  35    4.6935   407.0    5.728      37.457
2015    2       13    19  41    4.6988   406.9    5.740      37.468
2015    2       13    19  46    4.7041   406.8    5.752      37.479
2015    2       13    19  51    4.7096   406.7    5.763      37.490
2015    2       13    19  56    4.7151   406.6    5.775      37.501
2015    2       13    20   1    4.7204   406.5    5.786      37.512
2015    2       13    20   6    4.7259   406.4    5.798      37.523
2015    2       13    20  12    4.7313   406.3    5.809      37.534
2015    2       13    20  17    4.7368   406.2    5.821      37.546
2015    2       13    20  22    4.7423   406.1    5.832      37.557
2015    2       13    20  27    4.7478   406.0    5.844      37.568
2015    2       13    20  32    4.7535   405.9    5.855      37.580
2015    2       13    20  37    4.7590   405.8    5.866      37.591
2015    2       13    20  43    4.7646   405.7    5.878      37.602
2015    2       13    20  48    4.7702   405.6    5.889      37.614
2015    2       13    20  53    4.7757   405.6    5.900      37.626
2015    2       13    20  58    4.7812   405.5    5.911      37.637
2015    2       13    21   3    4.7868   405.4    5.923      37.648
2015    2       13    21   9    4.7924   405.3    5.934      37.660
2015    2       13    21  14    4.7982   405.2    5.945      37.672
2015    2       13    21  19    4.8038   405.1    5.956      37.683
2015    2       13    21  24    4.8095   405.0    5.967      37.695
2015    2       13    21  29    4.8150   404.9    5.978      37.707
2015    2       13    21  34    4.8206   404.8    5.990      37.719
2015    2       13    21  40    4.8263   404.8    6.001      37.731
2015    2       13    21  45    4.8320   404.7    6.012      37.743
2015    2       13    21  50    4.8377   404.6    6.023      37.755
2015    2       13    21  55    4.8434   404.5    6.034      37.767
2015    2       13    22   0    4.8491   404.4    6.045      37.779
2015    2       13    22   5    4.8550   404.3    6.056      37.792
2015    2       13    22  11    4.8606   404.2    6.068      37.804
2015    2       13    22  16    4.8665   404.2    6.079      37.817
2015    2       13    22  21    4.8721   404.1    6.090      37.830
2015    2       13    22  26    4.8779   404.0    6.101      37.843
2015    2       13    22  31    4.8838   403.9    6.113      37.856
2015    2       13    22  37    4.8894   403.8    6.124      37.869
2015    2       13    22  42    4.8953   403.8    6.135      37.883
2015    2       13    22  47    4.9012   403.7    6.147      37.896
2015    2       13    22  52    4.9069   403.6    6.158      37.910
2015    2       13    22  57    4.9128   403.5    6.169      37.924
2015    2       13    23   2    4.9185   403.5    6.181      37.938
2015    2       13    23   8    4.9244   403.4    6.192      37.953
2015    2       13    23  13    4.9302   403.3    6.204      37.968
2015    2       13    23  18    4.9362   403.3    6.215      37.982
2015    2       13    23  23    4.9420   403.2    6.227      37.998
2015    2       13    23  28    4.9480   403.1    6.238      38.013
2015    2       13    23  33    4.9539   403.0    6.250      38.029
2015    2       13    23  39    4.9598   403.0    6.262      38.045
2015    2       13    23  44    4.9656   402.9    6.273      38.061
2015    2       13    23  49    4.9715   402.9    6.285      38.077
2015    2       13    23  54    4.9774   402.8    6.296      38.094
2015    2       13    23  59    4.9835   402.7    6.308      38.111
2015    2       14     0   5    4.9894   402.7    6.320      38.128
2015    2       14     0  10    4.9954   402.6    6.331      38.145
2015    2       14     0  15    5.0012   402.5    6.343      38.163
2015    2       14     0  20    5.0072   402.5    6.354      38.180
2015    2       14     0  25    5.0131   402.4    6.366      38.197
2015    2       14     0  30    5.0191   402.4    6.377      38.215
2015    2       14     0  36    5.0251   402.3    6.389      38.233
2015    2       14     0  41    5.0311   402.3    6.400      38.250
2015    2       14     0  46    5.0371   402.2    6.411      38.268
2015    2       14     0  51    5.0430   402.1    6.423      38.286
2015    2       14     0  56    5.0489   402.1    6.434      38.303
2015    2       14     1   1    5.0550   402.0    6.445      38.321
2015    2       14     1   7    5.0610   402.0    6.457      38.338
2015    2       14     1  12    5.0670   401.9    6.468      38.356
2015    2       14     1  17    5.0729   401.9    6.479      38.373
2015    2       14     1  22    5.0789   401.8    6.490      38.390
2015    2       14     1  27    5.0850   401.8    6.502      38.407
2015    2       14     1  33    5.0911   401.7    6.513      38.424
2015    2       14     1  38    5.0970   401.7    6.524      38.440
2015    2       14     1  43    5.1031   401.6    6.535      38.457
2015    2       14     1  48    5.1092   401.6    6.546      38.474
2015    2       14     1  53    5.1152   401.5    6.557      38.490
2015    2       14     1  58    5.1213   401.5    6.568      38.506
2015    2       14     2   4    5.1273   401.4    6.579      38.522
2015    2       14     2   9    5.1335   401.4    6.589      38.538
2015    2       14     2  14    5.1396   401.3    6.600      38.554
2015    2       14     2  19    5.1457   401.3    6.611      38.569
2015    2       14     2  24    5.1518   401.2    6.622      38.585
2015    2       14     2  29    5.1581   401.2    6.633      38.600
2015    2       14     2  35    5.1642   401.1    6.644      38.616
2015    2       14     2  40    5.1704   401.1    6.654      38.631
2015    2       14     2  45    5.1766   401.0    6.665      38.646
2015    2       14     2  50    5.1829   401.0    6.676      38.661
2015    2       14     2  55    5.1892   401.0    6.686      38.676
2015    2       14     3   1    5.1955   400.9    6.697      38.691
2015    2       14     3   6    5.2018   400.9    6.708      38.706
2015    2       14     3  11    5.2082   400.8    6.719      38.721
2015    2       14     3  16    5.2146   400.8    6.729      38.736
2015    2       14     3  21    5.2210   400.7    6.740      38.751
2015    2       14     3  26    5.2274   400.7    6.751      38.766
2015    2       14     3  32    5.2338   400.7    6.762      38.781
2015    2       14     3  37    5.2403   400.6    6.772      38.796
2015    2       14     3  42    5.2468   400.6    6.783      38.812
2015    2       14     3  47    5.2533   400.5    6.794      38.827
2015    2       14     3  52    5.2598   400.5    6.805      38.842
2015    2       14     3  57    5.2663   400.5    6.816      38.857
2015    2       14     4   3    5.2729   400.4    6.827      38.873
2015    2       14     4   8    5.2795   400.4    6.838      38.888
2015    2       14     4  13    5.2861   400.4    6.849      38.904
2015    2       14     4  18    5.2928   400.3    6.860      38.920
2015    2       14     4  23    5.2995   400.3    6.871      38.936
2015    2       14     4  29    5.3061   400.2    6.882      38.952
2015    2       14     4  34    5.3127   400.2    6.893      38.969
2015    2       14     4  39    5.3194   400.2    6.904      38.986
2015    2       14     4  44    5.3261   400.2    6.915      39.003
2015    2       14     4  49    5.3326   400.1    6.927      39.020
2015    2       14     4  54    5.3393   400.1    6.938      39.038
2015    2       14     5   0    5.3460   400.1    6.949      39.056
2015    2       14     5   5    5.3526   400.1    6.960      39.074
2015    2       14     5  10    5.3592   400.0    6.971      39.093
2015    2       14     5  15    5.3657   400.0    6.982      39.112
2015    2       14     5  20    5.3723   400.0    6.993      39.132
2015    2       14     5  25    5.3789   400.0    7.004      39.151
2015    2       14     5  31    5.3855   399.9    7.015      39.171
2015    2       14     5  36    5.3921   399.9    7.026      39.192
2015    2       14     5  41    5.3987   399.9    7.037      39.212
2015    2       14     5  46    5.4052   399.9    7.048      39.233
2015    2       14     5  51    5.4118   399.9    7.059      39.254
2015    2       14     5  57    5.4184   399.8    7.069      39.276
2015    2       14     6   2    5.4249   399.8    7.080      39.297
2015    2       14     6   7    5.4315   399.8    7.091      39.319
2015    2       14     6  12    5.4380   399.8    7.102      39.341
2015    2       14     6  17    5.4445   399.8    7.112      39.363
2015    2       14     6  22    5.4511   399.7    7.123      39.385
2015    2       14     6  28    5.4576   399.7    7.134      39.407
2015    2       14     6  33    5.4641   399.7    7.144      39.429
2015    2       14     6  38    5.4707   399.7    7.155      39.452
2015    2       14     6  43    5.4772   399.7    7.165      39.474
2015    2       14     6  48    5.4837   399.7    7.176      39.497
2015    2       14     6  53    5.4902   399.7    7.186      39.520
2015    2       14     6  59    5.4968   399.6    7.197      39.543
2015    2       14     7   4    5.5033   399.6    7.207      39.566
2015    2       14     7   9    5.5098   399.6    7.217      39.589
2015    2       14     7  14    5.5164   399.6    7.227      39.612
2015    2       14     7  19    5.5229   399.6    7.238      39.636
2015    2       14     7  25    5.5294   399.6    7.248      39.659
2015    2       14     7  30    5.5359   399.6    7.258      39.682
2015    2       14     7  35    5.5425   399.6    7.268      39.706
2015    2       14     7  40    5.5491   399.5    7.278      39.730
2015    2       14     7  45    5.5556   399.5    7.288      39.753
2015    2       14     7  50    5.5622   399.5    7.298      39.777
2015    2       14     7  56    5.5687   399.5    7.308      39.800
2015    2       14     8   1    5.5753   399.5    7.318      39.824
2015    2       14     8   6    5.5818   399.5    7.327      39.848
2015    2       14     8  11    5.5884   399.5    7.337      39.871
2015    2       14     8  16    5.5951   399.5    7.347      39.895
2015    2       14     8  21    5.6017   399.5    7.357      39.918
2015    2       14     8  27    5.6083   399.5    7.367      39.942
2015    2       14     8  32    5.6150   399.5    7.376      39.965
2015    2       14     8  37    5.6217   399.5    7.386      39.989
2015    2       14     8  42    5.6284   399.5    7.396      40.012
2015    2       14     8  47    5.6351   399.5    7.406      40.035
2015    2       14     8  53    5.6418   399.5    7.415      40.058
2015    2       14     8  58    5.6486   399.4    7.425      40.081
2015    2       14     9   3    5.6554   399.4    7.435      40.104
2015    2       14     9   8    5.6623   399.4    7.445      40.127
2015    2       14     9  13    5.6691   399.4    7.455      40.150
2015    2       14     9  18    5.6760   399.4    7.465      40.173
2015    2       14     9  24    5.6829   399.4    7.475      40.196
2015    2       14     9  29    5.6898   399.4    7.485      40.219
2015    2       14     9  34    5.6969   399.4    7.495      40.242
2015    2       14     9  39    5.7040   399.4    7.505      40.265
2015    2       14     9  44    5.7111   399.4    7.516      40.288
2015    2       14     9  50    5.7181   399.4    7.526      40.312
2015    2       14     9  55    5.7254   399.4    7.536      40.335
2015    2       14    10   0    5.7326   399.4    7.547      40.358
2015    2       14    10   5    5.7398   399.4    7.558      40.382
2015    2       14    10  10    5.7472   399.4    7.569      40.406
2015    2       14    10  15    5.7546   399.4    7.579      40.429
2015    2       14    10  21    5.7620   399.5    7.591      40.453
2015    2       14    10  26    5.7695   399.5    7.602      40.478
2015    2       14    10  31    5.7770   399.5    7.613      40.502
2015    2       14    10  36    5.7846   399.5    7.624      40.528
2015    2       14    10  41    5.7922   399.5    7.636      40.554
2015    2       14    10  47    5.7998   399.5    7.647      40.580
2015    2       14    10  52    5.8075   399.5    7.659      40.608
2015    2       14    10  57    5.8152   399.5    7.670      40.636
2015    2       14    11   2    5.8229   399.5    7.682      40.664
2015    2       14    11   7    5.8308   399.6    7.693      40.693
2015    2       14    11  12    5.8386   399.6    7.705      40.722
2015    2       14    11  18    5.8464   399.6    7.717      40.752
2015    2       14    11  23    5.8542   399.6    7.728      40.783
2015    2       14    11  28    5.8620   399.6    7.740      40.814
2015    2       14    11  33    5.8698   399.7    7.752      40.845
2015    2       14    11  38    5.8775   399.7    7.763      40.877
2015    2       14    11  43    5.8854   399.7    7.775      40.909
2015    2       14    11  49    5.8931   399.7    7.786      40.942
2015    2       14    11  54    5.9009   399.8    7.797      40.975
2015    2       14    11  59    5.9086   399.8    7.809      41.008
2015    2       14    12   4    5.9163   399.8    7.820      41.041
2015    2       14    12   9    5.9239   399.9    7.831      41.074
2015    2       14    12  15    5.9315   399.9    7.842      41.108
2015    2       14    12  20    5.9391   399.9    7.852      41.141
2015    2       14    12  25    5.9467   400.0    7.863      41.175
2015    2       14    12  30    5.9542   400.0    7.873      41.208
2015    2       14    12  35    5.9617   400.0    7.884      41.242
2015    2       14    12  40    5.9691   400.1    7.894      41.275
2015    2       14    12  46    5.9766   400.1    7.904      41.309
2015    2       14    12  51    5.9839   400.2    7.914      41.343
2015    2       14    12  56    5.9914   400.2    7.924      41.377
2015    2       14    13   1    5.9987   400.2    7.933      41.410
2015    2       14    13   6    6.0060   400.3    7.943      41.444
2015    2       14    13  12    6.0133   400.3    7.952      41.477
2015    2       14    13  17    6.0206   400.4    7.961      41.511
2015    2       14    13  22    6.0278   400.4    7.970      41.544
2015    2       14    13  27    6.0351   400.4    7.979      41.577
2015    2       14    13  32    6.0423   400.5    7.988      41.610
2015    2       14    13  37    6.0495   400.5    7.997      41.643
2015    2       14    13  43    6.0567   400.6    8.005      41.675
2015    2       14    13  48    6.0638   400.6    8.014      41.707
2015    2       14    13  53    6.0709   400.7    8.022      41.739
2015    2       14    13  58    6.0780   400.7    8.030      41.771
2015    2       14    14   3    6.0851   400.8    8.038      41.803
2015    2       14    14   8    6.0923   400.8    8.046      41.834
2015    2       14    14  14    6.0993   400.9    8.054      41.865
2015    2       14    14  19    6.1064   400.9    8.062      41.896
2015    2       14    14  24    6.1136   400.9    8.070      41.927
2015    2       14    14  29    6.1207   401.0    8.078      41.958
2015    2       14    14  34    6.1277   401.0    8.086      41.988
2015    2       14    14  40    6.1348   401.1    8.093      42.018
2015    2       14    14  45    6.1418   401.1    8.101      42.048
2015    2       14    14  50    6.1489   401.2    8.108      42.077
2015    2       14    14  55    6.1560   401.2    8.116      42.107
2015    2       14    15   0    6.1631   401.3    8.123      42.136
2015    2       14    15   5    6.1702   401.3    8.131      42.166
2015    2       14    15  11    6.1773   401.4    8.138      42.195
2015    2       14    15  16    6.1844   401.4    8.145      42.224
2015    2       14    15  21    6.1915   401.5    8.153      42.253
2015    2       14    15  26    6.1986   401.5    8.160      42.282
2015    2       14    15  31    6.2058   401.6    8.168      42.311
2015    2       14    15  36    6.2129   401.6    8.175      42.340
2015    2       14    15  42    6.2201   401.7    8.182      42.370
2015    2       14    15  47    6.2272   401.7    8.190      42.399
2015    2       14    15  52    6.2345   401.8    8.197      42.428
2015    2       14    15  57    6.2417   401.8    8.204      42.458
2015    2       14    16   2    6.2490   401.9    8.212      42.488
2015    2       14    16   8    6.2562   401.9    8.219      42.518
2015    2       14    16  13    6.2636   402.0    8.227      42.548
2015    2       14    16  18    6.2709   402.0    8.235      42.579
2015    2       14    16  23    6.2783   402.1    8.242      42.610
2015    2       14    16  28    6.2858   402.1    8.250      42.641
2015    2       14    16  33    6.2932   402.2    8.258      42.673
2015    2       14    16  39    6.3008   402.2    8.266      42.706
2015    2       14    16  44    6.3083   402.3    8.275      42.739
2015    2       14    16  49    6.3160   402.3    8.283      42.772
2015    2       14    16  54    6.3236   402.4    8.291      42.806
2015    2       14    16  59    6.3314   402.5    8.300      42.841
2015    2       14    17   5    6.3392   402.5    8.309      42.877
2015    2       14    17  10    6.3470   402.6    8.318      42.913
2015    2       14    17  15    6.3549   402.6    8.327      42.950
2015    2       14    17  20    6.3629   402.7    8.336      42.989
2015    2       14    17  25    6.3709   402.8    8.345      43.028
2015    2       14    17  30    6.3789   402.8    8.355      43.068
2015    2       14    17  36    6.3871   402.9    8.365      43.109
2015    2       14    17  41    6.3952   403.0    8.374      43.151
2015    2       14    17  46    6.4034   403.1    8.384      43.195
2015    2       14    17  51    6.4117   403.1    8.394      43.240
2015    2       14    17  56    6.4199   403.2    8.405      43.286
2015    2       14    18   1    6.4282   403.3    8.415      43.334
2015    2       14    18   7    6.4365   403.4    8.425      43.383
2015    2       14    18  12    6.4447   403.5    8.435      43.433
2015    2       14    18  17    6.4529   403.6    8.445      43.484
2015    2       14    18  22    6.4611   403.6    8.455      43.536
2015    2       14    18  27    6.4694   403.7    8.465      43.589
2015    2       14    18  33    6.4775   403.8    8.475      43.643
2015    2       14    18  38    6.4858   403.9    8.485      43.697
2015    2       14    18  43    6.4939   404.0    8.495      43.752
2015    2       14    18  48    6.5019   404.1    8.504      43.807
2015    2       14    18  53    6.5100   404.2    8.514      43.862
2015    2       14    18  58    6.5179   404.3    8.523      43.918
2015    2       14    19   4    6.5259   404.4    8.532      43.974
2015    2       14    19   9    6.5339   404.5    8.541      44.030
2015    2       14    19  14    6.5416   404.6    8.550      44.086
2015    2       14    19  19    6.5494   404.7    8.559      44.141
2015    2       14    19  24    6.5572   404.8    8.568      44.195
2015    2       14    19  29    6.5649   404.9    8.576      44.250
2015    2       14    19  35    6.5728   405.0    8.585      44.303
2015    2       14    19  40    6.5804   405.1    8.593      44.357
2015    2       14    19  45    6.5881   405.2    8.601      44.410
2015    2       14    19  50    6.5956   405.3    8.609      44.462
2015    2       14    19  55    6.6033   405.4    8.618      44.514
2015    2       14    20   0    6.6108   405.5    8.626      44.565
2015    2       14    20   6    6.6183   405.6    8.634      44.617
2015    2       14    20  11    6.6260   405.7    8.642      44.668
2015    2       14    20  16    6.6335   405.8    8.650      44.718
2015    2       14    20  21    6.6410   405.9    8.658      44.768
2015    2       14    20  26    6.6485   406.0    8.666      44.818
2015    2       14    20  32    6.6562   406.1    8.675      44.867
2015    2       14    20  37    6.6636   406.2    8.683      44.916
2015    2       14    20  42    6.6713   406.4    8.691      44.966
2015    2       14    20  47    6.6787   406.5    8.700      45.016
2015    2       14    20  52    6.6864   406.6    8.708      45.067
2015    2       14    20  57    6.6939   406.7    8.716      45.118
2015    2       14    21   3    6.7015   406.8    8.724      45.169
2015    2       14    21   8    6.7090   406.9    8.732      45.221
2015    2       14    21  13    6.7166   407.0    8.740      45.273
2015    2       14    21  18    6.7240   407.2    8.748      45.326
2015    2       14    21  23    6.7315   407.3    8.756      45.378
2015    2       14    21  28    6.7390   407.4    8.763      45.431
2015    2       14    21  34    6.7465   407.5    8.771      45.483
2015    2       14    21  39    6.7540   407.6    8.778      45.536
2015    2       14    21  44    6.7613   407.8    8.785      45.589
2015    2       14    21  49    6.7687   407.9    8.792      45.641
2015    2       14    21  54    6.7760   408.0    8.798      45.694
2015    2       14    22   0    6.7833   408.1    8.804      45.746
2015    2       14    22   5    6.7906   408.3    8.810      45.798
2015    2       14    22  10    6.7979   408.4    8.816      45.849
2015    2       14    22  15    6.8051   408.5    8.821      45.900
2015    2       14    22  20    6.8122   408.6    8.826      45.950
2015    2       14    22  25    6.8194   408.8    8.831      46.000
2015    2       14    22  31    6.8266   408.9    8.836      46.050
2015    2       14    22  36    6.8336   409.0    8.840      46.099
2015    2       14    22  41    6.8407   409.2    8.844      46.147
2015    2       14    22  46    6.8478   409.3    8.848      46.195
2015    2       14    22  51    6.8548   409.4    8.852      46.243
2015    2       14    22  56    6.8618   409.5    8.856      46.291
2015    2       14    23   2    6.8689   409.7    8.859      46.338
2015    2       14    23   7    6.8758   409.8    8.862      46.385
2015    2       14    23  12    6.8828   409.9    8.865      46.432
2015    2       14    23  17    6.8898   410.1    8.868      46.478
2015    2       14    23  22    6.8968   410.2    8.871      46.525
2015    2       14    23  28    6.9037   410.3    8.874      46.571
2015    2       14    23  33    6.9107   410.5    8.876      46.617
2015    2       14    23  38    6.9176   410.6    8.878      46.663
2015    2       14    23  43    6.9246   410.7    8.881      46.710
2015    2       14    23  48    6.9315   410.9    8.883      46.756
2015    2       14    23  53    6.9385   411.0    8.885      46.802
2015    2       14    23  59    6.9455   411.1    8.887      46.849
2015    2       15     0   4    6.9525   411.3    8.889      46.896
2015    2       15     0   9    6.9595   411.4    8.890      46.943
2015    2       15     0  14    6.9665   411.6    8.892      46.990
2015    2       15     0  19    6.9735   411.7    8.894      47.037
2015    2       15     0  24    6.9805   411.8    8.896      47.085
2015    2       15     0  30    6.9876   412.0    8.898      47.134
2015    2       15     0  35    6.9947   412.1    8.899      47.183
2015    2       15     0  40    7.0019   412.3    8.901      47.232
2015    2       15     0  45    7.0090   412.4    8.903      47.282
2015    2       15     0  50    7.0161   412.5    8.904      47.333
2015    2       15     0  55    7.0233   412.7    8.906      47.383
2015    2       15     1   1    7.0305   412.8    8.908      47.435
2015    2       15     1   6    7.0377   413.0    8.910      47.487
2015    2       15     1  11    7.0449   413.1    8.912      47.540
2015    2       15     1  16    7.0521   413.3    8.913      47.594
2015    2       15     1  21    7.0594   413.4    8.915      47.648
2015    2       15     1  27    7.0666   413.6    8.917      47.703
2015    2       15     1  32    7.0738   413.7    8.919      47.759
2015    2       15     1  37    7.0811   413.9    8.921      47.815
2015    2       15     1  42    7.0883   414.0    8.922      47.872
2015    2       15     1  47    7.0955   414.2    8.924      47.929
2015    2       15     1  52    7.1027   414.3    8.926      47.986
2015    2       15     1  58    7.1098   414.5    8.928      48.044
2015    2       15     2   3    7.1170   414.6    8.929      48.102
2015    2       15     2   8    7.1241   414.8    8.931      48.160
2015    2       15     2  13    7.1313   415.0    8.933      48.219
2015    2       15     2  18    7.1384   415.1    8.934      48.278
2015    2       15     2  23    7.1455   415.3    8.936      48.337
2015    2       15     2  29    7.1526   415.4    8.938      48.396
2015    2       15     2  34    7.1597   415.6    8.939      48.456
2015    2       15     2  39    7.1667   415.7    8.941      48.515
2015    2       15     2  44    7.1738   415.9    8.943      48.575
2015    2       15     2  49    7.1808   416.0    8.945      48.634
2015    2       15     2  55    7.1878   416.2    8.947      48.694
2015    2       15     3   0    7.1948   416.4    8.949      48.754
2015    2       15     3   5    7.2017   416.5    8.951      48.814
2015    2       15     3  10    7.2087   416.7    8.953      48.874
2015    2       15     3  15    7.2157   416.8    8.955      48.934
2015    2       15     3  20    7.2227   417.0    8.958      48.995
2015    2       15     3  26    7.2296   417.1    8.961      49.057
2015    2       15     3  31    7.2365   417.3    8.963      49.119
2015    2       15     3  36    7.2434   417.4    8.967      49.181
2015    2       15     3  41    7.2504   417.6    8.970      49.243
2015    2       15     3  46    7.2573   417.7    8.974      49.306
2015    2       15     3  51    7.2644   417.9    8.977      49.369
2015    2       15     3  57    7.2712   418.0    8.982      49.434
2015    2       15     4   2    7.2782   418.2    8.986      49.500
2015    2       15     4   7    7.2851   418.3    8.991      49.567
2015    2       15     4  12    7.2921   418.5    8.995      49.636
2015    2       15     4  17    7.2990   418.6    9.000      49.705
2015    2       15     4  22    7.3059   418.8    9.006      49.776
2015    2       15     4  28    7.3130   419.0    9.011      49.848
2015    2       15     4  33    7.3199   419.1    9.017      49.921
2015    2       15     4  38    7.3268   419.3    9.022      49.996
2015    2       15     4  43    7.3335   419.4    9.028      50.072
2015    2       15     4  48    7.3404   419.6    9.034      50.148
2015    2       15     4  54    7.3474   419.8    9.040      50.225
2015    2       15     4  59    7.3541   419.9    9.046      50.303
2015    2       15     5   4    7.3609   420.1    9.053      50.383
2015    2       15     5   9    7.3678   420.2    9.059      50.464
2015    2       15     5  14    7.3746   420.4    9.065      50.547
2015    2       15     5  19    7.3812   420.6    9.071      50.632
2015    2       15     5  25    7.3880   420.7    9.077      50.717
2015    2       15     5  30    7.3947   420.9    9.083      50.802
2015    2       15     5  35    7.4013   421.1    9.089      50.888
2015    2       15     5  40    7.4082   421.3    9.094      50.975
2015    2       15     5  45    7.4148   421.4    9.099      51.062
2015    2       15     5  50    7.4213   421.6    9.104      51.149
2015    2       15     5  56    7.4279   421.8    9.109      51.236
2015    2       15     6   1    7.4344   422.0    9.114      51.323
2015    2       15     6   6    7.4409   422.1    9.118      51.410
2015    2       15     6  11    7.4474   422.3    9.121      51.495
2015    2       15     6  16    7.4539   422.5    9.125      51.581
2015    2       15     6  22    7.4604   422.7    9.128      51.666
2015    2       15     6  27    7.4666   422.9    9.131      51.751
2015    2       15     6  32    7.4731   423.1    9.133      51.835
2015    2       15     6  37    7.4793   423.3    9.135      51.918
2015    2       15     6  42    7.4855   423.5    9.136      51.999
2015    2       15     6  47    7.4919   423.6    9.137      52.079
2015    2       15     6  53    7.4979   423.8    9.138      52.158
2015    2       15     6  58    7.5040   424.0    9.138      52.236
2015    2       15     7   3    7.5101   424.2    9.139      52.313
2015    2       15     7   8    7.5163   424.4    9.138      52.389
2015    2       15     7  13    7.5221   424.6    9.138      52.464
2015    2       15     7  18    7.5281   424.8    9.137      52.538
2015    2       15     7  24    7.5341   425.0    9.136      52.611
2015    2       15     7  29    7.5398   425.2    9.135      52.684
2015    2       15     7  34    7.5457   425.4    9.134      52.755
2015    2       15     7  39    7.5515   425.6    9.132      52.826
2015    2       15     7  44    7.5573   425.8    9.131      52.896
2015    2       15     7  50    7.5633   426.0    9.129      52.965
2015    2       15     7  55    7.5688   426.2    9.127      53.034
2015    2       15     8   0    7.5745   426.4    9.125      53.102
2015    2       15     8   5    7.5802   426.6    9.123      53.170
2015    2       15     8  10    7.5859   426.9    9.120      53.237
2015    2       15     8  15    7.5916   427.1    9.118      53.304
2015    2       15     8  21    7.5973   427.3    9.116      53.371
2015    2       15     8  26    7.6030   427.5    9.113      53.437
2015    2       15     8  31    7.6089   427.7    9.111      53.503
2015    2       15     8  36    7.6145   427.9    9.108      53.568
2015    2       15     8  41    7.6202   428.1    9.106      53.634
2015    2       15     8  46    7.6259   428.3    9.104      53.699
2015    2       15     8  52    7.6314   428.5    9.101      53.764
2015    2       15     8  57    7.6374   428.7    9.099      53.829
2015    2       15     9   2    7.6429   428.9    9.097      53.894
2015    2       15     9   7    7.6490   429.1    9.095      53.959
2015    2       15     9  12    7.6546   429.3    9.093      54.024
2015    2       15     9  17    7.6605   429.5    9.091      54.090
2015    2       15     9  23    7.6665   429.7    9.089      54.157
2015    2       15     9  28    7.6727   429.9    9.087      54.223
2015    2       15     9  33    7.6789   430.1    9.086      54.290
2015    2       15     9  38    7.6849   430.3    9.085      54.359
2015    2       15     9  43    7.6912   430.5    9.084      54.429
2015    2       15     9  49    7.6976   430.7    9.083      54.500
2015    2       15     9  54    7.7040   431.0    9.083      54.574
2015    2       15     9  59    7.7105   431.2    9.082      54.650
2015    2       15    10   4    7.7170   431.4    9.082      54.728
2015    2       15    10   9    7.7235   431.6    9.082      54.809
2015    2       15    10  14    7.7301   431.9    9.081      54.893
2015    2       15    10  20    7.7367   432.1    9.081      54.981
2015    2       15    10  25    7.7434   432.4    9.081      55.072
2015    2       15    10  30    7.7499   432.6    9.082      55.167
2015    2       15    10  35    7.7565   432.9    9.082      55.264
2015    2       15    10  40    7.7632   433.1    9.082      55.365
2015    2       15    10  45    7.7696   433.4    9.082      55.468
2015    2       15    10  51    7.7762   433.6    9.082      55.574
2015    2       15    10  56    7.7827   433.9    9.082      55.682
2015    2       15    11   1    7.7890   434.1    9.081      55.792
2015    2       15    11   6    7.7953   434.4    9.081      55.903
2015    2       15    11  11    7.8015   434.7    9.080      56.016
2015    2       15    11  17    7.8076   434.9    9.080      56.130
2015    2       15    11  22    7.8136   435.2    9.079      56.245
2015    2       15    11  27    7.8195   435.5    9.078      56.360
2015    2       15    11  32    7.8254   435.7    9.077      56.475
2015    2       15    11  37    7.8311   436.0    9.076      56.589
2015    2       15    11  42    7.8367   436.3    9.074      56.702
2015    2       15    11  48    7.8423   436.5    9.073      56.815
2015    2       15    11  53    7.8477   436.8    9.072      56.928
2015    2       15    11  58    7.8531   437.1    9.070      57.040
2015    2       15    12   3    7.8584   437.3    9.068      57.152
2015    2       15    12   8    7.8637   437.6    9.067      57.263
2015    2       15    12  13    7.8689   437.8    9.065      57.373
2015    2       15    12  19    7.8740   438.1    9.064      57.481
2015    2       15    12  24    7.8791   438.4    9.062      57.591
2015    2       15    12  29    7.8842   438.6    9.060      57.701
2015    2       15    12  34    7.8892   438.9    9.059      57.811
2015    2       15    12  39    7.8942   439.1    9.057      57.922
2015    2       15    12  44    7.8992   439.4    9.055      58.032
2015    2       15    12  50    7.9041   439.7    9.054      58.143
2015    2       15    12  55    7.9091   439.9    9.052      58.254
2015    2       15    13   0    7.9140   440.2    9.050      58.364
2015    2       15    13   5    7.9189   440.5    9.047      58.475
2015    2       15    13  10    7.9238   440.7    9.045      58.585
2015    2       15    13  16    7.9287   441.0    9.043      58.695
2015    2       15    13  21    7.9335   441.3    9.040      58.804
2015    2       15    13  26    7.9383   441.5    9.037      58.913
2015    2       15    13  31    7.9430   441.8    9.034      59.021
2015    2       15    13  36    7.9478   442.1    9.031      59.128
2015    2       15    13  41    7.9526   442.3    9.027      59.235
2015    2       15    13  47    7.9571   442.6    9.023      59.341
2015    2       15    13  52    7.9618   442.9    9.019      59.447
2015    2       15    13  57    7.9664   443.2    9.014      59.551
2015    2       15    14   2    7.9709   443.5    9.010      59.654
2015    2       15    14   7    7.9754   443.7    9.005      59.756
2015    2       15    14  12    7.9797   444.0    9.000      59.856
2015    2       15    14  18    7.9840   444.3    8.994      59.956
2015    2       15    14  23    7.9885   444.6    8.989      60.054
2015    2       15    14  28    7.9927   444.9    8.983      60.152
2015    2       15    14  33    7.9967   445.2    8.977      60.248
2015    2       15    14  38    8.0008   445.5    8.971      60.343
2015    2       15    14  44    8.0049   445.7    8.965      60.438
2015    2       15    14  49    8.0088   446.0    8.958      60.532
2015    2       15    14  54    8.0128   446.3    8.951      60.625
2015    2       15    14  59    8.0168   446.6    8.945      60.717
2015    2       15    15   4    8.0204   446.9    8.938      60.808
2015    2       15    15   9    8.0244   447.2    8.931      60.899
2015    2       15    15  15    8.0278   447.5    8.923      60.989
2015    2       15    15  20    8.0314   447.8    8.916      61.078
2015    2       15    15  25    8.0352   448.1    8.909      61.167
2015    2       15    15  30    8.0384   448.4    8.901      61.255
2015    2       15    15  35    8.0421   448.7    8.894      61.343
2015    2       15    15  40    8.0453   449.0    8.886      61.431
2015    2       15    15  46    8.0488   449.3    8.879      61.517
2015    2       15    15  51    8.0518   449.6    8.871      61.603
2015    2       15    15  56    8.0553   449.9    8.864      61.689
2015    2       15    16   1    8.0582   450.2    8.856      61.775
2015    2       15    16   6    8.0617   450.5    8.848      61.860
2015    2       15    16  11    8.0648   450.8    8.840      61.945
2015    2       15    16  17    8.0676   451.1    8.833      62.029
2015    2       15    16  22    8.0706   451.4    8.825      62.113
2015    2       15    16  27    8.0740   451.7    8.818      62.196
2015    2       15    16  32    8.0770   452.0    8.810      62.280
2015    2       15    16  37    8.0797   452.3    8.803      62.363
2015    2       15    16  43    8.0830   452.6    8.795      62.446
2015    2       15    16  48    8.0861   452.9    8.788      62.529
2015    2       15    16  53    8.0891   453.1    8.781      62.612
2015    2       15    16  58    8.0922   453.4    8.774      62.696
2015    2       15    17   3    8.0948   453.7    8.767      62.779
2015    2       15    17   8    8.0982   454.0    8.760      62.864
2015    2       15    17  14    8.1012   454.4    8.753      62.950
2015    2       15    17  19    8.1042   454.7    8.747      63.037
2015    2       15    17  24    8.1067   455.0    8.740      63.126
2015    2       15    17  29    8.1097   455.3    8.733      63.215
2015    2       15    17  34    8.1130   455.6    8.727      63.308
2015    2       15    17  39    8.1154   455.9    8.720      63.403
2015    2       15    17  45    8.1181   456.3    8.713      63.500
2015    2       15    17  50    8.1209   456.6    8.707      63.600
2015    2       15    17  55    8.1235   456.9    8.700      63.701
2015    2       15    18   0    8.1261   457.3    8.693      63.805
2015    2       15    18   5    8.1292   457.6    8.685      63.910
2015    2       15    18  11    8.1311   458.0    8.678      64.017
2015    2       15    18  16    8.1334   458.3    8.670      64.126
2015    2       15    18  21    8.1362   458.7    8.662      64.236
2015    2       15    18  26    8.1377   459.0    8.654      64.346
2015    2       15    18  31    8.1397   459.4    8.646      64.457
2015    2       15    18  36    8.1422   459.7    8.637      64.568
2015    2       15    18  42    8.1434   460.1    8.628      64.679
2015    2       15    18  47    8.1456   460.4    8.619      64.790
2015    2       15    18  52    8.1467   460.8    8.609      64.900
2015    2       15    18  57    8.1487   461.2    8.599      65.009
2015    2       15    19   2    8.1500   461.5    8.588      65.116
2015    2       15    19   7    8.1506   461.9    8.578      65.221
2015    2       15    19  13    8.1517   462.3    8.567      65.325
2015    2       15    19  18    8.1527   462.6    8.555      65.427
2015    2       15    19  23    8.1536   463.0    8.543      65.527
2015    2       15    19  28    8.1543   463.4    8.531      65.625
2015    2       15    19  33    8.1555   463.8    8.519      65.721
2015    2       15    19  39    8.1560   464.2    8.506      65.815
2015    2       15    19  44    8.1564   464.5    8.493      65.908
2015    2       15    19  49    8.1561   464.9    8.479      65.999
2015    2       15    19  54    8.1563   465.3    8.466      66.089
2015    2       15    19  59    8.1570   465.7    8.452      66.177
2015    2       15    20   4    8.1569   466.1    8.437      66.264
2015    2       15    20  10    8.1567   466.5    8.422      66.351
2015    2       15    20  15    8.1558   466.9    8.407      66.437
2015    2       15    20  20    8.1552   467.3    8.392      66.522
2015    2       15    20  25    8.1545   467.7    8.376      66.606
2015    2       15    20  30    8.1542   468.2    8.359      66.690
2015    2       15    20  35    8.1525   468.6    8.342      66.772
2015    2       15    20  41    8.1511   469.0    8.325      66.852
2015    2       15    20  46    8.1495   469.4    8.307      66.929
2015    2       15    20  51    8.1483   469.8    8.289      67.004
2015    2       15    20  56    8.1456   470.2    8.271      67.077
2015    2       15    21   1    8.1440   470.6    8.252      67.148
2015    2       15    21   6    8.1409   471.0    8.234      67.219
2015    2       15    21  12    8.1389   471.4    8.215      67.288
2015    2       15    21  17    8.1362   471.8    8.197      67.355
2015    2       15    21  22    8.1333   472.2    8.178      67.422
2015    2       15    21  27    8.1304   472.6    8.160      67.488
2015    2       15    21  32    8.1267   473.0    8.141      67.554
2015    2       15    21  38    8.1243   473.3    8.123      67.619
2015    2       15    21  43    8.1212   473.7    8.105      67.683
2015    2       15    21  48    8.1181   474.1    8.087      67.748
2015    2       15    21  53    8.1149   474.4    8.070      67.811
2015    2       15    21  58    8.1112   474.8    8.053      67.873
2015    2       15    22   3    8.1080   475.1    8.036      67.936
2015    2       15    22   9    8.1049   475.5    8.019      68.000
2015    2       15    22  14    8.1019   475.9    8.003      68.065
2015    2       15    22  19    8.0996   476.2    7.987      68.131
2015    2       15    22  24    8.0959   476.6    7.971      68.198
2015    2       15    22  29    8.0937   476.9    7.956      68.265
2015    2       15    22  34    8.0907   477.3    7.940      68.332
2015    2       15    22  40    8.0870   477.7    7.925      68.401
2015    2       15    22  45    8.0847   478.0    7.909      68.471
2015    2       15    22  50    8.0810   478.4    7.894      68.542
2015    2       15    22  55    8.0778   478.7    7.879      68.613
2015    2       15    23   0    8.0754   479.1    7.863      68.685
2015    2       15    23   6    8.0714   479.5    7.848      68.757
2015    2       15    23  11    8.0688   479.8    7.833      68.828
2015    2       15    23  16    8.0655   480.2    7.817      68.899
2015    2       15    23  21    8.0620   480.6    7.802      68.971
2015    2       15    23  26    8.0585   481.0    7.786      69.042
2015    2       15    23  31    8.0549   481.3    7.771      69.113
2015    2       15    23  37    8.0511   481.7    7.755      69.183
2015    2       15    23  42    8.0465   482.1    7.739      69.254
2015    2       15    23  47    8.0431   482.5    7.723      69.326
2015    2       15    23  52    8.0389   482.9    7.706      69.397
2015    2       15    23  57    8.0344   483.2    7.689      69.467
2015    2       16     0   2    8.0290   483.6    7.672      69.534
2015    2       16     0   8    8.0249   484.0    7.654      69.599
2015    2       16     0  13    8.0191   484.3    7.637      69.660
2015    2       16     0  18    8.0146   484.7    7.619      69.719
2015    2       16     0  23    8.0092   485.1    7.601      69.774
2015    2       16     0  28    8.0036   485.4    7.583      69.826
2015    2       16     0  34    7.9980   485.8    7.565      69.876
2015    2       16     0  39    7.9922   486.1    7.547      69.922
2015    2       16     0  44    7.9855   486.4    7.529      69.967
2015    2       16     0  49    7.9804   486.8    7.511      70.008
2015    2       16     0  54    7.9745   487.1    7.494      70.048
2015    2       16     0  59    7.9677   487.4    7.476      70.085
2015    2       16     1   5    7.9626   487.7    7.459      70.120
2015    2       16     1  10    7.9567   488.0    7.442      70.154
2015    2       16     1  15    7.9500   488.3    7.426      70.187
2015    2       16     1  20    7.9442   488.6    7.409      70.220
2015    2       16     1  25    7.9384   488.9    7.393      70.252
2015    2       16     1  30    7.9327   489.2    7.378      70.283
2015    2       16     1  36    7.9280   489.5    7.362      70.314
2015    2       16     1  41    7.9224   489.8    7.347      70.344
2015    2       16     1  46    7.9159   490.1    7.332      70.373
2015    2       16     1  51    7.9113   490.4    7.317      70.402
2015    2       16     1  56    7.9050   490.7    7.302      70.431
2015    2       16     2   2    7.9004   491.0    7.287      70.461
2015    2       16     2   7    7.8941   491.3    7.273      70.492
2015    2       16     2  12    7.8887   491.6    7.258      70.523
2015    2       16     2  17    7.8832   491.9    7.244      70.553
2015    2       16     2  22    7.8777   492.2    7.230      70.584
2015    2       16     2  27    7.8723   492.5    7.216      70.613
2015    2       16     2  33    7.8677   492.8    7.202      70.642
2015    2       16     2  38    7.8621   493.1    7.188      70.671
2015    2       16     2  43    7.8557   493.4    7.174      70.698
2015    2       16     2  48    7.8501   493.7    7.160      70.724
2015    2       16     2  53    7.8444   494.0    7.146      70.749
2015    2       16     2  58    7.8396   494.3    7.132      70.773
2015    2       16     3   4    7.8337   494.6    7.117      70.796
2015    2       16     3   9    7.8269   494.9    7.103      70.819
2015    2       16     3  14    7.8208   495.3    7.089      70.840
2015    2       16     3  19    7.8156   495.6    7.074      70.861
2015    2       16     3  24    7.8083   495.9    7.060      70.879
2015    2       16     3  29    7.8019   496.2    7.045      70.896
2015    2       16     3  35    7.7963   496.6    7.030      70.911
2015    2       16     3  40    7.7888   496.9    7.015      70.924
2015    2       16     3  45    7.7819   497.2    7.000      70.935
2015    2       16     3  50    7.7759   497.5    6.984      70.944
2015    2       16     3  55    7.7680   497.9    6.969      70.953
2015    2       16     4   1    7.7617   498.2    6.953      70.961
2015    2       16     4   6    7.7534   498.5    6.938      70.969
2015    2       16     4  11    7.7469   498.8    6.922      70.976
2015    2       16     4  16    7.7384   499.2    6.906      70.984
2015    2       16     4  21    7.7306   499.5    6.890      70.994
2015    2       16     4  26    7.7227   499.9    6.873      71.005
2015    2       16     4  32    7.7146   500.2    6.856      71.014
2015    2       16     4  37    7.7071   500.6    6.839      71.020
2015    2       16     4  42    7.6985   500.9    6.822      71.025
2015    2       16     4  47    7.6890   501.2    6.804      71.028
2015    2       16     4  52    7.6809   501.6    6.787      71.029
2015    2       16     4  57    7.6710   501.9    6.770      71.029
2015    2       16     5   3    7.6619   502.3    6.752      71.025
2015    2       16     5   8    7.6526   502.6    6.735      71.020
2015    2       16     5  13    7.6440   502.9    6.718      71.014
2015    2       16     5  18    7.6346   503.2    6.701      71.007
2015    2       16     5  23    7.6245   503.5    6.684      70.999
2015    2       16     5  29    7.6157   503.8    6.667      70.989
2015    2       16     5  34    7.6062   504.1    6.651      70.977
2015    2       16     5  39    7.5967   504.4    6.635      70.963
2015    2       16     5  44    7.5872   504.7    6.619      70.948
2015    2       16     5  49    7.5771   504.9    6.603      70.930
2015    2       16     5  54    7.5684   505.2    6.588      70.913
2015    2       16     6   0    7.5591   505.4    6.573      70.898
2015    2       16     6   5    7.5493   505.7    6.558      70.884
2015    2       16     6  10    7.5402   505.9    6.544      70.871
2015    2       16     6  15    7.5312   506.2    6.530      70.859
2015    2       16     6  20    7.5222   506.4    6.516      70.848
2015    2       16     6  25    7.5133   506.7    6.503      70.837
2015    2       16     6  31    7.5051   506.9    6.489      70.827
2015    2       16     6  36    7.4957   507.2    6.476      70.817
2015    2       16     6  41    7.4875   507.4    6.463      70.807
2015    2       16     6  46    7.4788   507.7    6.450      70.800
2015    2       16     6  51    7.4701   507.9    6.437      70.793
2015    2       16     6  57    7.4614   508.2    6.424      70.789
2015    2       16     7   2    7.4526   508.4    6.411      70.784
2015    2       16     7   7    7.4439   508.7    6.398      70.780
2015    2       16     7  12    7.4345   508.9    6.385      70.776
2015    2       16     7  17    7.4262   509.2    6.372      70.773
2015    2       16     7  22    7.4167   509.5    6.359      70.769
2015    2       16     7  28    7.4082   509.7    6.346      70.765
2015    2       16     7  33    7.3990   510.0    6.332      70.760
2015    2       16     7  38    7.3898   510.2    6.319      70.754
2015    2       16     7  43    7.3800   510.5    6.305      70.747
2015    2       16     7  48    7.3711   510.7    6.291      70.737
2015    2       16     7  53    7.3616   511.0    6.277      70.725
2015    2       16     7  59    7.3521   511.2    6.264      70.711
2015    2       16     8   4    7.3426   511.4    6.250      70.695
2015    2       16     8   9    7.3331   511.6    6.237      70.677
2015    2       16     8  14    7.3236   511.9    6.223      70.658
2015    2       16     8  19    7.3141   512.1    6.210      70.637
2015    2       16     8  25    7.3043   512.3    6.197      70.614
2015    2       16     8  30    7.2949   512.5    6.184      70.590
2015    2       16     8  35    7.2855   512.6    6.172      70.566
2015    2       16     8  40    7.2763   512.8    6.160      70.540
2015    2       16     8  45    7.2675   513.0    6.147      70.515
2015    2       16     8  50    7.2581   513.2    6.136      70.489
2015    2       16     8  56    7.2494   513.3    6.124      70.464
2015    2       16     9   1    7.2405   513.5    6.113      70.439
2015    2       16     9   6    7.2316   513.7    6.102      70.414
2015    2       16     9  11    7.2229   513.8    6.091      70.391
2015    2       16     9  16    7.2142   514.0    6.080      70.368
2015    2       16     9  21    7.2055   514.2    6.069      70.345
2015    2       16     9  27    7.1969   514.3    6.059      70.323
2015    2       16     9  32    7.1884   514.5    6.048      70.301
2015    2       16     9  37    7.1796   514.7    6.038      70.279
2015    2       16     9  42    7.1711   514.8    6.028      70.257
2015    2       16     9  47    7.1626   515.0    6.017      70.234
2015    2       16     9  53    7.1542   515.2    6.007      70.211
2015    2       16     9  58    7.1456   515.3    5.997      70.188
2015    2       16    10   3    7.1370   515.5    5.987      70.165
2015    2       16    10   8    7.1284   515.7    5.976      70.140
2015    2       16    10  13    7.1197   515.8    5.966      70.113
2015    2       16    10  18    7.1110   516.0    5.956      70.085
2015    2       16    10  24    7.1023   516.2    5.946      70.056
2015    2       16    10  29    7.0934   516.3    5.935      70.024
2015    2       16    10  34    7.0847   516.5    5.925      69.991
2015    2       16    10  39    7.0759   516.6    5.915      69.957
2015    2       16    10  44    7.0672   516.8    5.905      69.920
2015    2       16    10  49    7.0584   516.9    5.895      69.882
2015    2       16    10  55    7.0497   517.0    5.885      69.843
2015    2       16    11   0    7.0410   517.1    5.876      69.802
2015    2       16    11   5    7.0324   517.2    5.866      69.761
2015    2       16    11  10    7.0238   517.3    5.857      69.720
2015    2       16    11  15    7.0153   517.4    5.847      69.679
2015    2       16    11  20    7.0069   517.6    5.838      69.639
2015    2       16    11  26    6.9985   517.7    5.829      69.599
2015    2       16    11  31    6.9902   517.8    5.820      69.561
2015    2       16    11  36    6.9820   517.9    5.812      69.524
2015    2       16    11  41    6.9738   518.0    5.803      69.489
2015    2       16    11  46    6.9656   518.1    5.795      69.454
2015    2       16    11  52    6.9575   518.2    5.787      69.420
2015    2       16    11  57    6.9495   518.3    5.779      69.386
2015    2       16    12   2    6.9415   518.5    5.771      69.354
2015    2       16    12   7    6.9336   518.6    5.763      69.321
2015    2       16    12  12    6.9257   518.7    5.755      69.289
2015    2       16    12  17    6.9176   518.8    5.747      69.257
2015    2       16    12  23    6.9097   519.0    5.739      69.225
2015    2       16    12  28    6.9017   519.1    5.731      69.193
2015    2       16    12  33    6.8939   519.2    5.724      69.160
2015    2       16    12  38    6.8858   519.4    5.716      69.127
2015    2       16    12  43    6.8780   519.5    5.708      69.092
2015    2       16    12  48    6.8698   519.7    5.701      69.056
2015    2       16    12  54    6.8618   519.8    5.693      69.020
2015    2       16    12  59    6.8537   519.9    5.685      68.983
2015    2       16    13   4    6.8459   520.0    5.677      68.945
2015    2       16    13   9    6.8376   520.2    5.669      68.906
2015    2       16    13  14    6.8296   520.3    5.662      68.867
2015    2       16    13  20    6.8217   520.4    5.654      68.828
2015    2       16    13  25    6.8134   520.5    5.646      68.787
2015    2       16    13  30    6.8053   520.7    5.639      68.747
2015    2       16    13  35    6.7973   520.8    5.631      68.707
2015    2       16    13  40    6.7893   520.9    5.623      68.666
2015    2       16    13  45    6.7815   521.0    5.616      68.625
2015    2       16    13  51    6.7732   521.1    5.608      68.584
2015    2       16    13  56    6.7652   521.3    5.601      68.543
2015    2       16    14   1    6.7573   521.4    5.593      68.501
2015    2       16    14   6    6.7496   521.5    5.586      68.460
2015    2       16    14  11    6.7414   521.6    5.578      68.419
2015    2       16    14  16    6.7338   521.7    5.571      68.378
2015    2       16    14  22    6.7259   521.8    5.564      68.337
2015    2       16    14  27    6.7181   521.9    5.557      68.297
2015    2       16    14  32    6.7099   522.0    5.550      68.256
2015    2       16    14  37    6.7021   522.1    5.542      68.216
2015    2       16    14  42    6.6945   522.3    5.535      68.176
2015    2       16    14  48    6.6867   522.4    5.528      68.137
2015    2       16    14  53    6.6786   522.5    5.521      68.097
2015    2       16    14  58    6.6712   522.6    5.515      68.058
2015    2       16    15   3    6.6631   522.7    5.508      68.019
2015    2       16    15   8    6.6556   522.8    5.501      67.980
2015    2       16    15  13    6.6479   522.9    5.494      67.942
2015    2       16    15  19    6.6399   523.0    5.487      67.903
2015    2       16    15  24    6.6321   523.1    5.481      67.865
2015    2       16    15  29    6.6245   523.2    5.474      67.827
2015    2       16    15  34    6.6171   523.3    5.467      67.789
2015    2       16    15  39    6.6091   523.4    5.461      67.751
2015    2       16    15  44    6.6018   523.5    5.454      67.714
2015    2       16    15  50    6.5942   523.6    5.448      67.676
2015    2       16    15  55    6.5866   523.6    5.441      67.639
2015    2       16    16   0    6.5787   523.7    5.435      67.602
2015    2       16    16   5    6.5715   523.8    5.428      67.565
2015    2       16    16  10    6.5637   523.9    5.422      67.528
2015    2       16    16  16    6.5562   524.0    5.415      67.492
2015    2       16    16  21    6.5487   524.1    5.409      67.456
2015    2       16    16  26    6.5416   524.1    5.402      67.419
2015    2       16    16  31    6.5339   524.2    5.396      67.383
2015    2       16    16  36    6.5265   524.3    5.390      67.347
2015    2       16    16  41    6.5191   524.4    5.384      67.311
2015    2       16    16  47    6.5118   524.4    5.377      67.276
2015    2       16    16  52    6.5045   524.5    5.371      67.240
2015    2       16    16  57    6.4975   524.6    5.365      67.204
2015    2       16    17   2    6.4902   524.6    5.359      67.169
2015    2       16    17   7    6.4827   524.7    5.353      67.133
2015    2       16    17  12    6.4755   524.8    5.346      67.097
2015    2       16    17  18    6.4684   524.8    5.340      67.062
2015    2       16    17  23    6.4612   524.9    5.334      67.026
2015    2       16    17  28    6.4544   524.9    5.328      66.991
2015    2       16    17  33    6.4474   525.0    5.322      66.955
2015    2       16    17  38    6.4400   525.0    5.317      66.919
2015    2       16    17  44    6.4330   525.1    5.311      66.883
2015    2       16    17  49    6.4263   525.2    5.305      66.847
2015    2       16    17  54    6.4191   525.2    5.299      66.811
2015    2       16    17  59    6.4125   525.3    5.293      66.775
2015    2       16    18   4    6.4053   525.3    5.287      66.738
2015    2       16    18   9    6.3987   525.3    5.282      66.701
2015    2       16    18  15    6.3916   525.4    5.276      66.664
2015    2       16    18  20    6.3851   525.4    5.270      66.627
2015    2       16    18  25    6.3784   525.5    5.265      66.590
2015    2       16    18  30    6.3717   525.5    5.259      66.552
2015    2       16    18  35    6.3650   525.6    5.253      66.514
2015    2       16    18  40    6.3580   525.6    5.248      66.475
2015    2       16    18  46    6.3517   525.6    5.242      66.437
2015    2       16    18  51    6.3447   525.7    5.237      66.398
2015    2       16    18  56    6.3382   525.7    5.231      66.358
2015    2       16    19   1    6.3319   525.7    5.226      66.318
2015    2       16    19   6    6.3251   525.8    5.220      66.278
2015    2       16    19  11    6.3189   525.8    5.215      66.238
2015    2       16    19  17    6.3124   525.8    5.209      66.197
2015    2       16    19  22    6.3056   525.9    5.204      66.156
2015    2       16    19  27    6.2992   525.9    5.199      66.115
2015    2       16    19  32    6.2931   525.9    5.193      66.073
2015    2       16    19  37    6.2867   525.9    5.188      66.031
2015    2       16    19  43    6.2803   526.0    5.183      65.989
2015    2       16    19  48    6.2739   526.0    5.177      65.947
2015    2       16    19  53    6.2673   526.0    5.172      65.904
2015    2       16    19  58    6.2613   526.1    5.167      65.862
2015    2       16    20   3    6.2547   526.1    5.162      65.819
2015    2       16    20   8    6.2487   526.1    5.157      65.776
2015    2       16    20  14    6.2424   526.1    5.152      65.733
2015    2       16    20  19    6.2362   526.1    5.147      65.690
2015    2       16    20  24    6.2300   526.2    5.142      65.647
2015    2       16    20  29    6.2238   526.2    5.137      65.603
2015    2       16    20  34    6.2176   526.2    5.132      65.560
2015    2       16    20  39    6.2112   526.2    5.127      65.517
2015    2       16    20  45    6.2050   526.2    5.122      65.474
2015    2       16    20  50    6.1992   526.3    5.117      65.430
2015    2       16    20  55    6.1928   526.3    5.112      65.387
2015    2       16    21   0    6.1870   526.3    5.108      65.344
2015    2       16    21   5    6.1809   526.3    5.103      65.302
2015    2       16    21  11    6.1749   526.3    5.098      65.259
2015    2       16    21  16    6.1688   526.3    5.094      65.216
2015    2       16    21  21    6.1625   526.4    5.089      65.173
2015    2       16    21  26    6.1565   526.4    5.085      65.131
2015    2       16    21  31    6.1505   526.4    5.081      65.089
2015    2       16    21  36    6.1446   526.4    5.076      65.047
2015    2       16    21  42    6.1389   526.4    5.072      65.005
2015    2       16    21  47    6.1327   526.4    5.068      64.964
2015    2       16    21  52    6.1268   526.4    5.064      64.922
2015    2       16    21  57    6.1209   526.4    5.060      64.881
2015    2       16    22   2    6.1150   526.5    5.056      64.841
2015    2       16    22   7    6.1094   526.5    5.052      64.800
2015    2       16    22  13    6.1036   526.5    5.048      64.760
2015    2       16    22  18    6.0975   526.5    5.044      64.720
2015    2       16    22  23    6.0920   526.5    5.040      64.681
2015    2       16    22  28    6.0859   526.5    5.037      64.642
2015    2       16    22  33    6.0801   526.5    5.033      64.603
2015    2       16    22  39    6.0746   526.5    5.030      64.564
2015    2       16    22  44    6.0689   526.5    5.026      64.526
2015    2       16    22  49    6.0629   526.5    5.023      64.488
2015    2       16    22  54    6.0574   526.5    5.019      64.450
2015    2       16    22  59    6.0517   526.5    5.016      64.413
2015    2       16    23   4    6.0460   526.5    5.013      64.376
2015    2       16    23  10    6.0401   526.5    5.009      64.339
2015    2       16    23  15    6.0344   526.5    5.006      64.302
2015    2       16    23  20    6.0287   526.5    5.003      64.266
2015    2       16    23  25    6.0231   526.5    5.000      64.229
2015    2       16    23  30    6.0174   526.5    4.997      64.193
2015    2       16    23  35    6.0121   526.5    4.993      64.157
2015    2       16    23  41    6.0065   526.5    4.990      64.121
2015    2       16    23  46    6.0006   526.5    4.987      64.086
2015    2       16    23  51    5.9950   526.5    4.984      64.050
2015    2       16    23  56    5.9897   526.5    4.981      64.015
2015    2       17     0   1    5.9841   526.5    4.978      63.979
2015    2       17     0   7    5.9785   526.5    4.975      63.944
2015    2       17     0  12    5.9727   526.5    4.972      63.908
2015    2       17     0  17    5.9672   526.5    4.969      63.873
2015    2       17     0  22    5.9619   526.5    4.966      63.838
2015    2       17     0  27    5.9564   526.5    4.963      63.802
2015    2       17     0  32    5.9509   526.4    4.960      63.767
2015    2       17     0  38    5.9455   526.4    4.957      63.731
2015    2       17     0  43    5.9398   526.4    4.953      63.696
2015    2       17     0  48    5.9344   526.4    4.950      63.660
2015    2       17     0  53    5.9292   526.4    4.947      63.624
2015    2       17     0  58    5.9235   526.3    4.944      63.588
2015    2       17     1   3    5.9184   526.3    4.941      63.552
2015    2       17     1   9    5.9128   526.3    4.938      63.516
2015    2       17     1  14    5.9078   526.3    4.935      63.479
2015    2       17     1  19    5.9025   526.2    4.932      63.443
2015    2       17     1  24    5.8972   526.2    4.929      63.406
2015    2       17     1  29    5.8920   526.2    4.925      63.369
2015    2       17     1  35    5.8868   526.1    4.922      63.332
2015    2       17     1  40    5.8816   526.1    4.919      63.295
2015    2       17     1  45    5.8762   526.1    4.916      63.258
2015    2       17     1  50    5.8713   526.0    4.913      63.220
2015    2       17     1  55    5.8660   526.0    4.910      63.182
2015    2       17     2   0    5.8609   526.0    4.907      63.144
2015    2       17     2   6    5.8559   525.9    4.904      63.106
2015    2       17     2  11    5.8509   525.9    4.901      63.068
2015    2       17     2  16    5.8462   525.9    4.898      63.029
2015    2       17     2  21    5.8412   525.8    4.894      62.990
2015    2       17     2  26    5.8361   525.8    4.891      62.951
2015    2       17     2  31    5.8315   525.8    4.888      62.912
2015    2       17     2  37    5.8264   525.7    4.885      62.873
2015    2       17     2  42    5.8216   525.7    4.883      62.833
2015    2       17     2  47    5.8168   525.6    4.880      62.793
2015    2       17     2  52    5.8123   525.6    4.877      62.752
2015    2       17     2  57    5.8073   525.5    4.874      62.712
2015    2       17     3   3    5.8029   525.5    4.871      62.671
2015    2       17     3   8    5.7982   525.5    4.868      62.630
2015    2       17     3  13    5.7936   525.4    4.865      62.589
2015    2       17     3  18    5.7890   525.4    4.862      62.547
2015    2       17     3  23    5.7844   525.3    4.860      62.505
2015    2       17     3  28    5.7796   525.3    4.857      62.463
2015    2       17     3  34    5.7751   525.2    4.854      62.421
2015    2       17     3  39    5.7706   525.2    4.851      62.379
2015    2       17     3  44    5.7663   525.2    4.849      62.336
2015    2       17     3  49    5.7619   525.1    4.846      62.293
2015    2       17     3  54    5.7572   525.1    4.843      62.250
2015    2       17     3  59    5.7527   525.0    4.840      62.206
2015    2       17     4   5    5.7483   525.0    4.838      62.163
2015    2       17     4  10    5.7442   524.9    4.835      62.120
2015    2       17     4  15    5.7398   524.9    4.832      62.076
2015    2       17     4  20    5.7352   524.8    4.830      62.032
2015    2       17     4  25    5.7309   524.8    4.827      61.988
2015    2       17     4  31    5.7265   524.7    4.825      61.944
2015    2       17     4  36    5.7225   524.7    4.822      61.900
2015    2       17     4  41    5.7181   524.6    4.819      61.856
2015    2       17     4  46    5.7136   524.6    4.817      61.812
2015    2       17     4  51    5.7096   524.5    4.814      61.768
2015    2       17     4  56    5.7051   524.5    4.812      61.724
2015    2       17     5   2    5.7011   524.4    4.809      61.680
2015    2       17     5   7    5.6968   524.4    4.807      61.636
2015    2       17     5  12    5.6926   524.3    4.804      61.592
2015    2       17     5  17    5.6884   524.3    4.802      61.548
2015    2       17     5  22    5.6842   524.2    4.799      61.505
2015    2       17     5  27    5.6800   524.2    4.797      61.462
2015    2       17     5  33    5.6756   524.1    4.795      61.418
2015    2       17     5  38    5.6717   524.1    4.792      61.375
2015    2       17     5  43    5.6675   524.0    4.790      61.332
2015    2       17     5  48    5.6634   523.9    4.788      61.290
2015    2       17     5  53    5.6593   523.9    4.785      61.247
2015    2       17     5  59    5.6551   523.8    4.783      61.205
2015    2       17     6   4    5.6510   523.8    4.781      61.163
2015    2       17     6   9    5.6470   523.7    4.779      61.122
2015    2       17     6  14    5.6427   523.6    4.776      61.080
2015    2       17     6  19    5.6386   523.6    4.774      61.039
2015    2       17     6  24    5.6346   523.5    4.772      60.998
2015    2       17     6  30    5.6307   523.5    4.770      60.957
2015    2       17     6  35    5.6265   523.4    4.768      60.917
2015    2       17     6  40    5.6227   523.3    4.766      60.876
2015    2       17     6  45    5.6187   523.3    4.764      60.836
2015    2       17     6  50    5.6147   523.2    4.762      60.796
2015    2       17     6  55    5.6107   523.1    4.759      60.756
2015    2       17     7   1    5.6065   523.1    4.757      60.717
2015    2       17     7   6    5.6025   523.0    4.755      60.677
2015    2       17     7  11    5.5986   523.0    4.753      60.638
2015    2       17     7  16    5.5948   522.9    4.751      60.598
2015    2       17     7  21    5.5907   522.8    4.749      60.559
2015    2       17     7  26    5.5870   522.8    4.747      60.520
2015    2       17     7  32    5.5831   522.7    4.745      60.481
2015    2       17     7  37    5.5792   522.6    4.743      60.442
2015    2       17     7  42    5.5753   522.5    4.741      60.403
2015    2       17     7  47    5.5712   522.5    4.739      60.364
2015    2       17     7  52    5.5674   522.4    4.737      60.325
2015    2       17     7  58    5.5636   522.3    4.735      60.286
2015    2       17     8   3    5.5599   522.3    4.733      60.248
2015    2       17     8   8    5.5559   522.2    4.731      60.209
2015    2       17     8  13    5.5523   522.1    4.729      60.170
2015    2       17     8  18    5.5486   522.0    4.728      60.132
2015    2       17     8  23    5.5448   522.0    4.726      60.093
2015    2       17     8  29    5.5411   521.9    4.724      60.054
2015    2       17     8  34    5.5374   521.8    4.722      60.016
2015    2       17     8  39    5.5335   521.7    4.720      59.977
2015    2       17     8  44    5.5301   521.6    4.718      59.939
2015    2       17     8  49    5.5264   521.6    4.716      59.901
2015    2       17     8  54    5.5228   521.5    4.715      59.862
2015    2       17     9   0    5.5192   521.4    4.713      59.824
2015    2       17     9   5    5.5156   521.3    4.711      59.786
2015    2       17     9  10    5.5119   521.2    4.709      59.748
2015    2       17     9  15    5.5086   521.1    4.708      59.711
2015    2       17     9  20    5.5049   521.1    4.706      59.673
2015    2       17     9  26    5.5015   521.0    4.704      59.635
2015    2       17     9  31    5.4982   520.9    4.703      59.598
2015    2       17     9  36    5.4946   520.8    4.701      59.560
2015    2       17     9  41    5.4914   520.7    4.700      59.523
2015    2       17     9  46    5.4879   520.6    4.698      59.486
2015    2       17     9  51    5.4847   520.6    4.697      59.448
2015    2       17     9  57    5.4814   520.5    4.696      59.411
2015    2       17    10   2    5.4781   520.4    4.694      59.374
2015    2       17    10   7    5.4746   520.3    4.693      59.337
2015    2       17    10  12    5.4714   520.2    4.692      59.301
2015    2       17    10  17    5.4682   520.1    4.691      59.264
2015    2       17    10  22    5.4652   520.0    4.689      59.227
2015    2       17    10  28    5.4620   519.9    4.688      59.191
2015    2       17    10  33    5.4587   519.9    4.687      59.154
2015    2       17    10  38    5.4557   519.8    4.686      59.117
2015    2       17    10  43    5.4524   519.7    4.685      59.080
2015    2       17    10  48    5.4495   519.6    4.684      59.043
2015    2       17    10  54    5.4464   519.5    4.683      59.006
2015    2       17    10  59    5.4433   519.4    4.682      58.969
2015    2       17    11   4    5.4402   519.3    4.681      58.932
2015    2       17    11   9    5.4372   519.2    4.680      58.895
2015    2       17    11  14    5.4341   519.2    4.679      58.858
2015    2       17    11  19    5.4310   519.1    4.678      58.820
2015    2       17    11  25    5.4281   519.0    4.677      58.782
2015    2       17    11  30    5.4249   518.9    4.676      58.745
2015    2       17    11  35    5.4219   518.8    4.675      58.707
2015    2       17    11  40    5.4189   518.7    4.675      58.669
2015    2       17    11  45    5.4161   518.6    4.674      58.630
2015    2       17    11  50    5.4131   518.5    4.673      58.592
2015    2       17    11  56    5.4100   518.4    4.672      58.554
2015    2       17    12   1    5.4072   518.4    4.671      58.515
2015    2       17    12   6    5.4041   518.3    4.670      58.476
2015    2       17    12  11    5.4011   518.2    4.669      58.437
2015    2       17    12  16    5.3983   518.1    4.668      58.398
2015    2       17    12  22    5.3954   518.0    4.667      58.358
2015    2       17    12  27    5.3925   517.9    4.666      58.319
2015    2       17    12  32    5.3895   517.8    4.665      58.279
2015    2       17    12  37    5.3866   517.7    4.664      58.240
2015    2       17    12  42    5.3837   517.6    4.663      58.200
2015    2       17    12  47    5.3808   517.5    4.662      58.160
2015    2       17    12  53    5.3777   517.4    4.661      58.120
2015    2       17    12  58    5.3749   517.3    4.661      58.080
2015    2       17    13   3    5.3720   517.2    4.660      58.040
2015    2       17    13   8    5.3692   517.1    4.659      58.000
2015    2       17    13  13    5.3661   517.0    4.658      57.959
2015    2       17    13  18    5.3632   516.9    4.657      57.919
2015    2       17    13  24    5.3604   516.8    4.656      57.879
2015    2       17    13  29    5.3575   516.7    4.655      57.839
2015    2       17    13  34    5.3546   516.6    4.654      57.798
2015    2       17    13  39    5.3518   516.5    4.653      57.758
2015    2       17    13  44    5.3491   516.4    4.652      57.718
2015    2       17    13  50    5.3460   516.3    4.651      57.678
2015    2       17    13  55    5.3432   516.2    4.650      57.637
2015    2       17    14   0    5.3404   516.1    4.649      57.597
2015    2       17    14   5    5.3376   516.0    4.648      57.557
2015    2       17    14  10    5.3347   515.9    4.647      57.517
2015    2       17    14  15    5.3321   515.8    4.646      57.477
2015    2       17    14  21    5.3291   515.7    4.645      57.437
2015    2       17    14  26    5.3265   515.6    4.644      57.397
2015    2       17    14  31    5.3236   515.5    4.643      57.357
2015    2       17    14  36    5.3209   515.4    4.642      57.318
2015    2       17    14  41    5.3180   515.3    4.641      57.278
2015    2       17    14  46    5.3154   515.1    4.640      57.239
2015    2       17    14  52    5.3126   515.0    4.639      57.199
2015    2       17    14  57    5.3100   514.9    4.639      57.160
2015    2       17    15   2    5.3072   514.8    4.638      57.121
2015    2       17    15   7    5.3046   514.7    4.637      57.083
2015    2       17    15  12    5.3019   514.6    4.636      57.044
2015    2       17    15  18    5.2992   514.5    4.635      57.005
2015    2       17    15  23    5.2966   514.4    4.635      56.967
2015    2       17    15  28    5.2939   514.3    4.634      56.929
2015    2       17    15  33    5.2912   514.1    4.633      56.892
2015    2       17    15  38    5.2887   514.0    4.633      56.854
2015    2       17    15  43    5.2860   513.9    4.632      56.817
2015    2       17    15  49    5.2836   513.8    4.631      56.780
2015    2       17    15  54    5.2809   513.7    4.631      56.743
2015    2       17    15  59    5.2784   513.6    4.630      56.706
2015    2       17    16   4    5.2759   513.5    4.630      56.670
2015    2       17    16   9    5.2733   513.4    4.629      56.633
2015    2       17    16  14    5.2709   513.2    4.629      56.597
2015    2       17    16  20    5.2685   513.1    4.629      56.562
2015    2       17    16  25    5.2659   513.0    4.628      56.526
2015    2       17    16  30    5.2636   512.9    4.628      56.491
2015    2       17    16  35    5.2610   512.8    4.628      56.456
2015    2       17    16  40    5.2587   512.7    4.628      56.421
2015    2       17    16  46    5.2563   512.6    4.627      56.387
2015    2       17    16  51    5.2539   512.4    4.627      56.352
2015    2       17    16  56    5.2514   512.3    4.627      56.318
2015    2       17    17   1    5.2491   512.2    4.627      56.283
2015    2       17    17   6    5.2467   512.1    4.627      56.249
2015    2       17    17  11    5.2444   512.0    4.627      56.215
2015    2       17    17  17    5.2421   511.9    4.627      56.181
2015    2       17    17  22    5.2397   511.7    4.627      56.148
2015    2       17    17  27    5.2375   511.6    4.627      56.114
2015    2       17    17  32    5.2351   511.5    4.628      56.080
2015    2       17    17  37    5.2329   511.4    4.628      56.047
2015    2       17    17  42    5.2306   511.3    4.628      56.014
2015    2       17    17  48    5.2283   511.2    4.628      55.980
2015    2       17    17  53    5.2261   511.0    4.628      55.947
2015    2       17    17  58    5.2239   510.9    4.629      55.914
2015    2       17    18   3    5.2216   510.8    4.629      55.881
2015    2       17    18   8    5.2194   510.7    4.630      55.849
2015    2       17    18  14    5.2172   510.6    4.630      55.816
2015    2       17    18  19    5.2150   510.5    4.630      55.783
2015    2       17    18  24    5.2129   510.3    4.631      55.751
2015    2       17    18  29    5.2107   510.2    4.631      55.719
2015    2       17    18  34    5.2085   510.1    4.632      55.687
2015    2       17    18  39    5.2065   510.0    4.633      55.656
2015    2       17    18  45    5.2043   509.9    4.633      55.624
2015    2       17    18  50    5.2023   509.8    4.634      55.592
2015    2       17    18  55    5.2002   509.6    4.635      55.561
2015    2       17    19   0    5.1981   509.5    4.635      55.529
2015    2       17    19   5    5.1960   509.4    4.636      55.498
2015    2       17    19  10    5.1940   509.3    4.637      55.468
2015    2       17    19  16    5.1919   509.2    4.638      55.437
2015    2       17    19  21    5.1898   509.1    4.638      55.407
2015    2       17    19  26    5.1879   508.9    4.639      55.377
2015    2       17    19  31    5.1858   508.8    4.640      55.347
2015    2       17    19  36    5.1837   508.7    4.641      55.318
2015    2       17    19  42    5.1817   508.6    4.641      55.289
2015    2       17    19  47    5.1797   508.5    4.642      55.260
2015    2       17    19  52    5.1777   508.4    4.642      55.231
2015    2       17    19  57    5.1756   508.2    4.643      55.202
2015    2       17    20   2    5.1735   508.1    4.644      55.174
2015    2       17    20   7    5.1716   508.0    4.644      55.145
2015    2       17    20  13    5.1695   507.9    4.644      55.116
2015    2       17    20  18    5.1674   507.8    4.645      55.088
2015    2       17    20  23    5.1654   507.6    4.645      55.059
2015    2       17    20  28    5.1633   507.5    4.645      55.030
2015    2       17    20  33    5.1614   507.4    4.646      55.001
2015    2       17    20  38    5.1593   507.3    4.646      54.972
2015    2       17    20  44    5.1574   507.2    4.646      54.942
2015    2       17    20  49    5.1554   507.1    4.646      54.913
2015    2       17    20  54    5.1533   506.9    4.646      54.883
2015    2       17    20  59    5.1513   506.8    4.646      54.852
2015    2       17    21   4    5.1493   506.7    4.646      54.822
2015    2       17    21  10    5.1473   506.6    4.646      54.791
2015    2       17    21  15    5.1453   506.5    4.646      54.760
2015    2       17    21  20    5.1433   506.3    4.646      54.729
2015    2       17    21  25    5.1415   506.2    4.646      54.698
2015    2       17    21  30    5.1395   506.1    4.646      54.666
2015    2       17    21  35    5.1375   506.0    4.646      54.635
2015    2       17    21  41    5.1356   505.9    4.646      54.603
2015    2       17    21  46    5.1336   505.7    4.646      54.571
2015    2       17    21  51    5.1318   505.6    4.646      54.539
2015    2       17    21  56    5.1298   505.5    4.646      54.506
2015    2       17    22   1    5.1279   505.4    4.645      54.474
2015    2       17    22   6    5.1261   505.2    4.645      54.441
2015    2       17    22  12    5.1242   505.1    4.645      54.408
2015    2       17    22  17    5.1223   505.0    4.645      54.375
2015    2       17    22  22    5.1205   504.9    4.645      54.341
2015    2       17    22  27    5.1185   504.8    4.644      54.308
2015    2       17    22  32    5.1167   504.6    4.644      54.274
2015    2       17    22  38    5.1149   504.5    4.644      54.240
2015    2       17    22  43    5.1130   504.4    4.643      54.205
2015    2       17    22  48    5.1112   504.3    4.643      54.170
2015    2       17    22  53    5.1092   504.1    4.643      54.136
2015    2       17    22  58    5.1075   504.0    4.642      54.100
2015    2       17    23   3    5.1055   503.9    4.642      54.065
2015    2       17    23   9    5.1038   503.8    4.642      54.029
2015    2       17    23  14    5.1019   503.6    4.641      53.993
2015    2       17    23  19    5.1000   503.5    4.641      53.957
2015    2       17    23  24    5.0981   503.4    4.640      53.920
2015    2       17    23  29    5.0963   503.3    4.640      53.884
2015    2       17    23  34    5.0946   503.1    4.640      53.847
2015    2       17    23  40    5.0927   503.0    4.639      53.809
2015    2       17    23  45    5.0908   502.9    4.639      53.772
2015    2       17    23  50    5.0891   502.8    4.638      53.734
2015    2       17    23  55    5.0871   502.6    4.638      53.696
2015    2       18     0   0    5.0853   502.5    4.637      53.658
2015    2       18     0   6    5.0836   502.4    4.637      53.620
2015    2       18     0  11    5.0818   502.3    4.636      53.581
2015    2       18     0  16    5.0799   502.1    4.635      53.543
2015    2       18     0  21    5.0782   502.0    4.635      53.504
2015    2       18     0  26    5.0763   501.9    4.635      53.466
2015    2       18     0  31    5.0746   501.7    4.634      53.427
2015    2       18     0  37    5.0728   501.6    4.634      53.389
2015    2       18     0  42    5.0710   501.5    4.633      53.350
2015    2       18     0  47    5.0693   501.3    4.633      53.311
2015    2       18     0  52    5.0675   501.2    4.632      53.273
2015    2       18     0  57    5.0657   501.1    4.632      53.235
2015    2       18     1   2    5.0640   500.9    4.632      53.197
2015    2       18     1   8    5.0623   500.8    4.632      53.159
2015    2       18     1  13    5.0605   500.7    4.631      53.121
2015    2       18     1  18    5.0588   500.5    4.631      53.084
2015    2       18     1  23    5.0572   500.4    4.631      53.046
2015    2       18     1  28    5.0555   500.3    4.631      53.009
2015    2       18     1  34    5.0537   500.1    4.631      52.972
2015    2       18     1  39    5.0521   500.0    4.631      52.936
2015    2       18     1  44    5.0505   499.8    4.631      52.900
2015    2       18     1  49    5.0488   499.7    4.631      52.864
2015    2       18     1  54    5.0472   499.6    4.632      52.829
2015    2       18     1  59    5.0456   499.4    4.632      52.794
2015    2       18     2   5    5.0440   499.3    4.632      52.759
2015    2       18     2  10    5.0424   499.2    4.633      52.725
2015    2       18     2  15    5.0407   499.0    4.633      52.691
2015    2       18     2  20    5.0392   498.9    4.634      52.657
2015    2       18     2  25    5.0377   498.7    4.634      52.624
2015    2       18     2  30    5.0361   498.6    4.635      52.592
2015    2       18     2  36    5.0346   498.5    4.636      52.559
2015    2       18     2  41    5.0331   498.3    4.636      52.528
2015    2       18     2  46    5.0316   498.2    4.637      52.496
2015    2       18     2  51    5.0301   498.0    4.638      52.465
2015    2       18     2  56    5.0287   497.9    4.639      52.435
2015    2       18     3   2    5.0272   497.8    4.641      52.405
2015    2       18     3   7    5.0258   497.6    4.642      52.376
2015    2       18     3  12    5.0244   497.5    4.643      52.348
2015    2       18     3  17    5.0230   497.4    4.645      52.320
2015    2       18     3  22    5.0216   497.2    4.646      52.293
2015    2       18     3  27    5.0202   497.1    4.648      52.267
2015    2       18     3  33    5.0189   496.9    4.649      52.241
2015    2       18     3  38    5.0175   496.8    4.651      52.216
2015    2       18     3  43    5.0162   496.7    4.652      52.192
2015    2       18     3  48    5.0149   496.5    4.654      52.168
2015    2       18     3  53    5.0135   496.4    4.656      52.145
2015    2       18     3  58    5.0122   496.3    4.658      52.122
2015    2       18     4   4    5.0109   496.1    4.659      52.099
2015    2       18     4   9    5.0096   496.0    4.661      52.077
2015    2       18     4  14    5.0083   495.9    4.663      52.055
2015    2       18     4  19    5.0070   495.7    4.665      52.034
2015    2       18     4  24    5.0057   495.6    4.667      52.012
2015    2       18     4  30    5.0044   495.5    4.669      51.991
2015    2       18     4  35    5.0031   495.3    4.671      51.970
2015    2       18     4  40    5.0018   495.2    4.673      51.948
2015    2       18     4  45    5.0005   495.1    4.674      51.927
2015    2       18     4  50    4.9992   494.9    4.676      51.905
2015    2       18     4  55    4.9978   494.8    4.678      51.883
2015    2       18     5   1    4.9965   494.7    4.680      51.861
2015    2       18     5   6    4.9952   494.5    4.682      51.839
2015    2       18     5  11    4.9939   494.4    4.683      51.816
2015    2       18     5  16    4.9925   494.3    4.685      51.794
2015    2       18     5  21    4.9912   494.1    4.687      51.771
2015    2       18     5  26    4.9898   494.0    4.688      51.747
2015    2       18     5  32    4.9885   493.9    4.690      51.724
2015    2       18     5  37    4.9871   493.7    4.691      51.700
2015    2       18     5  42    4.9858   493.6    4.693      51.675
2015    2       18     5  47    4.9844   493.5    4.694      51.651
2015    2       18     5  52    4.9830   493.3    4.695      51.626
2015    2       18     5  58    4.9816   493.2    4.697      51.600
2015    2       18     6   3    4.9802   493.1    4.698      51.574
2015    2       18     6   8    4.9788   492.9    4.699      51.548
2015    2       18     6  13    4.9775   492.8    4.701      51.522
2015    2       18     6  18    4.9761   492.6    4.702      51.495
2015    2       18     6  23    4.9747   492.5    4.703      51.468
2015    2       18     6  29    4.9733   492.4    4.704      51.441
2015    2       18     6  34    4.9720   492.2    4.705      51.413
2015    2       18     6  39    4.9706   492.1    4.706      51.386
2015    2       18     6  44    4.9693   491.9    4.707      51.358
2015    2       18     6  49    4.9679   491.8    4.708      51.330
2015    2       18     6  54    4.9665   491.6    4.709      51.302
2015    2       18     7   0    4.9652   491.5    4.710      51.274
2015    2       18     7   5    4.9639   491.4    4.711      51.246
2015    2       18     7  10    4.9626   491.2    4.712      51.218
2015    2       18     7  15    4.9614   491.1    4.712      51.189
2015    2       18     7  20    4.9601   490.9    4.713      51.161
2015    2       18     7  26    4.9589   490.8    4.714      51.133
2015    2       18     7  31    4.9576   490.6    4.715      51.105
2015    2       18     7  36    4.9564   490.5    4.716      51.077
2015    2       18     7  41    4.9553   490.4    4.717      51.049
2015    2       18     7  46    4.9540   490.2    4.718      51.021
2015    2       18     7  51    4.9529   490.1    4.718      50.994
2015    2       18     7  57    4.9517   489.9    4.719      50.966
2015    2       18     8   2    4.9504   489.8    4.720      50.938
2015    2       18     8   7    4.9492   489.6    4.721      50.911
2015    2       18     8  12    4.9481   489.5    4.722      50.883
2015    2       18     8  17    4.9469   489.4    4.722      50.856
2015    2       18     8  22    4.9457   489.2    4.723      50.829
2015    2       18     8  28    4.9445   489.1    4.724      50.801
2015    2       18     8  33    4.9434   488.9    4.725      50.774
2015    2       18     8  38    4.9422   488.8    4.725      50.746
2015    2       18     8  43    4.9410   488.6    4.726      50.718
2015    2       18     8  48    4.9397   488.5    4.726      50.690
2015    2       18     8  54    4.9385   488.3    4.727      50.662
2015    2       18     8  59    4.9374   488.2    4.727      50.633
2015    2       18     9   4    4.9361   488.0    4.728      50.604
2015    2       18     9   9    4.9350   487.9    4.728      50.575
2015    2       18     9  14    4.9338   487.8    4.729      50.546
2015    2       18     9  19    4.9327   487.6    4.729      50.516
2015    2       18     9  25    4.9315   487.5    4.730      50.486
2015    2       18     9  30    4.9302   487.3    4.730      50.455
2015    2       18     9  35    4.9291   487.2    4.730      50.425
2015    2       18     9  40    4.9280   487.0    4.731      50.394
2015    2       18     9  45    4.9267   486.9    4.731      50.362
2015    2       18     9  50    4.9256   486.7    4.731      50.331
2015    2       18     9  56    4.9245   486.5    4.732      50.299
2015    2       18    10   1    4.9234   486.4    4.732      50.267
2015    2       18    10   6    4.9223   486.2    4.732      50.235
2015    2       18    10  11    4.9211   486.1    4.733      50.203
2015    2       18    10  16    4.9200   485.9    4.733      50.171
2015    2       18    10  22    4.9189   485.8    4.734      50.139
2015    2       18    10  27    4.9179   485.6    4.734      50.107
2015    2       18    10  32    4.9168   485.5    4.735      50.075
2015    2       18    10  37    4.9157   485.3    4.735      50.043
2015    2       18    10  42    4.9147   485.2    4.736      50.011
2015    2       18    10  47    4.9137   485.0    4.737      49.980
2015    2       18    10  53    4.9127   484.9    4.738      49.949
2015    2       18    10  58    4.9117   484.7    4.738      49.918
2015    2       18    11   3    4.9108   484.5    4.739      49.887
2015    2       18    11   8    4.9098   484.4    4.740      49.857
2015    2       18    11  13    4.9090   484.2    4.742      49.827
2015    2       18    11  18    4.9081   484.1    4.743      49.797
2015    2       18    11  24    4.9071   483.9    4.744      49.768
2015    2       18    11  29    4.9063   483.8    4.745      49.739
2015    2       18    11  34    4.9055   483.6    4.747      49.710
2015    2       18    11  39    4.9046   483.5    4.748      49.681
2015    2       18    11  44    4.9038   483.3    4.750      49.653
2015    2       18    11  50    4.9030   483.2    4.752      49.626
2015    2       18    11  55    4.9023   483.0    4.753      49.598
2015    2       18    12   0    4.9015   482.9    4.755      49.571
2015    2       18    12   5    4.9007   482.7    4.757      49.544
2015    2       18    12  10    4.9000   482.6    4.759      49.517
2015    2       18    12  15    4.8992   482.4    4.761      49.490
2015    2       18    12  21    4.8984   482.3    4.763      49.463
2015    2       18    12  26    4.8976   482.1    4.765      49.436
2015    2       18    12  31    4.8969   482.0    4.767      49.410
2015    2       18    12  36    4.8961   481.8    4.770      49.383
2015    2       18    12  41    4.8954   481.7    4.772      49.357
2015    2       18    12  46    4.8946   481.5    4.774      49.331
2015    2       18    12  52    4.8938   481.4    4.777      49.304
2015    2       18    12  57    4.8930   481.2    4.779      49.278
2015    2       18    13   2    4.8923   481.1    4.781      49.251
2015    2       18    13   7    4.8915   480.9    4.784      49.225
2015    2       18    13  12    4.8907   480.8    4.786      49.199
2015    2       18    13  18    4.8899   480.6    4.789      49.172
2015    2       18    13  23    4.8892   480.4    4.791      49.146
2015    2       18    13  28    4.8884   480.3    4.794      49.120
2015    2       18    13  33    4.8877   480.1    4.796      49.094
2015    2       18    13  38    4.8870   480.0    4.799      49.068
2015    2       18    13  43    4.8863   479.8    4.802      49.043
2015    2       18    13  49    4.8856   479.6    4.805      49.018
2015    2       18    13  54    4.8849   479.5    4.807      48.993
2015    2       18    13  59    4.8843   479.3    4.810      48.968
2015    2       18    14   4    4.8837   479.1    4.813      48.944
2015    2       18    14   9    4.8831   479.0    4.816      48.920
2015    2       18    14  14    4.8825   478.8    4.819      48.897
2015    2       18    14  20    4.8820   478.7    4.822      48.875
2015    2       18    14  25    4.8815   478.5    4.826      48.853
2015    2       18    14  30    4.8811   478.3    4.829      48.831
2015    2       18    14  35    4.8807   478.2    4.832      48.810
2015    2       18    14  40    4.8803   478.0    4.835      48.790
2015    2       18    14  46    4.8799   477.8    4.839      48.771
2015    2       18    14  51    4.8796   477.7    4.842      48.752
2015    2       18    14  56    4.8793   477.5    4.846      48.734
2015    2       18    15   1    4.8790   477.4    4.850      48.716
2015    2       18    15   6    4.8787   477.2    4.853      48.699
2015    2       18    15  11    4.8786   477.1    4.857      48.683
2015    2       18    15  17    4.8783   476.9    4.861      48.667
2015    2       18    15  22    4.8781   476.7    4.865      48.652
2015    2       18    15  27    4.8780   476.6    4.868      48.638
2015    2       18    15  32    4.8779   476.4    4.872      48.624
2015    2       18    15  37    4.8778   476.3    4.876      48.610
2015    2       18    15  42    4.8777   476.1    4.880      48.597
2015    2       18    15  48    4.8776   476.0    4.884      48.585
2015    2       18    15  53    4.8775   475.8    4.888      48.573
2015    2       18    15  58    4.8774   475.6    4.892      48.561
2015    2       18    16   3    4.8774   475.5    4.896      48.549
2015    2       18    16   8    4.8773   475.3    4.900      48.538
2015    2       18    16  14    4.8773   475.2    4.904      48.526
2015    2       18    16  19    4.8772   475.0    4.908      48.515
2015    2       18    16  24    4.8772   474.9    4.912      48.504
2015    2       18    16  29    4.8772   474.7    4.916      48.493
2015    2       18    16  34    4.8772   474.6    4.920      48.482
2015    2       18    16  39    4.8772   474.4    4.924      48.470
2015    2       18    16  45    4.8772   474.3    4.928      48.459
2015    2       18    16  50    4.8771   474.1    4.931      48.447
2015    2       18    16  55    4.8772   474.0    4.935      48.436
2015    2       18    17   0    4.8772   473.8    4.939      48.424
2015    2       18    17   5    4.8773   473.7    4.943      48.412
2015    2       18    17  10    4.8773   473.5    4.947      48.400
2015    2       18    17  16    4.8773   473.4    4.951      48.387
2015    2       18    17  21    4.8774   473.2    4.954      48.374
2015    2       18    17  26    4.8775   473.1    4.958      48.361
2015    2       18    17  31    4.8776   472.9    4.962      48.347
2015    2       18    17  36    4.8776   472.8    4.965      48.334
2015    2       18    17  42    4.8777   472.6    4.969      48.319
2015    2       18    17  47    4.8777   472.5    4.972      48.305
2015    2       18    17  52    4.8777   472.3    4.976      48.290
2015    2       18    17  57    4.8779   472.2    4.979      48.275
2015    2       18    18   2    4.8780   472.0    4.983      48.259
2015    2       18    18   7    4.8780   471.9    4.986      48.243
2015    2       18    18  13    4.8780   471.7    4.989      48.227
2015    2       18    18  18    4.8782   471.6    4.992      48.211
2015    2       18    18  23    4.8783   471.4    4.996      48.194
2015    2       18    18  28    4.8784   471.3    4.999      48.176
2015    2       18    18  33    4.8785   471.2    5.002      48.159
2015    2       18    18  38    4.8784   471.0    5.005      48.141
2015    2       18    18  44    4.8787   470.9    5.008      48.123
2015    2       18    18  49    4.8786   470.7    5.011      48.104
2015    2       18    18  54    4.8789   470.6    5.014      48.085
2015    2       18    18  59    4.8788   470.4    5.017      48.066
2015    2       18    19   4    4.8791   470.3    5.020      48.047
2015    2       18    19  10    4.8791   470.1    5.023      48.027
2015    2       18    19  15    4.8793   470.0    5.026      48.007
2015    2       18    19  20    4.8794   469.8    5.028      47.986
2015    2       18    19  25    4.8795   469.7    5.031      47.966
2015    2       18    19  30    4.8795   469.5    5.034      47.945
2015    2       18    19  35    4.8798   469.4    5.037      47.924
2015    2       18    19  41    4.8798   469.3    5.040      47.903
2015    2       18    19  46    4.8800   469.1    5.042      47.881
2015    2       18    19  51    4.8803   469.0    5.045      47.860
2015    2       18    19  56    4.8804   468.8    5.048      47.838
2015    2       18    20   1    4.8806   468.7    5.051      47.816
2015    2       18    20   6    4.8808   468.5    5.054      47.794
2015    2       18    20  12    4.8810   468.4    5.056      47.772
2015    2       18    20  17    4.8811   468.2    5.059      47.750
2015    2       18    20  22    4.8813   468.1    5.062      47.728
2015    2       18    20  27    4.8817   467.9    5.065      47.706
2015    2       18    20  32    4.8819   467.8    5.068      47.685
2015    2       18    20  38    4.8822   467.7    5.071      47.663
2015    2       18    20  43    4.8823   467.5    5.074      47.641
2015    2       18    20  48    4.8827   467.4    5.077      47.620
2015    2       18    20  53    4.8830   467.2    5.080      47.599
2015    2       18    20  58    4.8834   467.1    5.084      47.578
2015    2       18    21   3    4.8836   466.9    5.087      47.557
2015    2       18    21   9    4.8840   466.8    5.090      47.536
2015    2       18    21  14    4.8844   466.6    5.094      47.516
2015    2       18    21  19    4.8849   466.5    5.097      47.496
2015    2       18    21  24    4.8852   466.4    5.101      47.477
2015    2       18    21  29    4.8856   466.2    5.104      47.458
2015    2       18    21  34    4.8861   466.1    5.108      47.439
2015    2       18    21  40    4.8867   465.9    5.112      47.421
2015    2       18    21  45    4.8872   465.8    5.116      47.403
2015    2       18    21  50    4.8878   465.6    5.120      47.386
2015    2       18    21  55    4.8882   465.5    5.124      47.369
2015    2       18    22   0    4.8889   465.4    5.128      47.352
2015    2       18    22   6    4.8895   465.2    5.132      47.336
2015    2       18    22  11    4.8900   465.1    5.136      47.321
2015    2       18    22  16    4.8908   464.9    5.141      47.306
2015    2       18    22  21    4.8915   464.8    5.145      47.291
2015    2       18    22  26    4.8921   464.7    5.149      47.277
2015    2       18    22  31    4.8928   464.5    5.154      47.264
2015    2       18    22  37    4.8936   464.4    5.159      47.250
2015    2       18    22  42    4.8944   464.3    5.163      47.238
2015    2       18    22  47    4.8951   464.1    5.168      47.225
2015    2       18    22  52    4.8959   464.0    5.173      47.214
2015    2       18    22  57    4.8967   463.8    5.178      47.202
2015    2       18    23   3    4.8976   463.7    5.183      47.191
2015    2       18    23   8    4.8983   463.6    5.188      47.181
2015    2       18    23  13    4.8993   463.4    5.193      47.170
2015    2       18    23  18    4.9000   463.3    5.198      47.160
2015    2       18    23  23    4.9010   463.2    5.203      47.151
2015    2       18    23  28    4.9019   463.0    5.208      47.141
2015    2       18    23  34    4.9028   462.9    5.213      47.132
2015    2       18    23  39    4.9037   462.8    5.218      47.123
2015    2       18    23  44    4.9046   462.6    5.224      47.114
2015    2       18    23  49    4.9055   462.5    5.229      47.106
2015    2       18    23  54    4.9064   462.4    5.234      47.097
2015    2       18    23  59    4.9074   462.3    5.239      47.089
2015    2       19     0   5    4.9083   462.1    5.245      47.081
2015    2       19     0  10    4.9092   462.0    5.250      47.072
2015    2       19     0  15    4.9102   461.9    5.255      47.064
2015    2       19     0  20    4.9111   461.7    5.260      47.056
2015    2       19     0  25    4.9121   461.6    5.265      47.048
2015    2       19     0  31    4.9129   461.5    5.271      47.040
2015    2       19     0  36    4.9139   461.3    5.276      47.032
2015    2       19     0  41    4.9150   461.2    5.281      47.025
2015    2       19     0  46    4.9159   461.1    5.286      47.017
2015    2       19     0  51    4.9168   460.9    5.291      47.009
2015    2       19     0  56    4.9178   460.8    5.296      47.002
2015    2       19     1   2    4.9187   460.7    5.301      46.994
2015    2       19     1   7    4.9198   460.5    5.306      46.986
2015    2       19     1  12    4.9208   460.4    5.311      46.979
2015    2       19     1  17    4.9218   460.3    5.316      46.971
2015    2       19     1  22    4.9228   460.2    5.321      46.964
2015    2       19     1  27    4.9237   460.0    5.326      46.956
2015    2       19     1  33    4.9248   459.9    5.331      46.948
2015    2       19     1  38    4.9259   459.8    5.336      46.940
2015    2       19     1  43    4.9269   459.6    5.341      46.932
2015    2       19     1  48    4.9280   459.5    5.345      46.924
2015    2       19     1  53    4.9290   459.4    5.350      46.916
2015    2       19     1  59    4.9301   459.3    5.355      46.908
2015    2       19     2   4    4.9311   459.1    5.360      46.899
2015    2       19     2   9    4.9322   459.0    5.364      46.891
2015    2       19     2  14    4.9333   458.9    5.369      46.882
2015    2       19     2  19    4.9344   458.7    5.374      46.874
2015    2       19     2  24    4.9356   458.6    5.378      46.865
2015    2       19     2  30    4.9367   458.5    5.383      46.856
2015    2       19     2  35    4.9378   458.4    5.387      46.847
2015    2       19     2  40    4.9390   458.3    5.392      46.838
2015    2       19     2  45    4.9401   458.1    5.396      46.828
2015    2       19     2  50    4.9413   458.0    5.401      46.819
2015    2       19     2  55    4.9424   457.9    5.405      46.809
2015    2       19     3   1    4.9436   457.8    5.410      46.800
2015    2       19     3   6    4.9448   457.6    5.414      46.790
2015    2       19     3  11    4.9460   457.5    5.418      46.781
2015    2       19     3  16    4.9472   457.4    5.423      46.771
2015    2       19     3  21    4.9484   457.3    5.427      46.761
2015    2       19     3  27    4.9495   457.1    5.431      46.751
2015    2       19     3  32    4.9508   457.0    5.435      46.742
2015    2       19     3  37    4.9520   456.9    5.439      46.732
2015    2       19     3  42    4.9531   456.8    5.444      46.722
2015    2       19     3  47    4.9543   456.7    5.448      46.712
2015    2       19     3  52    4.9555   456.5    5.452      46.702
2015    2       19     3  58    4.9568   456.4    5.456      46.693
2015    2       19     4   3    4.9580   456.3    5.459      46.683
2015    2       19     4   8    4.9593   456.2    5.463      46.673
2015    2       19     4  13    4.9604   456.1    5.467      46.663
2015    2       19     4  18    4.9616   456.0    5.471      46.653
2015    2       19     4  23    4.9628   455.8    5.475      46.643
2015    2       19     4  29    4.9640   455.7    5.479      46.633
2015    2       19     4  34    4.9653   455.6    5.482      46.623
2015    2       19     4  39    4.9664   455.5    5.486      46.612
2015    2       19     4  44    4.9677   455.4    5.490      46.602
2015    2       19     4  49    4.9688   455.3    5.494      46.592
2015    2       19     4  55    4.9701   455.1    5.497      46.581
2015    2       19     5   0    4.9712   455.0    5.501      46.571
2015    2       19     5   5    4.9724   454.9    5.505      46.560
2015    2       19     5  10    4.9737   454.8    5.508      46.550
2015    2       19     5  15    4.9749   454.7    5.512      46.539
2015    2       19     5  20    4.9760   454.6    5.516      46.528
2015    2       19     5  26    4.9773   454.5    5.519      46.517
2015    2       19     5  31    4.9784   454.3    5.523      46.506
2015    2       19     5  36    4.9796   454.2    5.527      46.495
2015    2       19     5  41    4.9808   454.1    5.530      46.484
2015    2       19     5  46    4.9820   454.0    5.534      46.473
2015    2       19     5  51    4.9832   453.9    5.537      46.462
2015    2       19     5  57    4.9843   453.8    5.541      46.450
2015    2       19     6   2    4.9856   453.7    5.545      46.439
2015    2       19     6   7    4.9867   453.6    5.548      46.428
2015    2       19     6  12    4.9879   453.4    5.552      46.417
2015    2       19     6  17    4.9891   453.3    5.556      46.405
2015    2       19     6  23    4.9903   453.2    5.559      46.394
2015    2       19     6  28    4.9914   453.1    5.563      46.383
2015    2       19     6  33    4.9926   453.0    5.567      46.371
2015    2       19     6  38    4.9938   452.9    5.570      46.360
2015    2       19     6  43    4.9949   452.8    5.574      46.349
2015    2       19     6  48    4.9961   452.7    5.578      46.337
2015    2       19     6  54    4.9972   452.6    5.582      46.326
2015    2       19     6  59    4.9983   452.4    5.585      46.315
2015    2       19     7   4    4.9995   452.3    5.589      46.303
2015    2       19     7   9    5.0006   452.2    5.593      46.292
2015    2       19     7  14    5.0018   452.1    5.597      46.281
2015    2       19     7  19    5.0029   452.0    5.600      46.270
2015    2       19     7  25    5.0040   451.9    5.604      46.259
2015    2       19     7  30    5.0052   451.8    5.608      46.248
2015    2       19     7  35    5.0063   451.7    5.612      46.236
2015    2       19     7  40    5.0074   451.6    5.616      46.225
2015    2       19     7  45    5.0085   451.4    5.619      46.214
2015    2       19     7  51    5.0097   451.3    5.623      46.203
2015    2       19     7  56    5.0108   451.2    5.627      46.193
2015    2       19     8   1    5.0119   451.1    5.631      46.182
2015    2       19     8   6    5.0131   451.0    5.635      46.171
2015    2       19     8  11    5.0142   450.9    5.639      46.160
2015    2       19     8  16    5.0153   450.8    5.643      46.150
2015    2       19     8  22    5.0165   450.7    5.647      46.139
2015    2       19     8  27    5.0176   450.5    5.651      46.129
2015    2       19     8  32    5.0187   450.4    5.655      46.118
2015    2       19     8  37    5.0199   450.3    5.659      46.108
2015    2       19     8  42    5.0210   450.2    5.663      46.098
2015    2       19     8  47    5.0222   450.1    5.667      46.088
2015    2       19     8  53    5.0234   450.0    5.671      46.078
2015    2       19     8  58    5.0246   449.9    5.675      46.068
2015    2       19     9   3    5.0258   449.7    5.679      46.059
2015    2       19     9   8    5.0270   449.6    5.683      46.049
2015    2       19     9  13    5.0282   449.5    5.687      46.040
2015    2       19     9  19    5.0294   449.4    5.692      46.031
2015    2       19     9  24    5.0306   449.3    5.696      46.022
2015    2       19     9  29    5.0319   449.2    5.700      46.014
2015    2       19     9  34    5.0332   449.1    5.705      46.005
2015    2       19     9  39    5.0344   448.9    5.709      45.997
2015    2       19     9  44    5.0357   448.8    5.713      45.990
2015    2       19     9  50    5.0370   448.7    5.718      45.982
2015    2       19     9  55    5.0384   448.6    5.722      45.975
2015    2       19    10   0    5.0397   448.5    5.727      45.968
2015    2       19    10   5    5.0411   448.4    5.731      45.961
2015    2       19    10  10    5.0425   448.3    5.736      45.954
2015    2       19    10  15    5.0438   448.1    5.741      45.947
2015    2       19    10  21    5.0452   448.0    5.745      45.941
2015    2       19    10  26    5.0467   447.9    5.750      45.935
2015    2       19    10  31    5.0481   447.8    5.755      45.929
2015    2       19    10  36    5.0495   447.7    5.760      45.923
2015    2       19    10  41    5.0510   447.6    5.764      45.918
2015    2       19    10  47    5.0525   447.5    5.769      45.912
2015    2       19    10  52    5.0539   447.4    5.774      45.907
2015    2       19    10  57    5.0554   447.3    5.779      45.902
2015    2       19    11   2    5.0569   447.1    5.784      45.897
2015    2       19    11   7    5.0584   447.0    5.789      45.892
2015    2       19    11  12    5.0599   446.9    5.794      45.887
2015    2       19    11  18    5.0614   446.8    5.799      45.882
2015    2       19    11  23    5.0629   446.7    5.804      45.877
2015    2       19    11  28    5.0644   446.6    5.809      45.873
2015    2       19    11  33    5.0659   446.5    5.813      45.868
2015    2       19    11  38    5.0674   446.4    5.818      45.864
2015    2       19    11  43    5.0689   446.3    5.823      45.860
2015    2       19    11  49    5.0704   446.2    5.828      45.856
2015    2       19    11  54    5.0719   446.0    5.833      45.853
2015    2       19    11  59    5.0733   445.9    5.838      45.849
2015    2       19    12   4    5.0748   445.8    5.842      45.846
2015    2       19    12   9    5.0763   445.7    5.847      45.843
2015    2       19    12  15    5.0778   445.6    5.851      45.840
2015    2       19    12  20    5.0793   445.5    5.856      45.837
2015    2       19    12  25    5.0808   445.4    5.860      45.833
2015    2       19    12  30    5.0823   445.3    5.865      45.830
2015    2       19    12  35    5.0837   445.2    5.869      45.827
2015    2       19    12  40    5.0852   445.1    5.873      45.824
2015    2       19    12  46    5.0867   445.0    5.878      45.820
2015    2       19    12  51    5.0882   444.8    5.882      45.817
2015    2       19    12  56    5.0897   444.7    5.886      45.813
2015    2       19    13   1    5.0912   444.6    5.890      45.809
2015    2       19    13   6    5.0926   444.5    5.894      45.804
2015    2       19    13  11    5.0941   444.4    5.898      45.800
2015    2       19    13  17    5.0956   444.3    5.902      45.795
2015    2       19    13  22    5.0971   444.2    5.906      45.790
2015    2       19    13  27    5.0986   444.1    5.909      45.784
2015    2       19    13  32    5.1001   444.0    5.913      45.778
2015    2       19    13  37    5.1015   443.9    5.917      45.772
2015    2       19    13  43    5.1030   443.8    5.921      45.766
2015    2       19    13  48    5.1044   443.7    5.924      45.759
2015    2       19    13  53    5.1059   443.6    5.928      45.752
2015    2       19    13  58    5.1073   443.5    5.931      45.745
2015    2       19    14   3    5.1088   443.3    5.935      45.737
2015    2       19    14   8    5.1102   443.2    5.938      45.729
2015    2       19    14  14    5.1116   443.1    5.942      45.721
2015    2       19    14  19    5.1131   443.0    5.945      45.712
2015    2       19    14  24    5.1145   442.9    5.948      45.704
2015    2       19    14  29    5.1159   442.8    5.952      45.695
2015    2       19    14  34    5.1173   442.7    5.955      45.686
2015    2       19    14  39    5.1187   442.6    5.958      45.677
2015    2       19    14  45    5.1201   442.5    5.962      45.667
2015    2       19    14  50    5.1215   442.4    5.965      45.658
2015    2       19    14  55    5.1229   442.3    5.968      45.648
2015    2       19    15   0    5.1243   442.2    5.972      45.638
2015    2       19    15   5    5.1257   442.1    5.975      45.628
2015    2       19    15  11    5.1271   442.0    5.978      45.618
2015    2       19    15  16    5.1285   441.9    5.981      45.607
2015    2       19    15  21    5.1299   441.8    5.984      45.597
2015    2       19    15  26    5.1313   441.6    5.988      45.586
2015    2       19    15  31    5.1327   441.5    5.991      45.576
2015    2       19    15  36    5.1341   441.4    5.994      45.565
2015    2       19    15  42    5.1355   441.3    5.997      45.554
2015    2       19    15  47    5.1369   441.2    6.001      45.543
2015    2       19    15  52    5.1383   441.1    6.004      45.532
2015    2       19    15  57    5.1398   441.0    6.007      45.522
2015    2       19    16   2    5.1412   440.9    6.010      45.511
2015    2       19    16   7    5.1426   440.8    6.014      45.500
2015    2       19    16  13    5.1440   440.7    6.017      45.489
2015    2       19    16  18    5.1455   440.6    6.020      45.478
2015    2       19    16  23    5.1469   440.5    6.024      45.467
2015    2       19    16  28    5.1484   440.4    6.027      45.456
2015    2       19    16  33    5.1498   440.3    6.031      45.446
2015    2       19    16  39    5.1513   440.1    6.034      45.435
2015    2       19    16  44    5.1527   440.0    6.038      45.425
2015    2       19    16  49    5.1542   439.9    6.041      45.414
2015    2       19    16  54    5.1557   439.8    6.045      45.404
2015    2       19    16  59    5.1572   439.7    6.048      45.394
2015    2       19    17   4    5.1587   439.6    6.052      45.385
2015    2       19    17  10    5.1602   439.5    6.056      45.375
2015    2       19    17  15    5.1618   439.4    6.060      45.366
2015    2       19    17  20    5.1633   439.3    6.064      45.357
2015    2       19    17  25    5.1649   439.2    6.068      45.348
2015    2       19    17  30    5.1665   439.0    6.072      45.340
2015    2       19    17  35    5.1681   438.9    6.076      45.332
2015    2       19    17  41    5.1697   438.8    6.080      45.324
2015    2       19    17  46    5.1713   438.7    6.084      45.317
2015    2       19    17  51    5.1730   438.6    6.088      45.310
2015    2       19    17  56    5.1746   438.5    6.093      45.303
2015    2       19    18   1    5.1763   438.4    6.097      45.296
2015    2       19    18   7    5.1780   438.3    6.102      45.290
2015    2       19    18  12    5.1797   438.2    6.106      45.285
2015    2       19    18  17    5.1814   438.1    6.111      45.279
2015    2       19    18  22    5.1832   437.9    6.116      45.274
2015    2       19    18  27    5.1850   437.8    6.121      45.270
2015    2       19    18  32    5.1868   437.7    6.126      45.266
2015    2       19    18  38    5.1886   437.6    6.131      45.262
2015    2       19    18  43    5.1905   437.5    6.136      45.258
2015    2       19    18  48    5.1923   437.4    6.141      45.255
2015    2       19    18  53    5.1942   437.3    6.146      45.253
2015    2       19    18  58    5.1961   437.2    6.152      45.251
2015    2       19    19   4    5.1980   437.1    6.157      45.249
2015    2       19    19   9    5.2000   437.0    6.163      45.248
2015    2       19    19  14    5.2020   436.9    6.168      45.248
2015    2       19    19  19    5.2039   436.7    6.174      45.247
2015    2       19    19  24    5.2059   436.6    6.180      45.248
2015    2       19    19  29    5.2079   436.5    6.185      45.248
2015    2       19    19  35    5.2100   436.4    6.191      45.249
2015    2       19    19  40    5.2121   436.3    6.197      45.251
2015    2       19    19  45    5.2141   436.2    6.202      45.253
2015    2       19    19  50    5.2162   436.1    6.208      45.255
2015    2       19    19  55    5.2183   436.0    6.214      45.257
2015    2       19    20   0    5.2204   435.9    6.220      45.260
2015    2       19    20   6    5.2226   435.8    6.226      45.263
2015    2       19    20  11    5.2248   435.7    6.232      45.266
2015    2       19    20  16    5.2270   435.6    6.238      45.269
2015    2       19    20  21    5.2291   435.5    6.243      45.272
2015    2       19    20  26    5.2313   435.3    6.249      45.276
2015    2       19    20  32    5.2335   435.2    6.255      45.279
2015    2       19    20  37    5.2356   435.1    6.261      45.283
2015    2       19    20  42    5.2378   435.0    6.266      45.286
2015    2       19    20  47    5.2400   434.9    6.272      45.290
2015    2       19    20  52    5.2423   434.8    6.278      45.293
2015    2       19    20  57    5.2444   434.7    6.283      45.297
2015    2       19    21   3    5.2466   434.6    6.289      45.300
2015    2       19    21   8    5.2488   434.5    6.294      45.303
2015    2       19    21  13    5.2509   434.4    6.300      45.305
2015    2       19    21  18    5.2531   434.3    6.305      45.308
2015    2       19    21  23    5.2553   434.2    6.310      45.310
2015    2       19    21  28    5.2574   434.1    6.315      45.312
2015    2       19    21  34    5.2596   434.0    6.320      45.314
2015    2       19    21  39    5.2618   433.9    6.326      45.315
2015    2       19    21  44    5.2639   433.8    6.331      45.317
2015    2       19    21  49    5.2661   433.7    6.336      45.318
2015    2       19    21  54    5.2683   433.6    6.341      45.318
2015    2       19    22   0    5.2704   433.5    6.346      45.319
2015    2       19    22   5    5.2725   433.4    6.350      45.319
2015    2       19    22  10    5.2747   433.3    6.355      45.318
2015    2       19    22  15    5.2768   433.2    6.360      45.318
2015    2       19    22  20    5.2790   433.1    6.365      45.317
2015    2       19    22  25    5.2812   433.0    6.369      45.316
2015    2       19    22  31    5.2832   432.9    6.374      45.315
2015    2       19    22  36    5.2854   432.8    6.379      45.313
2015    2       19    22  41    5.2876   432.7    6.383      45.312
2015    2       19    22  46    5.2898   432.6    6.388      45.310
2015    2       19    22  51    5.2920   432.5    6.393      45.308
2015    2       19    22  56    5.2942   432.4    6.397      45.306
2015    2       19    23   2    5.2964   432.3    6.402      45.303
2015    2       19    23   7    5.2985   432.2    6.406      45.300
2015    2       19    23  12    5.3006   432.1    6.411      45.298
2015    2       19    23  17    5.3028   432.0    6.416      45.295
2015    2       19    23  22    5.3051   431.9    6.420      45.292
2015    2       19    23  28    5.3073   431.8    6.425      45.289
2015    2       19    23  33    5.3096   431.7    6.429      45.286
2015    2       19    23  38    5.3117   431.6    6.434      45.283
2015    2       19    23  43    5.3139   431.5    6.438      45.279
2015    2       19    23  48    5.3163   431.4    6.443      45.276
2015    2       19    23  53    5.3186   431.3    6.448      45.273
2015    2       19    23  59    5.3207   431.2    6.452      45.270
2015    2       20     0   4    5.3230   431.1    6.457      45.267
2015    2       20     0   9    5.3254   431.0    6.462      45.263
2015    2       20     0  14    5.3276   430.9    6.467      45.260
2015    2       20     0  19    5.3299   430.8    6.471      45.257
2015    2       20     0  24    5.3323   430.7    6.476      45.254
2015    2       20     0  30    5.3347   430.6    6.481      45.252
2015    2       20     0  35    5.3370   430.5    6.486      45.249
2015    2       20     0  40    5.3393   430.4    6.491      45.247
2015    2       20     0  45    5.3418   430.3    6.496      45.244
2015    2       20     0  50    5.3441   430.2    6.501      45.242
2015    2       20     0  56    5.3467   430.1    6.507      45.241
2015    2       20     1   1    5.3490   430.0    6.512      45.239
2015    2       20     1   6    5.3516   429.9    6.517      45.238
2015    2       20     1  11    5.3541   429.8    6.523      45.237
2015    2       20     1  16    5.3566   429.7    6.528      45.237
2015    2       20     1  21    5.3591   429.6    6.534      45.237
2015    2       20     1  27    5.3615   429.5    6.540      45.238
2015    2       20     1  32    5.3641   429.4    6.545      45.239
2015    2       20     1  37    5.3668   429.3    6.551      45.240
2015    2       20     1  42    5.3693   429.2    6.557      45.241
2015    2       20     1  47    5.3721   429.1    6.563      45.243
2015    2       20     1  52    5.3747   429.1    6.570      45.246
2015    2       20     1  58    5.3775   429.0    6.576      45.249
2015    2       20     2   3    5.3802   428.9    6.582      45.253
2015    2       20     2   8    5.3829   428.8    6.589      45.258
2015    2       20     2  13    5.3856   428.7    6.595      45.262
2015    2       20     2  18    5.3884   428.6    6.602      45.267
2015    2       20     2  24    5.3912   428.5    6.608      45.273
2015    2       20     2  29    5.3941   428.4    6.615      45.279
2015    2       20     2  34    5.3970   428.3    6.622      45.285
2015    2       20     2  39    5.3998   428.2    6.628      45.292
2015    2       20     2  44    5.4026   428.1    6.635      45.298
2015    2       20     2  49    5.4055   428.0    6.642      45.306
2015    2       20     2  55    5.4084   428.0    6.649      45.313
2015    2       20     3   0    5.4113   427.9    6.655      45.320
2015    2       20     3   5    5.4143   427.8    6.662      45.328
2015    2       20     3  10    5.4172   427.7    6.669      45.335
2015    2       20     3  15    5.4202   427.6    6.676      45.343
2015    2       20     3  20    5.4230   427.5    6.683      45.351
2015    2       20     3  26    5.4260   427.5    6.690      45.359
2015    2       20     3  31    5.4290   427.4    6.697      45.367
2015    2       20     3  36    5.4319   427.3    6.703      45.375
2015    2       20     3  41    5.4348   427.2    6.710      45.382
2015    2       20     3  46    5.4377   427.1    6.717      45.390
2015    2       20     3  52    5.4406   427.1    6.724      45.398
2015    2       20     3  57    5.4436   427.0    6.731      45.406
2015    2       20     4   2    5.4465   426.9    6.738      45.414
2015    2       20     4   7    5.4494   426.8    6.744      45.421
2015    2       20     4  12    5.4524   426.7    6.751      45.429
2015    2       20     4  17    5.4554   426.7    6.758      45.437
2015    2       20     4  23    5.4583   426.6    6.764      45.444
2015    2       20     4  28    5.4611   426.5    6.771      45.452
2015    2       20     4  33    5.4641   426.4    6.777      45.459
2015    2       20     4  38    5.4669   426.4    6.784      45.467
2015    2       20     4  43    5.4698   426.3    6.791      45.474
2015    2       20     4  48    5.4727   426.2    6.797      45.481
2015    2       20     4  54    5.4757   426.2    6.803      45.488
2015    2       20     4  59    5.4785   426.1    6.810      45.495
2015    2       20     5   4    5.4814   426.0    6.816      45.502
2015    2       20     5   9    5.4844   425.9    6.822      45.508
2015    2       20     5  14    5.4873   425.9    6.829      45.515
2015    2       20     5  20    5.4902   425.8    6.835      45.521
2015    2       20     5  25    5.4931   425.7    6.841      45.527
2015    2       20     5  30    5.4959   425.7    6.848      45.533
2015    2       20     5  35    5.4989   425.6    6.854      45.539
2015    2       20     5  40    5.5018   425.5    6.860      45.545
2015    2       20     5  45    5.5047   425.4    6.866      45.551
2015    2       20     5  51    5.5077   425.4    6.872      45.556
2015    2       20     5  56    5.5105   425.3    6.879      45.562
2015    2       20     6   1    5.5134   425.2    6.885      45.567
2015    2       20     6   6    5.5164   425.2    6.891      45.573
2015    2       20     6  11    5.5193   425.1    6.897      45.578
2015    2       20     6  16    5.5223   425.0    6.903      45.583
2015    2       20     6  22    5.5253   425.0    6.910      45.588
2015    2       20     6  27    5.5282   424.9    6.916      45.593
2015    2       20     6  32    5.5311   424.9    6.922      45.599
2015    2       20     6  37    5.5341   424.8    6.928      45.604
2015    2       20     6  42    5.5371   424.7    6.935      45.609
2015    2       20     6  48    5.5400   424.7    6.941      45.614
2015    2       20     6  53    5.5431   424.6    6.947      45.620
2015    2       20     6  58    5.5461   424.5    6.954      45.625
2015    2       20     7   3    5.5490   424.5    6.960      45.630
2015    2       20     7   8    5.5521   424.4    6.967      45.636
2015    2       20     7  13    5.5551   424.4    6.973      45.642
2015    2       20     7  19    5.5582   424.3    6.980      45.648
2015    2       20     7  24    5.5612   424.2    6.987      45.654
2015    2       20     7  29    5.5643   424.2    6.993      45.661
2015    2       20     7  34    5.5674   424.1    7.000      45.668
2015    2       20     7  39    5.5705   424.1    7.007      45.675
2015    2       20     7  44    5.5736   424.0    7.013      45.683
2015    2       20     7  50    5.5767   423.9    7.020      45.691
2015    2       20     7  55    5.5799   423.9    7.027      45.699
2015    2       20     8   0    5.5829   423.8    7.034      45.708
2015    2       20     8   5    5.5861   423.8    7.041      45.716
2015    2       20     8  10    5.5892   423.7    7.047      45.725
2015    2       20     8  16    5.5924   423.7    7.054      45.735
2015    2       20     8  21    5.5955   423.6    7.061      45.744
2015    2       20     8  26    5.5987   423.6    7.068      45.754
2015    2       20     8  31    5.6018   423.5    7.074      45.764
2015    2       20     8  36    5.6049   423.5    7.081      45.774
2015    2       20     8  41    5.6080   423.4    7.088      45.785
2015    2       20     8  47    5.6113   423.4    7.094      45.795
2015    2       20     8  52    5.6143   423.3    7.101      45.805
2015    2       20     8  57    5.6176   423.3    7.108      45.816
2015    2       20     9   2    5.6207   423.2    7.115      45.826
2015    2       20     9   7    5.6239   423.2    7.121      45.836
2015    2       20     9  12    5.6271   423.1    7.128      45.847
2015    2       20     9  18    5.6302   423.1    7.135      45.857
2015    2       20     9  23    5.6334   423.0    7.141      45.868
2015    2       20     9  28    5.6366   423.0    7.148      45.879
2015    2       20     9  33    5.6397   422.9    7.154      45.889
2015    2       20     9  38    5.6429   422.9    7.161      45.900
2015    2       20     9  44    5.6460   422.9    7.167      45.911
2015    2       20     9  49    5.6492   422.8    7.174      45.922
2015    2       20     9  54    5.6523   422.8    7.180      45.932
2015    2       20     9  59    5.6555   422.7    7.187      45.943
2015    2       20    10   4    5.6586   422.7    7.193      45.953
2015    2       20    10   9    5.6617   422.7    7.199      45.963
2015    2       20    10  15    5.6648   422.6    7.205      45.973
2015    2       20    10  20    5.6680   422.6    7.211      45.983
2015    2       20    10  25    5.6710   422.6    7.217      45.993
2015    2       20    10  30    5.6741   422.5    7.223      46.002
2015    2       20    10  35    5.6772   422.5    7.229      46.011
2015    2       20    10  41    5.6803   422.4    7.235      46.020
2015    2       20    10  46    5.6833   422.4    7.241      46.029
2015    2       20    10  51    5.6863   422.4    7.247      46.038
2015    2       20    10  56    5.6894   422.3    7.252      46.046
2015    2       20    11   1    5.6924   422.3    7.258      46.053
2015    2       20    11   6    5.6954   422.3    7.264      46.061
2015    2       20    11  12    5.6984   422.2    7.269      46.068
2015    2       20    11  17    5.7014   422.2    7.275      46.075
2015    2       20    11  22    5.7044   422.2    7.280      46.082
2015    2       20    11  27    5.7074   422.1    7.285      46.089
2015    2       20    11  32    5.7104   422.1    7.291      46.095
2015    2       20    11  37    5.7134   422.1    7.296      46.102
2015    2       20    11  43    5.7163   422.1    7.301      46.108
2015    2       20    11  48    5.7193   422.0    7.307      46.113
2015    2       20    11  53    5.7223   422.0    7.312      46.119
2015    2       20    11  58    5.7252   422.0    7.317      46.125
2015    2       20    12   3    5.7282   421.9    7.323      46.130
2015    2       20    12   8    5.7312   421.9    7.328      46.136
2015    2       20    12  14    5.7341   421.9    7.333      46.141
2015    2       20    12  19    5.7371   421.8    7.338      46.146
2015    2       20    12  24    5.7400   421.8    7.343      46.151
2015    2       20    12  29    5.7430   421.8    7.348      46.156
2015    2       20    12  34    5.7459   421.8    7.354      46.161
2015    2       20    12  40    5.7489   421.7    7.359      46.166
2015    2       20    12  45    5.7518   421.7    7.364      46.172
2015    2       20    12  50    5.7548   421.7    7.369      46.176
2015    2       20    12  55    5.7577   421.7    7.374      46.181
2015    2       20    13   0    5.7607   421.6    7.379      46.187
2015    2       20    13   5    5.7636   421.6    7.385      46.192
2015    2       20    13  11    5.7666   421.6    7.390      46.197
2015    2       20    13  16    5.7695   421.6    7.395      46.202
2015    2       20    13  21    5.7725   421.6    7.400      46.207
2015    2       20    13  26    5.7755   421.5    7.406      46.212
2015    2       20    13  31    5.7784   421.5    7.411      46.218
2015    2       20    13  37    5.7814   421.5    7.416      46.223
2015    2       20    13  42    5.7843   421.5    7.421      46.228
2015    2       20    13  47    5.7873   421.5    7.427      46.234
2015    2       20    13  52    5.7903   421.4    7.432      46.239
2015    2       20    13  57    5.7932   421.4    7.437      46.245
2015    2       20    14   2    5.7962   421.4    7.443      46.251
2015    2       20    14   8    5.7992   421.4    7.448      46.257
2015    2       20    14  13    5.8022   421.4    7.454      46.263
2015    2       20    14  18    5.8052   421.4    7.459      46.269
2015    2       20    14  23    5.8082   421.3    7.465      46.276
2015    2       20    14  28    5.8112   421.3    7.471      46.282
2015    2       20    14  33    5.8142   421.3    7.476      46.289
2015    2       20    14  39    5.8172   421.3    7.482      46.297
2015    2       20    14  44    5.8202   421.3    7.488      46.304
2015    2       20    14  49    5.8232   421.3    7.493      46.312
2015    2       20    14  54    5.8262   421.3    7.499      46.320
2015    2       20    14  59    5.8291   421.3    7.505      46.329
2015    2       20    15   5    5.8321   421.2    7.510      46.338
2015    2       20    15  10    5.8351   421.2    7.516      46.347
2015    2       20    15  15    5.8380   421.2    7.521      46.356
2015    2       20    15  20    5.8411   421.2    7.527      46.365
2015    2       20    15  25    5.8440   421.2    7.532      46.374
2015    2       20    15  30    5.8469   421.2    7.538      46.384
2015    2       20    15  36    5.8498   421.2    7.543      46.394
2015    2       20    15  41    5.8527   421.2    7.548      46.404
2015    2       20    15  46    5.8555   421.2    7.554      46.414
2015    2       20    15  51    5.8584   421.2    7.559      46.424
2015    2       20    15  56    5.8613   421.2    7.564      46.434
2015    2       20    16   1    5.8641   421.2    7.569      46.444
2015    2       20    16   7    5.8668   421.2    7.574      46.455
2015    2       20    16  12    5.8697   421.2    7.579      46.465
2015    2       20    16  17    5.8724   421.2    7.584      46.475
2015    2       20    16  22    5.8752   421.2    7.588      46.485
2015    2       20    16  27    5.8780   421.2    7.593      46.495
2015    2       20    16  33    5.8807   421.2    7.597      46.505
2015    2       20    16  38    5.8833   421.2    7.602      46.514
2015    2       20    16  43    5.8861   421.2    7.606      46.524
2015    2       20    16  48    5.8887   421.2    7.610      46.534
2015    2       20    16  53    5.8914   421.2    7.615      46.543
2015    2       20    16  58    5.8940   421.2    7.619      46.553
2015    2       20    17   4    5.8966   421.2    7.623      46.562
2015    2       20    17   9    5.8992   421.2    7.627      46.571
2015    2       20    17  14    5.9017   421.2    7.631      46.580
2015    2       20    17  19    5.9043   421.2    7.634      46.589
2015    2       20    17  24    5.9069   421.2    7.638      46.597
2015    2       20    17  29    5.9094   421.2    7.642      46.606
2015    2       20    17  35    5.9121   421.2    7.646      46.614
2015    2       20    17  40    5.9146   421.2    7.649      46.622
2015    2       20    17  45    5.9171   421.2    7.653      46.629
2015    2       20    17  50    5.9196   421.2    7.656      46.637
2015    2       20    17  55    5.9221   421.2    7.660      46.644
2015    2       20    18   1    5.9245   421.2    7.663      46.651
2015    2       20    18   6    5.9271   421.2    7.666      46.658
2015    2       20    18  11    5.9295   421.3    7.670      46.664
2015    2       20    18  16    5.9320   421.3    7.673      46.671
2015    2       20    18  21    5.9345   421.3    7.676      46.677
2015    2       20    18  26    5.9370   421.3    7.679      46.683
2015    2       20    18  32    5.9394   421.3    7.682      46.689
2015    2       20    18  37    5.9420   421.3    7.685      46.695
2015    2       20    18  42    5.9444   421.3    7.689      46.700
2015    2       20    18  47    5.9468   421.3    7.692      46.706
2015    2       20    18  52    5.9493   421.3    7.695      46.711
2015    2       20    18  57    5.9517   421.3    7.698      46.716
2015    2       20    19   3    5.9542   421.3    7.701      46.721
2015    2       20    19   8    5.9567   421.3    7.704      46.726
2015    2       20    19  13    5.9592   421.3    7.707      46.731
2015    2       20    19  18    5.9616   421.3    7.710      46.736
2015    2       20    19  23    5.9641   421.3    7.713      46.741
2015    2       20    19  29    5.9665   421.3    7.716      46.746
2015    2       20    19  34    5.9690   421.4    7.719      46.751
2015    2       20    19  39    5.9715   421.4    7.722      46.756
2015    2       20    19  44    5.9740   421.4    7.725      46.761
2015    2       20    19  49    5.9764   421.4    7.728      46.765
2015    2       20    19  54    5.9789   421.4    7.731      46.770
2015    2       20    20   0    5.9815   421.4    7.734      46.775
2015    2       20    20   5    5.9839   421.4    7.737      46.780
2015    2       20    20  10    5.9864   421.4    7.740      46.785
2015    2       20    20  15    5.9890   421.4    7.743      46.791
2015    2       20    20  20    5.9915   421.4    7.747      46.796
2015    2       20    20  25    5.9940   421.5    7.750      46.801
2015    2       20    20  31    5.9965   421.5    7.753      46.807
2015    2       20    20  36    5.9991   421.5    7.756      46.813
2015    2       20    20  41    6.0017   421.5    7.760      46.818
2015    2       20    20  46    6.0042   421.5    7.763      46.824
2015    2       20    20  51    6.0067   421.5    7.767      46.830
2015    2       20    20  57    6.0094   421.5    7.770      46.836
2015    2       20    21   2    6.0119   421.6    7.774      46.842
2015    2       20    21   7    6.0145   421.6    7.777      46.849
2015    2       20    21  12    6.0171   421.6    7.781      46.855
2015    2       20    21  17    6.0197   421.6    7.785      46.862
2015    2       20    21  22    6.0223   421.6    7.789      46.869
2015    2       20    21  28    6.0250   421.6    7.793      46.876
2015    2       20    21  33    6.0275   421.7    7.797      46.883
2015    2       20    21  38    6.0302   421.7    7.801      46.891
2015    2       20    21  43    6.0328   421.7    7.805      46.898
2015    2       20    21  48    6.0354   421.7    7.809      46.906
2015    2       20    21  53    6.0379   421.7    7.814      46.915
2015    2       20    21  59    6.0406   421.8    7.818      46.924
2015    2       20    22   4    6.0431   421.8    7.822      46.933
2015    2       20    22   9    6.0457   421.8    7.826      46.943
2015    2       20    22  14    6.0482   421.8    7.831      46.954
2015    2       20    22  19    6.0507   421.9    7.835      46.965
2015    2       20    22  25    6.0532   421.9    7.839      46.976
2015    2       20    22  30    6.0558   421.9    7.843      46.987
2015    2       20    22  35    6.0582   422.0    7.847      46.999
2015    2       20    22  40    6.0606   422.0    7.851      47.011
2015    2       20    22  45    6.0630   422.0    7.855      47.023
2015    2       20    22  50    6.0655   422.0    7.859      47.035
2015    2       20    22  56    6.0678   422.1    7.863      47.047
2015    2       20    23   1    6.0702   422.1    7.866      47.060
2015    2       20    23   6    6.0725   422.1    7.870      47.072
2015    2       20    23  11    6.0747   422.2    7.873      47.085
2015    2       20    23  16    6.0771   422.2    7.877      47.097
2015    2       20    23  21    6.0793   422.2    7.880      47.109
2015    2       20    23  27    6.0815   422.3    7.883      47.122
2015    2       20    23  32    6.0837   422.3    7.886      47.134
2015    2       20    23  37    6.0859   422.3    7.889      47.145
2015    2       20    23  42    6.0881   422.4    7.892      47.157
2015    2       20    23  47    6.0902   422.4    7.895      47.169
2015    2       20    23  53    6.0923   422.4    7.897      47.180
2015    2       20    23  58    6.0945   422.5    7.900      47.192
2015    2       21     0   3    6.0965   422.5    7.903      47.203
2015    2       21     0   8    6.0986   422.5    7.905      47.214
2015    2       21     0  13    6.1006   422.5    7.907      47.225
2015    2       21     0  18    6.1027   422.6    7.910      47.235
2015    2       21     0  24    6.1048   422.6    7.912      47.246
2015    2       21     0  29    6.1068   422.6    7.914      47.256
2015    2       21     0  34    6.1087   422.7    7.916      47.266
2015    2       21     0  39    6.1108   422.7    7.918      47.275
2015    2       21     0  44    6.1127   422.7    7.920      47.285
2015    2       21     0  49    6.1147   422.8    7.922      47.294
2015    2       21     0  55    6.1167   422.8    7.924      47.303
2015    2       21     1   0    6.1186   422.8    7.925      47.312
2015    2       21     1   5    6.1205   422.9    7.927      47.320
2015    2       21     1  10    6.1225   422.9    7.929      47.328
2015    2       21     1  15    6.1244   422.9    7.930      47.336
2015    2       21     1  21    6.1263   423.0    7.932      47.344
2015    2       21     1  26    6.1282   423.0    7.933      47.352
2015    2       21     1  31    6.1302   423.0    7.935      47.359
2015    2       21     1  36    6.1320   423.1    7.936      47.366
2015    2       21     1  41    6.1339   423.1    7.937      47.373
2015    2       21     1  46    6.1358   423.1    7.939      47.380
2015    2       21     1  52    6.1376   423.1    7.940      47.387
2015    2       21     1  57    6.1395   423.2    7.941      47.394
2015    2       21     2   2    6.1414   423.2    7.942      47.401
2015    2       21     2   7    6.1433   423.2    7.943      47.407
2015    2       21     2  12    6.1452   423.3    7.945      47.413
2015    2       21     2  18    6.1470   423.3    7.946      47.419
2015    2       21     2  23    6.1488   423.3    7.947      47.426
2015    2       21     2  28    6.1507   423.4    7.948      47.432
2015    2       21     2  33    6.1525   423.4    7.949      47.438
2015    2       21     2  38    6.1544   423.4    7.950      47.444
2015    2       21     2  43    6.1562   423.5    7.951      47.450
2015    2       21     2  49    6.1581   423.5    7.952      47.457
2015    2       21     2  54    6.1599   423.5    7.953      47.463
2015    2       21     2  59    6.1618   423.6    7.954      47.469
2015    2       21     3   4    6.1637   423.6    7.956      47.475
2015    2       21     3   9    6.1654   423.6    7.957      47.482
2015    2       21     3  14    6.1673   423.7    7.958      47.488
2015    2       21     3  20    6.1692   423.7    7.959      47.495
2015    2       21     3  25    6.1710   423.7    7.960      47.501
2015    2       21     3  30    6.1728   423.8    7.961      47.508
2015    2       21     3  35    6.1746   423.8    7.962      47.515
2015    2       21     3  40    6.1764   423.8    7.964      47.522
2015    2       21     3  46    6.1783   423.9    7.965      47.529
2015    2       21     3  51    6.1801   423.9    7.966      47.536
2015    2       21     3  56    6.1819   424.0    7.967      47.544
2015    2       21     4   1    6.1838   424.0    7.969      47.551
2015    2       21     4   6    6.1855   424.0    7.970      47.559
2015    2       21     4  11    6.1873   424.1    7.971      47.566
2015    2       21     4  17    6.1891   424.1    7.973      47.574
2015    2       21     4  22    6.1910   424.2    7.974      47.582
2015    2       21     4  27    6.1928   424.2    7.976      47.590
2015    2       21     4  32    6.1947   424.2    7.977      47.598
2015    2       21     4  37    6.1964   424.3    7.979      47.607
2015    2       21     4  42    6.1982   424.3    7.980      47.615
2015    2       21     4  48    6.2001   424.4    7.982      47.624
2015    2       21     4  53    6.2018   424.4    7.984      47.633
2015    2       21     4  58    6.2036   424.4    7.985      47.641
2015    2       21     5   3    6.2054   424.5    7.987      47.650
2015    2       21     5   8    6.2073   424.5    7.989      47.659
2015    2       21     5  14    6.2091   424.6    7.991      47.669
2015    2       21     5  19    6.2110   424.6    7.992      47.678
2015    2       21     5  24    6.2127   424.7    7.994      47.688
2015    2       21     5  29    6.2146   424.7    7.996      47.698
2015    2       21     5  34    6.2164   424.7    7.998      47.708
2015    2       21     5  39    6.2182   424.8    8.000      47.719
2015    2       21     5  45    6.2199   424.8    8.002      47.729
2015    2       21     5  50    6.2217   424.9    8.004      47.740
2015    2       21     5  55    6.2234   424.9    8.006      47.752
2015    2       21     6   0    6.2252   425.0    8.008      47.763
2015    2       21     6   5    6.2271   425.0    8.010      47.775
2015    2       21     6  10    6.2288   425.1    8.012      47.786
2015    2       21     6  16    6.2306   425.1    8.014      47.798
2015    2       21     6  21    6.2322   425.2    8.016      47.810
2015    2       21     6  26    6.2340   425.2    8.017      47.822
2015    2       21     6  31    6.2357   425.3    8.019      47.835
2015    2       21     6  36    6.2374   425.3    8.021      47.847
2015    2       21     6  42    6.2392   425.4    8.023      47.860
2015    2       21     6  47    6.2409   425.4    8.025      47.873
2015    2       21     6  52    6.2427   425.5    8.027      47.886
2015    2       21     6  57    6.2443   425.5    8.029      47.899
2015    2       21     7   2    6.2460   425.6    8.031      47.912
2015    2       21     7   7    6.2477   425.6    8.033      47.925
2015    2       21     7  13    6.2495   425.7    8.035      47.938
2015    2       21     7  18    6.2512   425.7    8.037      47.952
2015    2       21     7  23    6.2528   425.8    8.040      47.965
2015    2       21     7  28    6.2545   425.8    8.042      47.979
2015    2       21     7  33    6.2563   425.9    8.044      47.993
2015    2       21     7  38    6.2579   425.9    8.046      48.007
2015    2       21     7  44    6.2596   426.0    8.048      48.022
2015    2       21     7  49    6.2613   426.0    8.051      48.036
2015    2       21     7  54    6.2631   426.1    8.053      48.051
2015    2       21     7  59    6.2647   426.1    8.055      48.066
2015    2       21     8   4    6.2664   426.2    8.057      48.081
2015    2       21     8  10    6.2680   426.2    8.060      48.096
2015    2       21     8  15    6.2697   426.3    8.062      48.111
2015    2       21     8  20    6.2713   426.4    8.064      48.127
2015    2       21     8  25    6.2729   426.4    8.067      48.142
2015    2       21     8  30    6.2745   426.5    8.069      48.158
2015    2       21     8  35    6.2760   426.5    8.071      48.174
2015    2       21     8  41    6.2776   426.6    8.074      48.191
2015    2       21     8  46    6.2791   426.6    8.076      48.208
2015    2       21     8  51    6.2806   426.7    8.078      48.226
2015    2       21     8  56    6.2820   426.7    8.080      48.244
2015    2       21     9   1    6.2834   426.8    8.082      48.262
2015    2       21     9   6    6.2848   426.9    8.084      48.280
2015    2       21     9  12    6.2861   426.9    8.086      48.299
2015    2       21     9  17    6.2874   427.0    8.088      48.318
2015    2       21     9  22    6.2887   427.0    8.089      48.336
2015    2       21     9  27    6.2900   427.1    8.091      48.355
2015    2       21     9  32    6.2912   427.2    8.092      48.374
2015    2       21     9  38    6.2924   427.2    8.093      48.392
2015    2       21     9  43    6.2936   427.3    8.094      48.410
2015    2       21     9  48    6.2948   427.3    8.095      48.428
2015    2       21     9  53    6.2959   427.4    8.096      48.446
2015    2       21     9  58    6.2970   427.5    8.097      48.463
2015    2       21    10   3    6.2981   427.5    8.097      48.480
2015    2       21    10   9    6.2992   427.6    8.098      48.497
2015    2       21    10  14    6.3002   427.7    8.098      48.513
2015    2       21    10  19    6.3013   427.7    8.098      48.528
2015    2       21    10  24    6.3023   427.8    8.098      48.543
2015    2       21    10  29    6.3034   427.8    8.098      48.557
2015    2       21    10  34    6.3043   427.9    8.098      48.571
2015    2       21    10  40    6.3053   428.0    8.098      48.585
2015    2       21    10  45    6.3063   428.0    8.097      48.598
2015    2       21    10  50    6.3073   428.1    8.097      48.610
2015    2       21    10  55    6.3083   428.2    8.096      48.623
2015    2       21    11   0    6.3092   428.2    8.096      48.634
2015    2       21    11   6    6.3102   428.3    8.095      48.646
2015    2       21    11  11    6.3111   428.3    8.094      48.657
2015    2       21    11  16    6.3121   428.4    8.094      48.668
2015    2       21    11  21    6.3130   428.5    8.093      48.678
2015    2       21    11  26    6.3140   428.5    8.092      48.688
2015    2       21    11  31    6.3149   428.6    8.091      48.698
2015    2       21    11  37    6.3159   428.7    8.090      48.707
2015    2       21    11  42    6.3168   428.7    8.089      48.717
2015    2       21    11  47    6.3178   428.8    8.087      48.726
2015    2       21    11  52    6.3187   428.9    8.086      48.734
2015    2       21    11  57    6.3196   428.9    8.085      48.743
2015    2       21    12   2    6.3206   429.0    8.084      48.751
2015    2       21    12   8    6.3215   429.1    8.082      48.759
2015    2       21    12  13    6.3224   429.1    8.081      48.767
2015    2       21    12  18    6.3234   429.2    8.080      48.775
2015    2       21    12  23    6.3243   429.2    8.078      48.782
2015    2       21    12  28    6.3253   429.3    8.077      48.790
2015    2       21    12  34    6.3262   429.4    8.075      48.797
2015    2       21    12  39    6.3272   429.4    8.074      48.804
2015    2       21    12  44    6.3281   429.5    8.072      48.812
2015    2       21    12  49    6.3290   429.6    8.071      48.819
2015    2       21    12  54    6.3300   429.6    8.069      48.826
2015    2       21    12  59    6.3310   429.7    8.068      48.833
2015    2       21    13   5    6.3319   429.8    8.067      48.840
2015    2       21    13  10    6.3329   429.8    8.065      48.847
2015    2       21    13  15    6.3338   429.9    8.064      48.854
2015    2       21    13  20    6.3348   430.0    8.062      48.861
2015    2       21    13  25    6.3358   430.0    8.061      48.868
2015    2       21    13  31    6.3368   430.1    8.060      48.875
2015    2       21    13  36    6.3378   430.2    8.058      48.882
2015    2       21    13  41    6.3388   430.2    8.057      48.890
2015    2       21    13  46    6.3398   430.3    8.056      48.898
2015    2       21    13  51    6.3408   430.4    8.055      48.905
2015    2       21    13  56    6.3418   430.4    8.054      48.913
2015    2       21    14   2    6.3428   430.5    8.053      48.922
2015    2       21    14   7    6.3439   430.6    8.052      48.930
2015    2       21    14  12    6.3449   430.7    8.051      48.939
2015    2       21    14  17    6.3459   430.7    8.051      48.948
2015    2       21    14  22    6.3470   430.8    8.050      48.957
2015    2       21    14  27    6.3480   430.9    8.050      48.967
2015    2       21    14  33    6.3491   430.9    8.049      48.977
2015    2       21    14  38    6.3502   431.0    8.049      48.988
2015    2       21    14  43    6.3512   431.1    8.049      48.999
2015    2       21    14  48    6.3523   431.1    8.049      49.011
2015    2       21    14  53    6.3533   431.2    8.050      49.023
2015    2       21    14  59    6.3544   431.3    8.050      49.036
2015    2       21    15   4    6.3555   431.4    8.050      49.050
2015    2       21    15   9    6.3566   431.4    8.051      49.064
2015    2       21    15  14    6.3577   431.5    8.052      49.079
2015    2       21    15  19    6.3587   431.6    8.052      49.094
2015    2       21    15  24    6.3598   431.7    8.053      49.110
2015    2       21    15  30    6.3609   431.8    8.054      49.127
2015    2       21    15  35    6.3619   431.8    8.055      49.144
2015    2       21    15  40    6.3629   431.9    8.056      49.161
2015    2       21    15  45    6.3640   432.0    8.058      49.179
2015    2       21    15  50    6.3649   432.1    8.059      49.198
2015    2       21    15  55    6.3658   432.1    8.060      49.216
2015    2       21    16   1    6.3667   432.2    8.062      49.236
2015    2       21    16   6    6.3677   432.3    8.063      49.256
2015    2       21    16  11    6.3685   432.4    8.065      49.277
2015    2       21    16  16    6.3694   432.5    8.066      49.299
2015    2       21    16  21    6.3701   432.5    8.068      49.321
2015    2       21    16  27    6.3710   432.6    8.069      49.344
2015    2       21    16  32    6.3717   432.7    8.071      49.368
2015    2       21    16  37    6.3724   432.8    8.072      49.392
2015    2       21    16  42    6.3731   432.9    8.073      49.417
2015    2       21    16  47    6.3737   433.0    8.075      49.442
2015    2       21    16  52    6.3743   433.1    8.076      49.468
2015    2       21    16  58    6.3748   433.1    8.077      49.493
2015    2       21    17   3    6.3754   433.2    8.077      49.519
2015    2       21    17   8    6.3758   433.3    8.078      49.545
2015    2       21    17  13    6.3764   433.4    8.078      49.570
2015    2       21    17  18    6.3768   433.5    8.078      49.596
2015    2       21    17  23    6.3772   433.6    8.078      49.621
2015    2       21    17  29    6.3776   433.7    8.078      49.645
2015    2       21    17  34    6.3779   433.8    8.078      49.670
2015    2       21    17  39    6.3782   433.9    8.077      49.694
2015    2       21    17  44    6.3786   433.9    8.077      49.717
2015    2       21    17  49    6.3788   434.0    8.076      49.739
2015    2       21    17  55    6.3790   434.1    8.075      49.761
2015    2       21    18   0    6.3793   434.2    8.073      49.782
2015    2       21    18   5    6.3795   434.3    8.072      49.802
2015    2       21    18  10    6.3797   434.4    8.070      49.821
2015    2       21    18  15    6.3798   434.5    8.068      49.840
2015    2       21    18  20    6.3800   434.6    8.066      49.858
2015    2       21    18  26    6.3800   434.7    8.064      49.876
2015    2       21    18  31    6.3801   434.8    8.062      49.893
2015    2       21    18  36    6.3803   434.9    8.060      49.909
2015    2       21    18  41    6.3803   435.0    8.057      49.925
2015    2       21    18  46    6.3804   435.1    8.055      49.940
2015    2       21    18  51    6.3803   435.2    8.052      49.955
2015    2       21    18  57    6.3803   435.3    8.049      49.969
2015    2       21    19   2    6.3804   435.4    8.046      49.983
2015    2       21    19   7    6.3803   435.5    8.043      49.996
2015    2       21    19  12    6.3802   435.6    8.040      50.009
2015    2       21    19  17    6.3802   435.7    8.037      50.022
2015    2       21    19  23    6.3800   435.8    8.033      50.034
2015    2       21    19  28    6.3798   435.9    8.030      50.046
2015    2       21    19  33    6.3797   436.0    8.026      50.057
2015    2       21    19  38    6.3795   436.1    8.023      50.068
2015    2       21    19  43    6.3793   436.2    8.019      50.079
2015    2       21    19  48    6.3790   436.3    8.015      50.090
2015    2       21    19  54    6.3788   436.4    8.011      50.100
2015    2       21    19  59    6.3784   436.5    8.007      50.110
2015    2       21    20   4    6.3781   436.6    8.003      50.120
2015    2       21    20   9    6.3779   436.7    7.999      50.129
2015    2       21    20  14    6.3776   436.8    7.995      50.139
2015    2       21    20  19    6.3771   436.9    7.991      50.148
2015    2       21    20  25    6.3766   437.0    7.987      50.156
2015    2       21    20  30    6.3762   437.1    7.982      50.165
2015    2       21    20  35    6.3758   437.2    7.978      50.173
2015    2       21    20  40    6.3754   437.3    7.974      50.181
2015    2       21    20  45    6.3748   437.4    7.969      50.189
2015    2       21    20  51    6.3742   437.5    7.965      50.196
2015    2       21    20  56    6.3738   437.6    7.961      50.203
2015    2       21    21   1    6.3732   437.7    7.956      50.210
2015    2       21    21   6    6.3726   437.8    7.952      50.217
2015    2       21    21  11    6.3720   437.9    7.947      50.223
2015    2       21    21  16    6.3712   438.0    7.943      50.229
2015    2       21    21  22    6.3707   438.1    7.938      50.235
2015    2       21    21  27    6.3700   438.2    7.934      50.240
2015    2       21    21  32    6.3692   438.3    7.929      50.246
2015    2       21    21  37    6.3685   438.4    7.925      50.251
2015    2       21    21  42    6.3677   438.5    7.921      50.256
2015    2       21    21  47    6.3667   438.6    7.916      50.261
2015    2       21    21  53    6.3659   438.7    7.912      50.265
2015    2       21    21  58    6.3652   438.8    7.907      50.270
2015    2       21    22   3    6.3641   438.9    7.903      50.274
2015    2       21    22   8    6.3634   439.1    7.899      50.279
2015    2       21    22  13    6.3623   439.2    7.894      50.283
2015    2       21    22  19    6.3616   439.3    7.890      50.288
2015    2       21    22  24    6.3606   439.4    7.886      50.292
2015    2       21    22  29    6.3596   439.5    7.882      50.296
2015    2       21    22  34    6.3584   439.6    7.877      50.301
2015    2       21    22  39    6.3573   439.7    7.873      50.305
2015    2       21    22  44    6.3565   439.8    7.869      50.309
2015    2       21    22  50    6.3555   439.9    7.865      50.313
2015    2       21    22  55    6.3544   440.0    7.860      50.316
2015    2       21    23   0    6.3530   440.1    7.856      50.320
2015    2       21    23   5    6.3521   440.2    7.852      50.324
2015    2       21    23  10    6.3509   440.3    7.848      50.328
2015    2       21    23  16    6.3495   440.4    7.844      50.331
2015    2       21    23  21    6.3485   440.5    7.840      50.334
2015    2       21    23  26    6.3472   440.6    7.836      50.338
2015    2       21    23  31    6.3457   440.7    7.832      50.341
2015    2       21    23  36    6.3444   440.8    7.828      50.345
2015    2       21    23  41    6.3430   440.9    7.824      50.349
2015    2       21    23  47    6.3417   441.0    7.820      50.353
2015    2       21    23  52    6.3403   441.1    7.815      50.358
2015    2       21    23  57    6.3389   441.2    7.811      50.363
2015    2       22     0   2    6.3377   441.3    7.807      50.367
2015    2       22     0   7    6.3362   441.4    7.803      50.372
2015    2       22     0  12    6.3347   441.5    7.799      50.377
2015    2       22     0  18    6.3332   441.6    7.794      50.381
2015    2       22     0  23    6.3316   441.7    7.790      50.385
2015    2       22     0  28    6.3300   441.8    7.785      50.390
2015    2       22     0  33    6.3284   441.9    7.780      50.394
2015    2       22     0  38    6.3265   442.0    7.776      50.398
2015    2       22     0  44    6.3251   442.1    7.771      50.401
2015    2       22     0  49    6.3231   442.2    7.766      50.405
2015    2       22     0  54    6.3216   442.3    7.761      50.408
2015    2       22     0  59    6.3196   442.4    7.755      50.410
2015    2       22     1   4    6.3181   442.5    7.750      50.412
2015    2       22     1   9    6.3163   442.6    7.745      50.413
2015    2       22     1  15    6.3142   442.7    7.739      50.414
2015    2       22     1  20    6.3127   442.8    7.734      50.414
2015    2       22     1  25    6.3108   442.9    7.728      50.414
2015    2       22     1  30    6.3086   443.0    7.722      50.413
2015    2       22     1  35    6.3070   443.1    7.716      50.412
2015    2       22     1  40    6.3048   443.2    7.710      50.410
2015    2       22     1  46    6.3028   443.3    7.704      50.407
2015    2       22     1  51    6.3008   443.4    7.698      50.405
2015    2       22     1  56    6.2988   443.5    7.692      50.401
2015    2       22     2   1    6.2967   443.6    7.686      50.398
2015    2       22     2   6    6.2946   443.6    7.679      50.393
2015    2       22     2  12    6.2925   443.7    7.673      50.389
2015    2       22     2  17    6.2907   443.8    7.666      50.383
2015    2       22     2  22    6.2883   443.9    7.660      50.378
2015    2       22     2  27    6.2861   444.0    7.653      50.372
2015    2       22     2  32    6.2841   444.1    7.646      50.366
2015    2       22     2  37    6.2816   444.2    7.639      50.359
2015    2       22     2  43    6.2793   444.3    7.633      50.352
2015    2       22     2  48    6.2773   444.4    7.626      50.344
2015    2       22     2  53    6.2747   444.5    7.619      50.337
2015    2       22     2  58    6.2723   444.6    7.612      50.329
2015    2       22     3   3    6.2699   444.7    7.604      50.320
2015    2       22     3   8    6.2678   444.8    7.597      50.312
2015    2       22     3  14    6.2653   444.9    7.590      50.303
2015    2       22     3  19    6.2628   445.0    7.583      50.293
2015    2       22     3  24    6.2603   445.1    7.575      50.284
2015    2       22     3  29    6.2575   445.2    7.568      50.274
2015    2       22     3  34    6.2549   445.3    7.561      50.264
2015    2       22     3  40    6.2523   445.4    7.553      50.254
2015    2       22     3  45    6.2499   445.5    7.546      50.243
2015    2       22     3  50    6.2469   445.6    7.538      50.232
2015    2       22     3  55    6.2443   445.7    7.531      50.221
2015    2       22     4   0    6.2418   445.8    7.523      50.209
2015    2       22     4   5    6.2390   445.9    7.515      50.197
2015    2       22     4  11    6.2362   446.0    7.508      50.184
2015    2       22     4  16    6.2331   446.1    7.500      50.172
2015    2       22     4  21    6.2303   446.1    7.492      50.158
2015    2       22     4  26    6.2274   446.2    7.485      50.145
2015    2       22     4  31    6.2248   446.3    7.477      50.130
2015    2       22     4  36    6.2216   446.4    7.469      50.116
2015    2       22     4  42    6.2189   446.5    7.461      50.101
2015    2       22     4  47    6.2156   446.6    7.453      50.085
2015    2       22     4  52    6.2126   446.7    7.445      50.069
2015    2       22     4  57    6.2096   446.8    7.437      50.053
2015    2       22     5   2    6.2065   446.9    7.429      50.036
2015    2       22     5   8    6.2035   447.0    7.422      50.018
2015    2       22     5  13    6.2004   447.1    7.414      50.000
2015    2       22     5  18    6.1975   447.1    7.406      49.982
2015    2       22     5  23    6.1941   447.2    7.398      49.963
2015    2       22     5  28    6.1912   447.3    7.390      49.944
2015    2       22     5  33    6.1878   447.4    7.382      49.924
2015    2       22     5  39    6.1848   447.5    7.374      49.904
2015    2       22     5  44    6.1814   447.6    7.366      49.883
2015    2       22     5  49    6.1781   447.7    7.357      49.862
2015    2       22     5  54    6.1749   447.7    7.349      49.841
2015    2       22     5  59    6.1719   447.8    7.341      49.819
2015    2       22     6   4    6.1686   447.9    7.333      49.796
2015    2       22     6  10    6.1651   448.0    7.325      49.773
2015    2       22     6  15    6.1618   448.1    7.317      49.750
2015    2       22     6  20    6.1588   448.1    7.309      49.726
2015    2       22     6  25    6.1554   448.2    7.301      49.702
2015    2       22     6  30    6.1519   448.3    7.293      49.677
2015    2       22     6  36    6.1488   448.4    7.285      49.652
2015    2       22     6  41    6.1455   448.4    7.277      49.627
2015    2       22     6  46    6.1419   448.5    7.268      49.601
2015    2       22     6  51    6.1388   448.6    7.260      49.575
2015    2       22     6  56    6.1352   448.7    7.252      49.548
2015    2       22     7   1    6.1320   448.7    7.244      49.522
2015    2       22     7   7    6.1284   448.8    7.236      49.494
2015    2       22     7  12    6.1251   448.9    7.228      49.467
2015    2       22     7  17    6.1219   448.9    7.220      49.438
2015    2       22     7  22    6.1185   449.0    7.212      49.410
2015    2       22     7  27    6.1149   449.1    7.204      49.382
2015    2       22     7  32    6.1115   449.1    7.196      49.352
2015    2       22     7  38    6.1081   449.2    7.188      49.323
2015    2       22     7  43    6.1048   449.3    7.180      49.293
2015    2       22     7  48    6.1012   449.3    7.172      49.263
2015    2       22     7  53    6.0978   449.4    7.164      49.233
2015    2       22     7  58    6.0945   449.5    7.156      49.202
2015    2       22     8   4    6.0909   449.5    7.148      49.171
2015    2       22     8   9    6.0877   449.6    7.140      49.140
2015    2       22     8  14    6.0842   449.6    7.132      49.108
2015    2       22     8  19    6.0806   449.7    7.124      49.076
2015    2       22     8  24    6.0773   449.8    7.116      49.044
2015    2       22     8  29    6.0738   449.8    7.108      49.011
2015    2       22     8  35    6.0703   449.9    7.100      48.978
2015    2       22     8  40    6.0667   449.9    7.093      48.945
2015    2       22     8  45    6.0633   450.0    7.085      48.911
2015    2       22     8  50    6.0598   450.0    7.077      48.878
2015    2       22     8  55    6.0562   450.1    7.069      48.844
2015    2       22     9   1    6.0528   450.1    7.062      48.809
2015    2       22     9   6    6.0493   450.2    7.054      48.775
2015    2       22     9  11    6.0458   450.2    7.047      48.740
2015    2       22     9  16    6.0421   450.3    7.039      48.705
2015    2       22     9  21    6.0387   450.3    7.032      48.670
2015    2       22     9  26    6.0352   450.4    7.024      48.634
2015    2       22     9  32    6.0316   450.4    7.017      48.599
2015    2       22     9  37    6.0279   450.5    7.009      48.563
2015    2       22     9  42    6.0244   450.5    7.002      48.527
2015    2       22     9  47    6.0209   450.5    6.995      48.491
2015    2       22     9  52    6.0172   450.6    6.988      48.454
2015    2       22     9  57    6.0137   450.6    6.981      48.418
2015    2       22    10   3    6.0101   450.7    6.974      48.382
2015    2       22    10   8    6.0065   450.7    6.967      48.345
2015    2       22    10  13    6.0030   450.7    6.960      48.308
2015    2       22    10  18    5.9993   450.8    6.953      48.272
2015    2       22    10  23    5.9957   450.8    6.946      48.235
2015    2       22    10  29    5.9921   450.8    6.940      48.198
2015    2       22    10  34    5.9886   450.9    6.933      48.162
2015    2       22    10  39    5.9850   450.9    6.926      48.125
2015    2       22    10  44    5.9813   450.9    6.920      48.088
2015    2       22    10  49    5.9778   451.0    6.914      48.052
2015    2       22    10  54    5.9741   451.0    6.907      48.015
2015    2       22    11   0    5.9705   451.0    6.901      47.979
2015    2       22    11   5    5.9669   451.1    6.895      47.942
2015    2       22    11  10    5.9634   451.1    6.889      47.906
2015    2       22    11  15    5.9597   451.1    6.883      47.870
2015    2       22    11  20    5.9562   451.2    6.877      47.833
2015    2       22    11  25    5.9526   451.2    6.871      47.797
2015    2       22    11  31    5.9489   451.2    6.865      47.761
2015    2       22    11  36    5.9454   451.2    6.859      47.725
2015    2       22    11  41    5.9418   451.3    6.853      47.689
2015    2       22    11  46    5.9382   451.3    6.847      47.652
2015    2       22    11  51    5.9346   451.3    6.842      47.616
2015    2       22    11  57    5.9310   451.3    6.836      47.580
2015    2       22    12   2    5.9275   451.3    6.831      47.544
2015    2       22    12   7    5.9240   451.4    6.825      47.508
2015    2       22    12  12    5.9204   451.4    6.820      47.472
2015    2       22    12  17    5.9169   451.4    6.814      47.436
2015    2       22    12  22    5.9133   451.4    6.809      47.400
2015    2       22    12  28    5.9098   451.4    6.804      47.365
2015    2       22    12  33    5.9064   451.4    6.799      47.329
2015    2       22    12  38    5.9029   451.5    6.794      47.293
2015    2       22    12  43    5.8994   451.5    6.789      47.258
2015    2       22    12  48    5.8960   451.5    6.784      47.222
2015    2       22    12  53    5.8926   451.5    6.779      47.188
2015    2       22    12  59    5.8892   451.5    6.774      47.153
2015    2       22    13   4    5.8858   451.5    6.769      47.119
2015    2       22    13   9    5.8825   451.5    6.764      47.085
2015    2       22    13  14    5.8791   451.5    6.759      47.051
2015    2       22    13  19    5.8758   451.6    6.755      47.018
2015    2       22    13  25    5.8725   451.6    6.750      46.984
2015    2       22    13  30    5.8693   451.6    6.745      46.951
2015    2       22    13  35    5.8660   451.6    6.740      46.917
2015    2       22    13  40    5.8628   451.6    6.735      46.884
2015    2       22    13  45    5.8595   451.6    6.731      46.850
2015    2       22    13  50    5.8563   451.6    6.726      46.816
2015    2       22    13  56    5.8532   451.6    6.721      46.783
2015    2       22    14   1    5.8500   451.6    6.716      46.749
2015    2       22    14   6    5.8469   451.7    6.711      46.715
2015    2       22    14  11    5.8438   451.7    6.706      46.681
2015    2       22    14  16    5.8406   451.7    6.701      46.646
2015    2       22    14  21    5.8376   451.7    6.696      46.612
2015    2       22    14  27    5.8346   451.7    6.692      46.577
2015    2       22    14  32    5.8315   451.7    6.687      46.541
2015    2       22    14  37    5.8285   451.7    6.682      46.506
2015    2       22    14  42    5.8253   451.7    6.677      46.470
2015    2       22    14  47    5.8223   451.7    6.672      46.434
2015    2       22    14  53    5.8193   451.7    6.667      46.398
2015    2       22    14  58    5.8164   451.7    6.662      46.362
2015    2       22    15   3    5.8133   451.7    6.657      46.325
2015    2       22    15   8    5.8105   451.7    6.652      46.288
2015    2       22    15  13    5.8075   451.7    6.647      46.251
2015    2       22    15  18    5.8045   451.7    6.642      46.214
2015    2       22    15  24    5.8015   451.7    6.637      46.176
2015    2       22    15  29    5.7987   451.7    6.632      46.139
2015    2       22    15  34    5.7956   451.7    6.628      46.101
2015    2       22    15  39    5.7928   451.7    6.623      46.063
2015    2       22    15  44    5.7898   451.7    6.618      46.025
2015    2       22    15  49    5.7870   451.7    6.613      45.987
2015    2       22    15  55    5.7839   451.7    6.609      45.949
2015    2       22    16   0    5.7812   451.7    6.604      45.911
2015    2       22    16   5    5.7783   451.7    6.599      45.872
2015    2       22    16  10    5.7754   451.7    6.595      45.834
2015    2       22    16  15    5.7724   451.7    6.590      45.795
2015    2       22    16  21    5.7695   451.7    6.586      45.757
2015    2       22    16  26    5.7668   451.7    6.581      45.718
2015    2       22    16  31    5.7639   451.7    6.577      45.680
2015    2       22    16  36    5.7609   451.7    6.573      45.641
2015    2       22    16  41    5.7580   451.6    6.568      45.602
2015    2       22    16  46    5.7553   451.6    6.564      45.564
2015    2       22    16  52    5.7523   451.6    6.560      45.525
2015    2       22    16  57    5.7495   451.6    6.556      45.487
2015    2       22    17   2    5.7468   451.6    6.552      45.448
2015    2       22    17   7    5.7440   451.6    6.548      45.410
2015    2       22    17  12    5.7412   451.6    6.544      45.372
2015    2       22    17  18    5.7382   451.6    6.541      45.334
2015    2       22    17  23    5.7354   451.6    6.537      45.295
2015    2       22    17  28    5.7328   451.5    6.533      45.258
2015    2       22    17  33    5.7300   451.5    6.530      45.220
2015    2       22    17  38    5.7272   451.5    6.527      45.182
2015    2       22    17  43    5.7243   451.5    6.523      45.145
2015    2       22    17  49    5.7215   451.5    6.520      45.108
2015    2       22    17  54    5.7188   451.5    6.517      45.071
2015    2       22    17  59    5.7162   451.4    6.514      45.035
2015    2       22    18   4    5.7134   451.4    6.511      44.998
2015    2       22    18   9    5.7107   451.4    6.509      44.962
2015    2       22    18  14    5.7082   451.4    6.506      44.927
2015    2       22    18  20    5.7055   451.4    6.503      44.891
2015    2       22    18  25    5.7028   451.3    6.501      44.856
2015    2       22    18  30    5.7002   451.3    6.498      44.822
2015    2       22    18  35    5.6976   451.3    6.496      44.787
2015    2       22    18  40    5.6948   451.3    6.494      44.753
2015    2       22    18  46    5.6924   451.3    6.492      44.719
2015    2       22    18  51    5.6898   451.2    6.490      44.686
2015    2       22    18  56    5.6872   451.2    6.488      44.653
2015    2       22    19   1    5.6847   451.2    6.486      44.620
2015    2       22    19   6    5.6819   451.2    6.484      44.587
2015    2       22    19  11    5.6796   451.1    6.482      44.555
2015    2       22    19  17    5.6769   451.1    6.480      44.523
2015    2       22    19  22    5.6746   451.1    6.479      44.491
2015    2       22    19  27    5.6721   451.1    6.477      44.460
2015    2       22    19  32    5.6697   451.0    6.476      44.428
2015    2       22    19  37    5.6673   451.0    6.474      44.398
2015    2       22    19  42    5.6649   451.0    6.473      44.367
2015    2       22    19  48    5.6625   450.9    6.471      44.337
2015    2       22    19  53    5.6599   450.9    6.470      44.307
2015    2       22    19  58    5.6578   450.9    6.469      44.277
2015    2       22    20   3    5.6554   450.9    6.468      44.247
2015    2       22    20   8    5.6530   450.8    6.467      44.218
2015    2       22    20  14    5.6507   450.8    6.466      44.190
2015    2       22    20  19    5.6486   450.8    6.465      44.161
2015    2       22    20  24    5.6464   450.7    6.464      44.134
2015    2       22    20  29    5.6441   450.7    6.463      44.107
2015    2       22    20  34    5.6421   450.7    6.462      44.080
2015    2       22    20  39    5.6398   450.6    6.461      44.054
2015    2       22    20  45    5.6377   450.6    6.460      44.028
2015    2       22    20  50    5.6357   450.6    6.459      44.002
2015    2       22    20  55    5.6337   450.5    6.458      43.977
2015    2       22    21   0    5.6317   450.5    6.458      43.952
2015    2       22    21   5    5.6297   450.5    6.457      43.927
2015    2       22    21  10    5.6275   450.4    6.456      43.903
2015    2       22    21  16    5.6256   450.4    6.455      43.878
2015    2       22    21  21    5.6238   450.4    6.454      43.854
2015    2       22    21  26    5.6219   450.4    6.453      43.829
2015    2       22    21  31    5.6200   450.3    6.452      43.805
2015    2       22    21  36    5.6182   450.3    6.451      43.781
2015    2       22    21  42    5.6163   450.3    6.449      43.757
2015    2       22    21  47    5.6145   450.2    6.448      43.733
2015    2       22    21  52    5.6126   450.2    6.447      43.709
2015    2       22    21  57    5.6108   450.2    6.446      43.684
2015    2       22    22   2    5.6090   450.1    6.445      43.660
2015    2       22    22   7    5.6074   450.1    6.443      43.636
2015    2       22    22  13    5.6057   450.1    6.442      43.611
2015    2       22    22  18    5.6040   450.0    6.441      43.587
2015    2       22    22  23    5.6022   450.0    6.440      43.562
2015    2       22    22  28    5.6006   450.0    6.438      43.537
2015    2       22    22  33    5.5988   449.9    6.437      43.513
2015    2       22    22  38    5.5972   449.9    6.436      43.488
2015    2       22    22  44    5.5957   449.9    6.434      43.463
2015    2       22    22  49    5.5941   449.9    6.433      43.438
2015    2       22    22  54    5.5925   449.8    6.432      43.414
2015    2       22    22  59    5.5908   449.8    6.430      43.389
2015    2       22    23   4    5.5891   449.8    6.429      43.364
2015    2       22    23  10    5.5877   449.7    6.428      43.340
2015    2       22    23  15    5.5861   449.7    6.426      43.315
2015    2       22    23  20    5.5845   449.7    6.425      43.291
2015    2       22    23  25    5.5829   449.6    6.424      43.266
2015    2       22    23  30    5.5815   449.6    6.423      43.242
2015    2       22    23  35    5.5800   449.6    6.422      43.218
2015    2       22    23  41    5.5785   449.5    6.420      43.193
2015    2       22    23  46    5.5770   449.5    6.419      43.169
2015    2       22    23  51    5.5754   449.5    6.418      43.145
2015    2       22    23  56    5.5740   449.4    6.417      43.121
2015    2       23     0   1    5.5724   449.4    6.416      43.097
