year    month   day   hour  minute  B_enl V_enl   n_enl       T_enl
[year] [month] [day] [hour][minute] [nT]  [km/s]  [cm-3]      [kK]
2015    2       14     0   3    5.4087   390.0    7.130      38.430
2015    2       14     0   8    5.4141   389.9    7.140      38.437
2015    2       14     0  13    5.4195   389.9    7.150      38.444
2015    2       14     0  18    5.4250   389.9    7.159      38.451
2015    2       14     0  23    5.4304   389.9    7.169      38.459
2015    2       14     0  29    5.4359   389.9    7.179      38.466
2015    2       14     0  34    5.4413   389.8    7.189      38.474
2015    2       14     0  39    5.4467   389.8    7.199      38.481
2015    2       14     0  44    5.4522   389.8    7.209      38.489
2015    2       14     0  49    5.4576   389.8    7.219      38.498
2015    2       14     0  54    5.4630   389.8    7.229      38.506
2015    2       14     1   0    5.4684   389.7    7.239      38.514
2015    2       14     1   5    5.4739   389.7    7.249      38.523
2015    2       14     1  10    5.4793   389.7    7.259      38.533
2015    2       14     1  15    5.4847   389.7    7.269      38.542
2015    2       14     1  20    5.4901   389.7    7.279      38.552
2015    2       14     1  25    5.4955   389.7    7.289      38.561
2015    2       14     1  31    5.5009   389.6    7.299      38.571
2015    2       14     1  36    5.5063   389.6    7.309      38.581
2015    2       14     1  41    5.5117   389.6    7.319      38.591
2015    2       14     1  46    5.5170   389.6    7.329      38.601
2015    2       14     1  51    5.5224   389.6    7.339      38.611
2015    2       14     1  56    5.5278   389.6    7.348      38.622
2015    2       14     2   2    5.5331   389.6    7.358      38.632
2015    2       14     2   7    5.5384   389.5    7.368      38.642
2015    2       14     2  12    5.5438   389.5    7.377      38.653
2015    2       14     2  17    5.5491   389.5    7.387      38.663
2015    2       14     2  22    5.5545   389.5    7.396      38.673
2015    2       14     2  27    5.5598   389.5    7.406      38.683
2015    2       14     2  33    5.5651   389.5    7.415      38.693
2015    2       14     2  38    5.5705   389.5    7.424      38.702
2015    2       14     2  43    5.5758   389.4    7.434      38.712
2015    2       14     2  48    5.5812   389.4    7.443      38.721
2015    2       14     2  53    5.5865   389.4    7.452      38.731
2015    2       14     2  58    5.5918   389.4    7.461      38.740
2015    2       14     3   3    5.5972   389.4    7.470      38.749
2015    2       14     3   9    5.6025   389.4    7.479      38.758
2015    2       14     3  14    5.6079   389.4    7.488      38.767
2015    2       14     3  19    5.6132   389.4    7.497      38.776
2015    2       14     3  24    5.6186   389.4    7.506      38.784
2015    2       14     3  29    5.6240   389.3    7.515      38.793
2015    2       14     3  34    5.6293   389.3    7.524      38.801
2015    2       14     3  40    5.6347   389.3    7.532      38.809
2015    2       14     3  45    5.6401   389.3    7.541      38.817
2015    2       14     3  50    5.6455   389.3    7.550      38.825
2015    2       14     3  55    5.6509   389.3    7.558      38.833
2015    2       14     4   0    5.6564   389.3    7.567      38.841
2015    2       14     4   5    5.6618   389.3    7.576      38.849
2015    2       14     4  11    5.6672   389.3    7.584      38.856
2015    2       14     4  16    5.6727   389.3    7.593      38.864
2015    2       14     4  21    5.6782   389.3    7.601      38.871
2015    2       14     4  26    5.6837   389.3    7.609      38.878
2015    2       14     4  31    5.6891   389.2    7.618      38.886
2015    2       14     4  36    5.6947   389.2    7.626      38.893
2015    2       14     4  42    5.7002   389.2    7.634      38.900
2015    2       14     4  47    5.7057   389.2    7.643      38.907
2015    2       14     4  52    5.7113   389.2    7.651      38.914
2015    2       14     4  57    5.7169   389.2    7.659      38.921
2015    2       14     5   2    5.7225   389.2    7.667      38.928
2015    2       14     5   7    5.7281   389.2    7.676      38.934
2015    2       14     5  13    5.7337   389.2    7.684      38.941
2015    2       14     5  18    5.7394   389.2    7.692      38.948
2015    2       14     5  23    5.7450   389.2    7.700      38.955
2015    2       14     5  28    5.7507   389.2    7.708      38.962
2015    2       14     5  33    5.7564   389.2    7.717      38.969
2015    2       14     5  38    5.7622   389.2    7.725      38.976
2015    2       14     5  44    5.7679   389.2    7.733      38.983
2015    2       14     5  49    5.7737   389.2    7.741      38.991
2015    2       14     5  54    5.7795   389.2    7.749      38.998
2015    2       14     5  59    5.7853   389.2    7.758      39.006
2015    2       14     6   4    5.7911   389.1    7.766      39.013
2015    2       14     6   9    5.7969   389.1    7.774      39.021
2015    2       14     6  15    5.8028   389.1    7.782      39.029
2015    2       14     6  20    5.8087   389.1    7.791      39.037
2015    2       14     6  25    5.8146   389.1    7.799      39.045
2015    2       14     6  30    5.8206   389.1    7.808      39.053
2015    2       14     6  35    5.8266   389.1    7.816      39.062
2015    2       14     6  40    5.8326   389.1    7.825      39.071
2015    2       14     6  46    5.8385   389.1    7.833      39.079
2015    2       14     6  51    5.8445   389.1    7.842      39.088
2015    2       14     6  56    5.8505   389.1    7.851      39.097
2015    2       14     7   1    5.8566   389.1    7.859      39.107
2015    2       14     7   6    5.8626   389.1    7.868      39.116
2015    2       14     7  11    5.8687   389.2    7.877      39.126
2015    2       14     7  17    5.8747   389.2    7.886      39.137
2015    2       14     7  22    5.8808   389.2    7.895      39.147
2015    2       14     7  27    5.8869   389.2    7.904      39.158
2015    2       14     7  32    5.8930   389.2    7.913      39.170
2015    2       14     7  37    5.8991   389.2    7.922      39.181
2015    2       14     7  42    5.9053   389.2    7.931      39.193
2015    2       14     7  48    5.9113   389.2    7.941      39.206
2015    2       14     7  53    5.9175   389.2    7.950      39.218
2015    2       14     7  58    5.9236   389.2    7.959      39.231
2015    2       14     8   3    5.9297   389.2    7.968      39.244
2015    2       14     8   8    5.9358   389.3    7.977      39.257
2015    2       14     8  14    5.9420   389.3    7.987      39.271
2015    2       14     8  19    5.9481   389.3    7.996      39.285
2015    2       14     8  24    5.9541   389.3    8.005      39.300
2015    2       14     8  29    5.9603   389.3    8.014      39.315
2015    2       14     8  34    5.9663   389.3    8.023      39.330
2015    2       14     8  39    5.9723   389.4    8.032      39.346
2015    2       14     8  45    5.9784   389.4    8.041      39.361
2015    2       14     8  50    5.9844   389.4    8.049      39.377
2015    2       14     8  55    5.9905   389.4    8.058      39.393
2015    2       14     9   0    5.9965   389.4    8.067      39.409
2015    2       14     9   5    6.0026   389.4    8.075      39.425
2015    2       14     9  10    6.0086   389.5    8.084      39.441
2015    2       14     9  16    6.0146   389.5    8.092      39.456
2015    2       14     9  21    6.0207   389.5    8.101      39.472
2015    2       14     9  26    6.0266   389.5    8.109      39.488
2015    2       14     9  31    6.0326   389.5    8.117      39.504
2015    2       14     9  36    6.0387   389.6    8.126      39.520
2015    2       14     9  41    6.0447   389.6    8.134      39.535
2015    2       14     9  47    6.0507   389.6    8.142      39.550
2015    2       14     9  52    6.0567   389.6    8.150      39.566
2015    2       14     9  57    6.0627   389.6    8.158      39.581
2015    2       14    10   2    6.0688   389.7    8.166      39.596
2015    2       14    10   7    6.0749   389.7    8.174      39.611
2015    2       14    10  12    6.0809   389.7    8.182      39.626
2015    2       14    10  18    6.0869   389.7    8.190      39.641
2015    2       14    10  23    6.0930   389.7    8.198      39.656
2015    2       14    10  28    6.0991   389.8    8.206      39.671
2015    2       14    10  33    6.1053   389.8    8.213      39.686
2015    2       14    10  38    6.1114   389.8    8.221      39.701
2015    2       14    10  43    6.1176   389.8    8.229      39.716
2015    2       14    10  48    6.1238   389.9    8.237      39.731
2015    2       14    10  54    6.1300   389.9    8.245      39.746
2015    2       14    10  59    6.1362   389.9    8.252      39.762
2015    2       14    11   4    6.1425   389.9    8.260      39.777
2015    2       14    11   9    6.1488   389.9    8.268      39.792
2015    2       14    11  14    6.1551   390.0    8.275      39.808
2015    2       14    11  19    6.1614   390.0    8.283      39.823
2015    2       14    11  25    6.1677   390.0    8.291      39.839
2015    2       14    11  30    6.1741   390.0    8.299      39.855
2015    2       14    11  35    6.1806   390.1    8.306      39.871
2015    2       14    11  40    6.1870   390.1    8.314      39.887
2015    2       14    11  45    6.1934   390.1    8.322      39.903
2015    2       14    11  50    6.2000   390.2    8.330      39.919
2015    2       14    11  56    6.2066   390.2    8.337      39.936
2015    2       14    12   1    6.2131   390.2    8.345      39.953
2015    2       14    12   6    6.2198   390.2    8.353      39.969
2015    2       14    12  11    6.2263   390.3    8.361      39.986
2015    2       14    12  16    6.2331   390.3    8.368      40.003
2015    2       14    12  21    6.2398   390.3    8.376      40.021
2015    2       14    12  27    6.2465   390.4    8.384      40.038
2015    2       14    12  32    6.2534   390.4    8.392      40.056
2015    2       14    12  37    6.2602   390.4    8.400      40.074
2015    2       14    12  42    6.2672   390.4    8.408      40.092
2015    2       14    12  47    6.2741   390.5    8.416      40.110
2015    2       14    12  52    6.2811   390.5    8.424      40.128
2015    2       14    12  58    6.2881   390.5    8.432      40.147
2015    2       14    13   3    6.2952   390.6    8.441      40.165
2015    2       14    13   8    6.3023   390.6    8.449      40.184
2015    2       14    13  13    6.3095   390.6    8.457      40.203
2015    2       14    13  18    6.3167   390.7    8.466      40.223
2015    2       14    13  23    6.3240   390.7    8.475      40.242
2015    2       14    13  29    6.3314   390.7    8.483      40.262
2015    2       14    13  34    6.3387   390.8    8.492      40.282
2015    2       14    13  39    6.3461   390.8    8.501      40.303
2015    2       14    13  44    6.3535   390.9    8.511      40.323
2015    2       14    13  49    6.3610   390.9    8.520      40.345
2015    2       14    13  54    6.3686   390.9    8.530      40.366
2015    2       14    14   0    6.3763   391.0    8.539      40.388
2015    2       14    14   5    6.3837   391.0    8.549      40.410
2015    2       14    14  10    6.3914   391.0    8.559      40.432
2015    2       14    14  15    6.3990   391.1    8.570      40.455
2015    2       14    14  20    6.4067   391.1    8.580      40.478
2015    2       14    14  25    6.4144   391.2    8.591      40.503
2015    2       14    14  31    6.4222   391.2    8.602      40.528
2015    2       14    14  36    6.4299   391.3    8.612      40.555
2015    2       14    14  41    6.4376   391.3    8.623      40.582
2015    2       14    14  46    6.4454   391.4    8.634      40.611
2015    2       14    14  51    6.4531   391.5    8.645      40.640
2015    2       14    14  56    6.4609   391.5    8.656      40.670
2015    2       14    15   2    6.4688   391.6    8.667      40.701
2015    2       14    15   7    6.4764   391.6    8.678      40.733
2015    2       14    15  12    6.4841   391.7    8.689      40.765
2015    2       14    15  17    6.4918   391.8    8.700      40.798
2015    2       14    15  22    6.4995   391.8    8.711      40.832
2015    2       14    15  27    6.5072   391.9    8.721      40.867
2015    2       14    15  33    6.5150   392.0    8.731      40.902
2015    2       14    15  38    6.5225   392.1    8.741      40.939
2015    2       14    15  43    6.5300   392.1    8.751      40.975
2015    2       14    15  48    6.5376   392.2    8.761      41.012
2015    2       14    15  53    6.5453   392.3    8.770      41.049
2015    2       14    15  58    6.5527   392.4    8.779      41.086
2015    2       14    16   4    6.5601   392.5    8.788      41.123
2015    2       14    16   9    6.5678   392.5    8.797      41.161
2015    2       14    16  14    6.5752   392.6    8.806      41.198
2015    2       14    16  19    6.5824   392.7    8.814      41.235
2015    2       14    16  24    6.5898   392.8    8.822      41.272
2015    2       14    16  29    6.5974   392.8    8.830      41.310
2015    2       14    16  35    6.6047   392.9    8.837      41.347
2015    2       14    16  40    6.6119   393.0    8.845      41.384
2015    2       14    16  45    6.6192   393.1    8.852      41.421
2015    2       14    16  50    6.6265   393.1    8.859      41.458
2015    2       14    16  55    6.6338   393.2    8.866      41.495
2015    2       14    17   0    6.6412   393.3    8.873      41.531
2015    2       14    17   6    6.6486   393.4    8.880      41.567
2015    2       14    17  11    6.6558   393.5    8.886      41.603
2015    2       14    17  16    6.6633   393.5    8.893      41.639
2015    2       14    17  21    6.6706   393.6    8.899      41.675
2015    2       14    17  26    6.6777   393.7    8.905      41.711
2015    2       14    17  31    6.6852   393.8    8.911      41.747
2015    2       14    17  36    6.6926   393.8    8.917      41.782
2015    2       14    17  42    6.6999   393.9    8.923      41.817
2015    2       14    17  47    6.7071   394.0    8.929      41.852
2015    2       14    17  52    6.7145   394.1    8.935      41.887
2015    2       14    17  57    6.7219   394.1    8.940      41.922
2015    2       14    18   2    6.7295   394.2    8.946      41.957
2015    2       14    18   7    6.7368   394.3    8.951      41.992
2015    2       14    18  13    6.7442   394.4    8.957      42.026
2015    2       14    18  18    6.7517   394.4    8.962      42.060
2015    2       14    18  23    6.7592   394.5    8.967      42.095
2015    2       14    18  28    6.7667   394.6    8.973      42.129
2015    2       14    18  33    6.7742   394.7    8.978      42.163
2015    2       14    18  38    6.7818   394.8    8.983      42.197
2015    2       14    18  44    6.7894   394.8    8.988      42.232
2015    2       14    18  49    6.7971   394.9    8.994      42.266
2015    2       14    18  54    6.8048   395.0    8.999      42.300
2015    2       14    18  59    6.8125   395.1    9.004      42.334
2015    2       14    19   4    6.8203   395.1    9.009      42.369
2015    2       14    19   9    6.8281   395.2    9.015      42.403
2015    2       14    19  15    6.8359   395.3    9.020      42.438
2015    2       14    19  20    6.8437   395.4    9.025      42.473
2015    2       14    19  25    6.8517   395.5    9.031      42.508
2015    2       14    19  30    6.8597   395.5    9.036      42.543
2015    2       14    19  35    6.8676   395.6    9.041      42.579
2015    2       14    19  40    6.8758   395.7    9.047      42.615
2015    2       14    19  46    6.8838   395.8    9.053      42.651
2015    2       14    19  51    6.8920   395.9    9.058      42.688
2015    2       14    19  56    6.9003   395.9    9.064      42.725
2015    2       14    20   1    6.9087   396.0    9.070      42.762
2015    2       14    20   6    6.9171   396.1    9.076      42.800
2015    2       14    20  11    6.9255   396.2    9.082      42.839
2015    2       14    20  17    6.9341   396.3    9.089      42.878
2015    2       14    20  22    6.9427   396.4    9.095      42.918
2015    2       14    20  27    6.9514   396.5    9.102      42.958
2015    2       14    20  32    6.9600   396.6    9.109      42.999
2015    2       14    20  37    6.9688   396.7    9.116      43.040
2015    2       14    20  42    6.9777   396.7    9.123      43.082
2015    2       14    20  48    6.9867   396.8    9.130      43.125
2015    2       14    20  53    6.9955   396.9    9.138      43.169
2015    2       14    20  58    7.0046   397.0    9.146      43.212
2015    2       14    21   3    7.0136   397.1    9.155      43.257
2015    2       14    21   8    7.0226   397.2    9.163      43.303
2015    2       14    21  13    7.0316   397.4    9.172      43.349
2015    2       14    21  19    7.0407   397.5    9.181      43.396
2015    2       14    21  24    7.0498   397.6    9.190      43.444
2015    2       14    21  29    7.0588   397.7    9.200      43.493
2015    2       14    21  34    7.0678   397.8    9.210      43.543
2015    2       14    21  39    7.0767   397.9    9.220      43.595
2015    2       14    21  44    7.0857   398.1    9.230      43.648
2015    2       14    21  50    7.0945   398.2    9.240      43.702
2015    2       14    21  55    7.1034   398.3    9.250      43.757
2015    2       14    22   0    7.1122   398.4    9.260      43.814
2015    2       14    22   5    7.1209   398.6    9.270      43.873
2015    2       14    22  10    7.1296   398.7    9.279      43.932
2015    2       14    22  15    7.1383   398.9    9.289      43.993
2015    2       14    22  20    7.1468   399.0    9.299      44.055
2015    2       14    22  26    7.1554   399.1    9.308      44.118
2015    2       14    22  31    7.1638   399.3    9.317      44.182
2015    2       14    22  36    7.1722   399.4    9.326      44.246
2015    2       14    22  41    7.1806   399.6    9.335      44.311
2015    2       14    22  46    7.1888   399.7    9.344      44.376
2015    2       14    22  51    7.1971   399.9    9.352      44.442
2015    2       14    22  57    7.2053   400.0    9.360      44.508
2015    2       14    23   2    7.2135   400.2    9.368      44.575
2015    2       14    23   7    7.2215   400.3    9.375      44.642
2015    2       14    23  12    7.2297   400.4    9.383      44.709
2015    2       14    23  17    7.2377   400.6    9.390      44.776
2015    2       14    23  22    7.2457   400.7    9.397      44.843
2015    2       14    23  28    7.2537   400.9    9.403      44.911
2015    2       14    23  33    7.2617   401.0    9.410      44.979
2015    2       14    23  38    7.2696   401.2    9.416      45.047
2015    2       14    23  43    7.2776   401.3    9.422      45.115
2015    2       14    23  48    7.2855   401.5    9.428      45.183
2015    2       14    23  53    7.2935   401.6    9.434      45.252
2015    2       14    23  59    7.3014   401.8    9.440      45.321
2015    2       15     0   4    7.3092   401.9    9.445      45.390
2015    2       15     0   9    7.3171   402.1    9.450      45.460
2015    2       15     0  14    7.3251   402.2    9.455      45.529
2015    2       15     0  19    7.3330   402.4    9.460      45.599
2015    2       15     0  24    7.3409   402.5    9.464      45.669
2015    2       15     0  30    7.3487   402.7    9.468      45.739
2015    2       15     0  35    7.3566   402.8    9.472      45.810
2015    2       15     0  40    7.3645   403.0    9.476      45.880
2015    2       15     0  45    7.3725   403.1    9.480      45.951
2015    2       15     0  50    7.3804   403.3    9.483      46.022
2015    2       15     0  55    7.3883   403.4    9.487      46.092
2015    2       15     1   1    7.3962   403.6    9.490      46.163
2015    2       15     1   6    7.4041   403.7    9.493      46.234
2015    2       15     1  11    7.4120   403.9    9.496      46.305
2015    2       15     1  16    7.4200   404.1    9.498      46.375
2015    2       15     1  21    7.4279   404.2    9.501      46.446
2015    2       15     1  26    7.4359   404.4    9.503      46.517
2015    2       15     1  32    7.4438   404.5    9.505      46.588
2015    2       15     1  37    7.4517   404.7    9.507      46.658
2015    2       15     1  42    7.4597   404.9    9.509      46.728
2015    2       15     1  47    7.4677   405.0    9.511      46.799
2015    2       15     1  52    7.4757   405.2    9.513      46.869
2015    2       15     1  57    7.4837   405.3    9.514      46.939
2015    2       15     2   3    7.4916   405.5    9.516      47.009
2015    2       15     2   8    7.4997   405.7    9.517      47.079
2015    2       15     2  13    7.5077   405.8    9.518      47.149
2015    2       15     2  18    7.5157   406.0    9.519      47.219
2015    2       15     2  23    7.5238   406.2    9.521      47.288
2015    2       15     2  28    7.5319   406.3    9.522      47.358
2015    2       15     2  34    7.5399   406.5    9.523      47.427
2015    2       15     2  39    7.5480   406.7    9.524      47.496
2015    2       15     2  44    7.5561   406.8    9.525      47.566
2015    2       15     2  49    7.5643   407.0    9.526      47.635
2015    2       15     2  54    7.5724   407.2    9.526      47.704
2015    2       15     2  59    7.5805   407.3    9.527      47.773
2015    2       15     3   4    7.5887   407.5    9.528      47.842
2015    2       15     3  10    7.5968   407.7    9.529      47.911
2015    2       15     3  15    7.6050   407.8    9.530      47.980
2015    2       15     3  20    7.6132   408.0    9.531      48.050
2015    2       15     3  25    7.6214   408.2    9.532      48.119
2015    2       15     3  30    7.6297   408.3    9.533      48.188
2015    2       15     3  35    7.6379   408.5    9.534      48.258
2015    2       15     3  41    7.6461   408.7    9.535      48.328
2015    2       15     3  46    7.6544   408.9    9.536      48.398
2015    2       15     3  51    7.6627   409.0    9.538      48.468
2015    2       15     3  56    7.6710   409.2    9.539      48.538
2015    2       15     4   1    7.6792   409.4    9.540      48.608
2015    2       15     4   6    7.6876   409.6    9.542      48.679
2015    2       15     4  12    7.6958   409.8    9.544      48.750
2015    2       15     4  17    7.7040   409.9    9.546      48.821
2015    2       15     4  22    7.7123   410.1    9.548      48.893
2015    2       15     4  27    7.7205   410.3    9.550      48.964
2015    2       15     4  32    7.7285   410.5    9.552      49.036
2015    2       15     4  37    7.7368   410.7    9.554      49.109
2015    2       15     4  43    7.7447   410.9    9.557      49.182
2015    2       15     4  48    7.7527   411.1    9.560      49.256
2015    2       15     4  53    7.7606   411.2    9.562      49.331
2015    2       15     4  58    7.7687   411.4    9.565      49.406
2015    2       15     5   3    7.7765   411.6    9.568      49.483
2015    2       15     5   8    7.7841   411.8    9.571      49.561
2015    2       15     5  14    7.7918   412.0    9.574      49.640
2015    2       15     5  19    7.7996   412.2    9.577      49.720
2015    2       15     5  24    7.8070   412.4    9.580      49.801
2015    2       15     5  29    7.8145   412.6    9.582      49.883
2015    2       15     5  34    7.8221   412.8    9.585      49.966
2015    2       15     5  39    7.8292   413.0    9.588      50.051
2015    2       15     5  45    7.8367   413.2    9.591      50.136
2015    2       15     5  50    7.8437   413.4    9.593      50.223
2015    2       15     5  55    7.8510   413.6    9.596      50.311
2015    2       15     6   0    7.8579   413.8    9.599      50.399
2015    2       15     6   5    7.8649   414.0    9.601      50.488
2015    2       15     6  10    7.8721   414.2    9.604      50.577
2015    2       15     6  16    7.8790   414.4    9.606      50.667
2015    2       15     6  21    7.8859   414.6    9.609      50.758
2015    2       15     6  26    7.8925   414.8    9.611      50.849
2015    2       15     6  31    7.8995   415.0    9.613      50.941
2015    2       15     6  36    7.9060   415.3    9.615      51.034
2015    2       15     6  41    7.9130   415.5    9.618      51.127
2015    2       15     6  47    7.9194   415.7    9.620      51.221
2015    2       15     6  52    7.9263   415.9    9.622      51.315
2015    2       15     6  57    7.9327   416.1    9.624      51.410
2015    2       15     7   2    7.9393   416.3    9.625      51.504
2015    2       15     7   7    7.9462   416.5    9.627      51.600
2015    2       15     7  12    7.9525   416.7    9.629      51.695
2015    2       15     7  18    7.9593   416.9    9.630      51.791
2015    2       15     7  23    7.9656   417.1    9.632      51.887
2015    2       15     7  28    7.9724   417.4    9.633      51.983
2015    2       15     7  33    7.9786   417.6    9.634      52.079
2015    2       15     7  38    7.9854   417.8    9.635      52.175
2015    2       15     7  43    7.9916   418.0    9.636      52.271
2015    2       15     7  49    7.9984   418.2    9.637      52.368
2015    2       15     7  54    8.0048   418.4    9.637      52.464
2015    2       15     7  59    8.0113   418.7    9.638      52.560
2015    2       15     8   4    8.0175   418.9    9.638      52.656
2015    2       15     8   9    8.0243   419.1    9.638      52.753
2015    2       15     8  14    8.0305   419.3    9.639      52.849
2015    2       15     8  19    8.0373   419.6    9.639      52.946
2015    2       15     8  25    8.0439   419.8    9.639      53.042
2015    2       15     8  30    8.0504   420.0    9.639      53.139
2015    2       15     8  35    8.0568   420.2    9.639      53.236
2015    2       15     8  40    8.0637   420.5    9.639      53.333
2015    2       15     8  45    8.0704   420.7    9.639      53.430
2015    2       15     8  50    8.0771   421.0    9.639      53.528
2015    2       15     8  56    8.0839   421.2    9.639      53.627
2015    2       15     9   1    8.0908   421.4    9.639      53.726
2015    2       15     9   6    8.0976   421.7    9.639      53.826
2015    2       15     9  11    8.1046   422.0    9.638      53.928
2015    2       15     9  16    8.1119   422.2    9.638      54.031
2015    2       15     9  21    8.1190   422.5    9.638      54.136
2015    2       15     9  27    8.1261   422.8    9.637      54.243
2015    2       15     9  32    8.1333   423.0    9.637      54.351
2015    2       15     9  37    8.1404   423.3    9.636      54.461
2015    2       15     9  42    8.1474   423.6    9.635      54.571
2015    2       15     9  47    8.1546   423.9    9.634      54.683
2015    2       15     9  52    8.1619   424.2    9.633      54.796
2015    2       15     9  58    8.1690   424.5    9.632      54.909
2015    2       15    10   3    8.1760   424.8    9.630      55.023
2015    2       15    10   8    8.1828   425.1    9.628      55.138
2015    2       15    10  13    8.1898   425.4    9.626      55.253
2015    2       15    10  18    8.1969   425.7    9.624      55.368
2015    2       15    10  23    8.2037   426.0    9.621      55.483
2015    2       15    10  29    8.2104   426.2    9.619      55.598
2015    2       15    10  34    8.2169   426.5    9.616      55.712
2015    2       15    10  39    8.2236   426.8    9.613      55.825
2015    2       15    10  44    8.2301   427.1    9.609      55.939
2015    2       15    10  49    8.2365   427.4    9.606      56.051
2015    2       15    10  54    8.2429   427.7    9.602      56.164
2015    2       15    11   0    8.2492   428.0    9.598      56.276
2015    2       15    11   5    8.2554   428.3    9.594      56.387
2015    2       15    11  10    8.2615   428.6    9.589      56.498
2015    2       15    11  15    8.2676   428.9    9.585      56.608
2015    2       15    11  20    8.2736   429.2    9.580      56.718
2015    2       15    11  25    8.2795   429.5    9.575      56.827
2015    2       15    11  31    8.2853   429.9    9.570      56.936
2015    2       15    11  36    8.2911   430.2    9.565      57.045
2015    2       15    11  41    8.2965   430.5    9.559      57.153
2015    2       15    11  46    8.3023   430.8    9.554      57.260
2015    2       15    11  51    8.3078   431.1    9.548      57.368
2015    2       15    11  56    8.3132   431.4    9.542      57.474
2015    2       15    12   2    8.3186   431.7    9.536      57.581
2015    2       15    12   7    8.3238   432.0    9.530      57.687
2015    2       15    12  12    8.3289   432.3    9.523      57.794
2015    2       15    12  17    8.3340   432.6    9.517      57.900
2015    2       15    12  22    8.3388   432.9    9.510      58.005
2015    2       15    12  27    8.3437   433.2    9.503      58.111
2015    2       15    12  33    8.3487   433.5    9.497      58.217
2015    2       15    12  38    8.3534   433.8    9.490      58.324
2015    2       15    12  43    8.3579   434.1    9.483      58.431
2015    2       15    12  48    8.3627   434.4    9.476      58.538
2015    2       15    12  53    8.3671   434.7    9.469      58.645
2015    2       15    12  58    8.3718   435.0    9.462      58.754
2015    2       15    13   4    8.3761   435.3    9.455      58.862
2015    2       15    13   9    8.3807   435.6    9.448      58.971
2015    2       15    13  14    8.3849   435.9    9.441      59.081
2015    2       15    13  19    8.3893   436.1    9.434      59.191
2015    2       15    13  24    8.3936   436.4    9.427      59.301
2015    2       15    13  29    8.3977   436.7    9.420      59.412
2015    2       15    13  35    8.4020   437.0    9.413      59.524
2015    2       15    13  40    8.4061   437.3    9.405      59.637
2015    2       15    13  45    8.4102   437.6    9.398      59.750
2015    2       15    13  50    8.4142   437.9    9.391      59.863
2015    2       15    13  55    8.4182   438.2    9.383      59.976
2015    2       15    14   0    8.4223   438.5    9.376      60.090
2015    2       15    14   5    8.4262   438.8    9.368      60.203
2015    2       15    14  11    8.4300   439.1    9.361      60.317
2015    2       15    14  16    8.4340   439.4    9.353      60.430
2015    2       15    14  21    8.4378   439.7    9.345      60.542
2015    2       15    14  26    8.4415   440.0    9.337      60.654
2015    2       15    14  31    8.4454   440.3    9.329      60.765
2015    2       15    14  36    8.4491   440.6    9.321      60.875
2015    2       15    14  42    8.4526   440.9    9.312      60.984
2015    2       15    14  47    8.4562   441.2    9.304      61.091
2015    2       15    14  52    8.4599   441.5    9.295      61.197
2015    2       15    14  57    8.4634   441.8    9.287      61.302
2015    2       15    15   2    8.4668   442.1    9.278      61.405
2015    2       15    15   7    8.4702   442.4    9.269      61.507
2015    2       15    15  13    8.4735   442.7    9.260      61.607
2015    2       15    15  18    8.4768   443.0    9.251      61.705
2015    2       15    15  23    8.4800   443.3    9.241      61.800
2015    2       15    15  28    8.4829   443.6    9.232      61.894
2015    2       15    15  33    8.4860   444.0    9.222      61.986
2015    2       15    15  38    8.4890   444.3    9.213      62.078
2015    2       15    15  44    8.4924   444.6    9.203      62.167
2015    2       15    15  49    8.4953   444.9    9.194      62.254
2015    2       15    15  54    8.4982   445.2    9.184      62.338
2015    2       15    15  59    8.5006   445.5    9.174      62.421
2015    2       15    16   4    8.5034   445.9    9.164      62.502
2015    2       15    16   9    8.5067   446.2    9.155      62.582
2015    2       15    16  15    8.5095   446.5    9.145      62.661
2015    2       15    16  20    8.5117   446.8    9.135      62.739
2015    2       15    16  25    8.5145   447.2    9.126      62.816
2015    2       15    16  30    8.5172   447.5    9.116      62.894
2015    2       15    16  35    8.5205   447.9    9.105      62.974
2015    2       15    16  40    8.5231   448.3    9.095      63.056
2015    2       15    16  46    8.5256   448.6    9.084      63.140
2015    2       15    16  51    8.5280   449.0    9.074      63.224
2015    2       15    16  56    8.5295   449.4    9.062      63.306
2015    2       15    17   1    8.5315   449.8    9.051      63.387
2015    2       15    17   6    8.5340   450.2    9.040      63.468
2015    2       15    17  11    8.5356   450.5    9.028      63.550
2015    2       15    17  17    8.5371   450.9    9.016      63.631
2015    2       15    17  22    8.5385   451.3    9.004      63.713
2015    2       15    17  27    8.5396   451.7    8.992      63.795
2015    2       15    17  32    8.5407   452.0    8.980      63.877
2015    2       15    17  37    8.5416   452.4    8.968      63.959
2015    2       15    17  42    8.5425   452.8    8.956      64.041
2015    2       15    17  48    8.5432   453.1    8.944      64.124
2015    2       15    17  53    8.5440   453.5    8.932      64.205
2015    2       15    17  58    8.5445   453.8    8.920      64.284
2015    2       15    18   3    8.5445   454.1    8.908      64.362
2015    2       15    18   8    8.5457   454.4    8.897      64.439
2015    2       15    18  13    8.5456   454.7    8.886      64.516
2015    2       15    18  19    8.5468   455.0    8.875      64.595
2015    2       15    18  24    8.5474   455.3    8.865      64.676
2015    2       15    18  29    8.5480   455.7    8.854      64.759
2015    2       15    18  34    8.5487   456.0    8.844      64.845
2015    2       15    18  39    8.5493   456.3    8.833      64.936
2015    2       15    18  44    8.5500   456.6    8.823      65.031
2015    2       15    18  50    8.5507   457.0    8.813      65.129
2015    2       15    18  55    8.5513   457.3    8.803      65.231
2015    2       15    19   0    8.5519   457.7    8.793      65.337
2015    2       15    19   5    8.5525   458.0    8.783      65.445
2015    2       15    19  10    8.5529   458.4    8.772      65.555
2015    2       15    19  15    8.5533   458.8    8.762      65.668
2015    2       15    19  21    8.5536   459.1    8.751      65.782
2015    2       15    19  26    8.5537   459.5    8.741      65.897
2015    2       15    19  31    8.5537   459.9    8.730      66.012
2015    2       15    19  36    8.5529   460.3    8.718      66.128
2015    2       15    19  41    8.5533   460.6    8.707      66.243
2015    2       15    19  46    8.5530   461.0    8.695      66.359
2015    2       15    19  52    8.5525   461.4    8.683      66.474
2015    2       15    19  57    8.5520   461.8    8.671      66.590
2015    2       15    20   2    8.5513   462.2    8.658      66.703
2015    2       15    20   7    8.5506   462.5    8.646      66.814
2015    2       15    20  12    8.5497   462.9    8.633      66.924
2015    2       15    20  17    8.5488   463.3    8.620      67.031
2015    2       15    20  22    8.5472   463.6    8.607      67.137
2015    2       15    20  28    8.5469   464.0    8.594      67.242
2015    2       15    20  33    8.5452   464.4    8.580      67.346
2015    2       15    20  38    8.5448   464.7    8.567      67.450
2015    2       15    20  43    8.5436   465.1    8.553      67.552
2015    2       15    20  48    8.5425   465.4    8.539      67.653
2015    2       15    20  53    8.5413   465.8    8.525      67.752
2015    2       15    20  59    8.5401   466.2    8.511      67.852
2015    2       15    21   4    8.5381   466.6    8.496      67.950
2015    2       15    21   9    8.5369   466.9    8.482      68.047
2015    2       15    21  14    8.5362   467.3    8.467      68.143
2015    2       15    21  19    8.5348   467.7    8.452      68.237
2015    2       15    21  24    8.5333   468.1    8.437      68.331
2015    2       15    21  30    8.5317   468.5    8.422      68.425
2015    2       15    21  35    8.5301   468.9    8.406      68.519
2015    2       15    21  40    8.5283   469.3    8.390      68.613
2015    2       15    21  45    8.5256   469.7    8.373      68.705
2015    2       15    21  50    8.5240   470.1    8.356      68.796
2015    2       15    21  55    8.5216   470.5    8.339      68.884
2015    2       15    22   1    8.5188   471.0    8.320      68.972
2015    2       15    22   6    8.5158   471.4    8.301      69.059
2015    2       15    22  11    8.5124   471.9    8.281      69.143
2015    2       15    22  16    8.5085   472.3    8.261      69.220
2015    2       15    22  21    8.5042   472.7    8.239      69.290
2015    2       15    22  26    8.4995   473.1    8.217      69.353
2015    2       15    22  32    8.4937   473.5    8.195      69.410
2015    2       15    22  37    8.4891   473.9    8.172      69.463
2015    2       15    22  42    8.4835   474.3    8.149      69.509
2015    2       15    22  47    8.4776   474.7    8.125      69.550
2015    2       15    22  52    8.4707   475.1    8.102      69.585
2015    2       15    22  57    8.4652   475.5    8.078      69.615
2015    2       15    23   3    8.4588   475.9    8.054      69.642
2015    2       15    23   8    8.4523   476.2    8.030      69.666
2015    2       15    23  13    8.4457   476.6    8.007      69.688
2015    2       15    23  18    8.4389   477.0    7.983      69.706
2015    2       15    23  23    8.4322   477.3    7.960      69.720
2015    2       15    23  28    8.4254   477.6    7.938      69.730
2015    2       15    23  34    8.4188   478.0    7.915      69.736
2015    2       15    23  39    8.4122   478.3    7.894      69.744
2015    2       15    23  44    8.4058   478.6    7.873      69.754
2015    2       15    23  49    8.3994   479.0    7.852      69.763
2015    2       15    23  54    8.3933   479.3    7.832      69.773
2015    2       15    23  59    8.3871   479.7    7.812      69.783
2015    2       16     0   5    8.3801   480.0    7.792      69.796
2015    2       16     0  10    8.3749   480.4    7.773      69.811
2015    2       16     0  15    8.3689   480.8    7.753      69.827
2015    2       16     0  20    8.3629   481.1    7.734      69.843
2015    2       16     0  25    8.3567   481.5    7.715      69.858
2015    2       16     0  30    8.3495   481.8    7.696      69.871
2015    2       16     0  36    8.3442   482.2    7.678      69.883
2015    2       16     0  41    8.3378   482.5    7.659      69.895
2015    2       16     0  46    8.3315   482.9    7.641      69.907
2015    2       16     0  51    8.3250   483.2    7.623      69.919
2015    2       16     0  56    8.3186   483.5    7.606      69.930
2015    2       16     1   1    8.3120   483.9    7.588      69.940
2015    2       16     1   7    8.3045   484.2    7.571      69.950
2015    2       16     1  12    8.2989   484.5    7.554      69.961
2015    2       16     1  17    8.2924   484.8    7.538      69.974
2015    2       16     1  22    8.2849   485.1    7.522      69.985
2015    2       16     1  27    8.2783   485.4    7.506      69.995
2015    2       16     1  32    8.2726   485.7    7.491      70.001
2015    2       16     1  38    8.2661   485.9    7.476      70.006
2015    2       16     1  43    8.2596   486.2    7.462      70.010
2015    2       16     1  48    8.2523   486.4    7.448      70.015
2015    2       16     1  53    8.2460   486.6    7.434      70.021
2015    2       16     1  58    8.2406   486.9    7.421      70.030
2015    2       16     2   3    8.2334   487.1    7.408      70.039
2015    2       16     2   9    8.2272   487.3    7.395      70.052
2015    2       16     2  14    8.2210   487.6    7.382      70.069
2015    2       16     2  19    8.2157   487.8    7.370      70.091
2015    2       16     2  24    8.2095   488.1    7.358      70.117
2015    2       16     2  29    8.2034   488.3    7.346      70.146
2015    2       16     2  34    8.1972   488.6    7.334      70.179
2015    2       16     2  39    8.1901   488.9    7.322      70.216
2015    2       16     2  45    8.1846   489.2    7.310      70.255
2015    2       16     2  50    8.1783   489.5    7.298      70.298
2015    2       16     2  55    8.1717   489.7    7.286      70.341
2015    2       16     3   0    8.1643   490.0    7.274      70.385
2015    2       16     3   5    8.1576   490.3    7.262      70.427
2015    2       16     3  10    8.1508   490.6    7.250      70.469
2015    2       16     3  16    8.1447   490.9    7.237      70.511
2015    2       16     3  21    8.1369   491.2    7.225      70.552
2015    2       16     3  26    8.1298   491.5    7.212      70.592
2015    2       16     3  31    8.1227   491.8    7.200      70.631
2015    2       16     3  36    8.1164   492.1    7.187      70.667
2015    2       16     3  41    8.1083   492.3    7.174      70.700
2015    2       16     3  47    8.1011   492.6    7.162      70.731
2015    2       16     3  52    8.0938   492.9    7.149      70.760
2015    2       16     3  57    8.0865   493.1    7.136      70.786
2015    2       16     4   2    8.0792   493.4    7.123      70.811
2015    2       16     4   7    8.0727   493.7    7.111      70.832
2015    2       16     4  12    8.0654   493.9    7.098      70.852
2015    2       16     4  18    8.0580   494.2    7.085      70.871
2015    2       16     4  23    8.0499   494.4    7.073      70.890
2015    2       16     4  28    8.0426   494.7    7.060      70.908
2015    2       16     4  33    8.0361   495.0    7.047      70.925
2015    2       16     4  38    8.0288   495.2    7.034      70.940
2015    2       16     4  43    8.0214   495.5    7.021      70.954
2015    2       16     4  49    8.0139   495.8    7.008      70.967
2015    2       16     4  54    8.0056   496.1    6.995      70.981
2015    2       16     4  59    7.9989   496.4    6.982      70.994
2015    2       16     5   4    7.9903   496.8    6.968      71.008
2015    2       16     5   9    7.9832   497.1    6.954      71.020
2015    2       16     5  14    7.9751   497.4    6.940      71.031
2015    2       16     5  20    7.9659   497.8    6.925      71.040
2015    2       16     5  25    7.9580   498.1    6.909      71.049
2015    2       16     5  30    7.9490   498.5    6.892      71.058
2015    2       16     5  35    7.9389   498.9    6.875      71.064
2015    2       16     5  40    7.9291   499.2    6.857      71.062
2015    2       16     5  45    7.9190   499.6    6.838      71.052
2015    2       16     5  51    7.9085   499.9    6.819      71.037
2015    2       16     5  56    7.8977   500.3    6.799      71.014
2015    2       16     6   1    7.8874   500.6    6.779      70.987
2015    2       16     6   6    7.8762   500.9    6.759      70.955
2015    2       16     6  11    7.8647   501.2    6.739      70.918
2015    2       16     6  16    7.8532   501.5    6.719      70.874
2015    2       16     6  22    7.8410   501.8    6.699      70.828
2015    2       16     6  27    7.8299   502.0    6.678      70.777
2015    2       16     6  32    7.8177   502.3    6.659      70.725
2015    2       16     6  37    7.8061   502.5    6.639      70.671
2015    2       16     6  42    7.7951   502.8    6.620      70.617
2015    2       16     6  47    7.7832   503.0    6.601      70.562
2015    2       16     6  53    7.7724   503.2    6.583      70.504
2015    2       16     6  58    7.7608   503.4    6.565      70.446
2015    2       16     7   3    7.7504   503.6    6.549      70.392
2015    2       16     7   8    7.7394   503.8    6.533      70.342
2015    2       16     7  13    7.7290   504.0    6.517      70.296
2015    2       16     7  18    7.7192   504.3    6.502      70.254
2015    2       16     7  24    7.7092   504.5    6.487      70.213
2015    2       16     7  29    7.6990   504.7    6.473      70.175
2015    2       16     7  34    7.6896   504.9    6.460      70.138
2015    2       16     7  39    7.6800   505.1    6.446      70.103
2015    2       16     7  44    7.6703   505.3    6.433      70.070
2015    2       16     7  49    7.6613   505.5    6.421      70.038
2015    2       16     7  55    7.6518   505.7    6.408      70.007
2015    2       16     8   0    7.6430   505.9    6.396      69.978
2015    2       16     8   5    7.6340   506.1    6.385      69.948
2015    2       16     8  10    7.6250   506.2    6.373      69.918
2015    2       16     8  15    7.6162   506.4    6.362      69.888
2015    2       16     8  20    7.6071   506.6    6.350      69.858
2015    2       16     8  26    7.5985   506.7    6.339      69.829
2015    2       16     8  31    7.5898   506.9    6.328      69.802
2015    2       16     8  36    7.5811   507.1    6.318      69.776
2015    2       16     8  41    7.5721   507.2    6.307      69.751
2015    2       16     8  46    7.5637   507.4    6.296      69.725
2015    2       16     8  51    7.5548   507.6    6.286      69.700
2015    2       16     8  57    7.5461   507.8    6.276      69.675
2015    2       16     9   2    7.5375   507.9    6.265      69.650
2015    2       16     9   7    7.5291   508.1    6.255      69.626
2015    2       16     9  12    7.5202   508.3    6.245      69.600
2015    2       16     9  17    7.5116   508.4    6.235      69.575
2015    2       16     9  22    7.5031   508.6    6.225      69.549
2015    2       16     9  27    7.4944   508.8    6.215      69.522
2015    2       16     9  33    7.4857   509.0    6.205      69.494
2015    2       16     9  38    7.4770   509.1    6.195      69.467
2015    2       16     9  43    7.4682   509.3    6.185      69.439
2015    2       16     9  48    7.4594   509.4    6.175      69.410
2015    2       16     9  53    7.4505   509.6    6.165      69.381
2015    2       16     9  58    7.4417   509.8    6.155      69.353
2015    2       16    10   4    7.4328   510.0    6.145      69.326
2015    2       16    10   9    7.4239   510.1    6.135      69.298
2015    2       16    10  14    7.4148   510.3    6.124      69.270
2015    2       16    10  19    7.4058   510.5    6.114      69.241
2015    2       16    10  24    7.3968   510.7    6.104      69.211
2015    2       16    10  29    7.3876   510.8    6.094      69.179
2015    2       16    10  35    7.3784   511.0    6.084      69.147
2015    2       16    10  40    7.3693   511.2    6.074      69.113
2015    2       16    10  45    7.3600   511.3    6.063      69.078
2015    2       16    10  50    7.3508   511.5    6.054      69.043
2015    2       16    10  55    7.3416   511.6    6.044      69.007
2015    2       16    11   0    7.3324   511.8    6.034      68.970
2015    2       16    11   6    7.3232   511.9    6.024      68.933
2015    2       16    11  11    7.3140   512.0    6.015      68.895
2015    2       16    11  16    7.3048   512.2    6.005      68.857
2015    2       16    11  21    7.2957   512.3    5.996      68.817
2015    2       16    11  26    7.2866   512.4    5.987      68.777
2015    2       16    11  31    7.2776   512.5    5.978      68.736
2015    2       16    11  37    7.2686   512.6    5.969      68.697
2015    2       16    11  42    7.2595   512.7    5.961      68.658
2015    2       16    11  47    7.2506   512.9    5.952      68.620
2015    2       16    11  52    7.2417   513.0    5.944      68.581
2015    2       16    11  57    7.2327   513.1    5.935      68.543
2015    2       16    12   2    7.2239   513.2    5.927      68.505
2015    2       16    12   8    7.2149   513.3    5.919      68.467
2015    2       16    12  13    7.2061   513.4    5.911      68.429
2015    2       16    12  18    7.1972   513.6    5.903      68.391
2015    2       16    12  23    7.1883   513.7    5.895      68.352
2015    2       16    12  28    7.1794   513.8    5.887      68.313
2015    2       16    12  33    7.1705   513.9    5.879      68.274
2015    2       16    12  39    7.1615   514.0    5.871      68.235
2015    2       16    12  44    7.1526   514.2    5.863      68.195
2015    2       16    12  49    7.1435   514.3    5.855      68.154
2015    2       16    12  54    7.1346   514.4    5.847      68.112
2015    2       16    12  59    7.1255   514.5    5.838      68.070
2015    2       16    13   4    7.1165   514.6    5.830      68.027
2015    2       16    13  10    7.1072   514.8    5.821      67.983
2015    2       16    13  15    7.0985   514.9    5.813      67.938
2015    2       16    13  20    7.0895   515.0    5.805      67.892
2015    2       16    13  25    7.0805   515.1    5.796      67.846
2015    2       16    13  30    7.0713   515.2    5.788      67.799
2015    2       16    13  35    7.0627   515.3    5.779      67.752
2015    2       16    13  41    7.0538   515.3    5.771      67.704
2015    2       16    13  46    7.0448   515.4    5.763      67.655
2015    2       16    13  51    7.0360   515.5    5.754      67.606
2015    2       16    13  56    7.0273   515.6    5.746      67.558
2015    2       16    14   1    7.0187   515.7    5.738      67.509
2015    2       16    14   6    7.0101   515.8    5.730      67.461
2015    2       16    14  12    7.0016   515.9    5.722      67.415
2015    2       16    14  17    6.9932   516.0    5.714      67.369
2015    2       16    14  22    6.9849   516.1    5.706      67.324
2015    2       16    14  27    6.9766   516.1    5.698      67.280
2015    2       16    14  32    6.9684   516.2    5.690      67.237
2015    2       16    14  37    6.9606   516.3    5.682      67.194
2015    2       16    14  43    6.9521   516.4    5.675      67.151
2015    2       16    14  48    6.9443   516.5    5.667      67.109
2015    2       16    14  53    6.9358   516.7    5.659      67.066
2015    2       16    14  58    6.9281   516.8    5.651      67.024
2015    2       16    15   3    6.9200   516.9    5.644      66.981
2015    2       16    15   8    6.9120   517.0    5.636      66.939
2015    2       16    15  14    6.9040   517.1    5.628      66.897
2015    2       16    15  19    6.8957   517.2    5.621      66.855
2015    2       16    15  24    6.8880   517.2    5.613      66.813
2015    2       16    15  29    6.8801   517.3    5.605      66.769
2015    2       16    15  34    6.8718   517.4    5.598      66.726
2015    2       16    15  39    6.8639   517.5    5.590      66.682
2015    2       16    15  45    6.8563   517.6    5.583      66.638
2015    2       16    15  50    6.8481   517.7    5.575      66.594
2015    2       16    15  55    6.8402   517.8    5.568      66.550
2015    2       16    16   0    6.8323   517.8    5.560      66.507
2015    2       16    16   5    6.8248   517.9    5.553      66.463
2015    2       16    16  10    6.8167   518.0    5.545      66.419
2015    2       16    16  16    6.8092   518.1    5.538      66.376
2015    2       16    16  21    6.8011   518.1    5.531      66.333
2015    2       16    16  26    6.7934   518.2    5.524      66.290
2015    2       16    16  31    6.7857   518.3    5.517      66.248
2015    2       16    16  36    6.7780   518.4    5.510      66.205
2015    2       16    16  41    6.7706   518.4    5.503      66.164
2015    2       16    16  47    6.7627   518.5    5.497      66.122
2015    2       16    16  52    6.7553   518.6    5.490      66.081
2015    2       16    16  57    6.7477   518.6    5.484      66.040
2015    2       16    17   2    6.7401   518.7    5.477      65.999
2015    2       16    17   7    6.7323   518.8    5.471      65.959
2015    2       16    17  12    6.7247   518.8    5.465      65.919
2015    2       16    17  17    6.7172   518.9    5.458      65.879
2015    2       16    17  23    6.7097   519.0    5.452      65.839
2015    2       16    17  28    6.7022   519.0    5.446      65.800
2015    2       16    17  33    6.6947   519.1    5.441      65.761
2015    2       16    17  38    6.6872   519.2    5.435      65.722
2015    2       16    17  43    6.6801   519.2    5.429      65.683
2015    2       16    17  48    6.6723   519.3    5.424      65.644
2015    2       16    17  54    6.6649   519.3    5.418      65.605
2015    2       16    17  59    6.6578   519.4    5.413      65.566
2015    2       16    18   4    6.6505   519.4    5.407      65.528
2015    2       16    18   9    6.6428   519.5    5.402      65.489
2015    2       16    18  14    6.6354   519.5    5.397      65.450
2015    2       16    18  19    6.6281   519.6    5.392      65.411
2015    2       16    18  25    6.6208   519.6    5.387      65.373
2015    2       16    18  30    6.6138   519.7    5.382      65.334
2015    2       16    18  35    6.6065   519.7    5.377      65.295
2015    2       16    18  40    6.5989   519.8    5.372      65.256
2015    2       16    18  45    6.5917   519.8    5.367      65.218
2015    2       16    18  50    6.5847   519.8    5.362      65.179
2015    2       16    18  56    6.5775   519.9    5.358      65.140
2015    2       16    19   1    6.5703   519.9    5.353      65.101
2015    2       16    19   6    6.5631   519.9    5.348      65.063
2015    2       16    19  11    6.5559   520.0    5.344      65.024
2015    2       16    19  16    6.5487   520.0    5.339      64.985
2015    2       16    19  21    6.5415   520.0    5.334      64.946
2015    2       16    19  27    6.5344   520.1    5.330      64.907
2015    2       16    19  32    6.5269   520.1    5.325      64.869
2015    2       16    19  37    6.5198   520.1    5.321      64.830
2015    2       16    19  42    6.5130   520.1    5.316      64.790
2015    2       16    19  47    6.5059   520.2    5.311      64.751
2015    2       16    19  52    6.4988   520.2    5.307      64.712
2015    2       16    19  58    6.4917   520.2    5.302      64.672
2015    2       16    20   3    6.4847   520.2    5.298      64.633
2015    2       16    20   8    6.4773   520.3    5.293      64.593
2015    2       16    20  13    6.4706   520.3    5.288      64.552
2015    2       16    20  18    6.4636   520.3    5.284      64.512
2015    2       16    20  23    6.4563   520.3    5.279      64.472
2015    2       16    20  29    6.4493   520.3    5.274      64.431
2015    2       16    20  34    6.4427   520.3    5.269      64.389
2015    2       16    20  39    6.4358   520.3    5.265      64.348
2015    2       16    20  44    6.4289   520.4    5.260      64.306
2015    2       16    20  49    6.4217   520.4    5.255      64.264
2015    2       16    20  54    6.4148   520.4    5.250      64.221
2015    2       16    21   0    6.4080   520.4    5.245      64.179
2015    2       16    21   5    6.4012   520.4    5.240      64.136
2015    2       16    21  10    6.3944   520.4    5.236      64.093
2015    2       16    21  15    6.3880   520.4    5.231      64.049
2015    2       16    21  20    6.3813   520.4    5.226      64.006
2015    2       16    21  25    6.3746   520.4    5.221      63.962
2015    2       16    21  31    6.3679   520.4    5.216      63.918
2015    2       16    21  36    6.3609   520.4    5.211      63.874
2015    2       16    21  41    6.3543   520.4    5.206      63.830
2015    2       16    21  46    6.3481   520.4    5.201      63.786
2015    2       16    21  51    6.3415   520.4    5.197      63.741
2015    2       16    21  56    6.3350   520.4    5.192      63.696
2015    2       16    22   2    6.3282   520.4    5.187      63.652
2015    2       16    22   7    6.3217   520.4    5.182      63.607
2015    2       16    22  12    6.3155   520.4    5.177      63.562
2015    2       16    22  17    6.3088   520.4    5.172      63.516
2015    2       16    22  22    6.3027   520.4    5.168      63.471
2015    2       16    22  27    6.2961   520.4    5.163      63.426
2015    2       16    22  33    6.2897   520.4    5.158      63.380
2015    2       16    22  38    6.2837   520.4    5.153      63.335
2015    2       16    22  43    6.2772   520.3    5.149      63.289
2015    2       16    22  48    6.2709   520.3    5.144      63.244
2015    2       16    22  53    6.2650   520.3    5.140      63.198
2015    2       16    22  58    6.2585   520.3    5.135      63.153
2015    2       16    23   4    6.2524   520.3    5.130      63.108
2015    2       16    23   9    6.2463   520.3    5.126      63.062
2015    2       16    23  14    6.2402   520.3    5.122      63.017
2015    2       16    23  19    6.2341   520.3    5.117      62.972
2015    2       16    23  24    6.2284   520.2    5.113      62.927
2015    2       16    23  29    6.2221   520.2    5.109      62.882
2015    2       16    23  35    6.2164   520.2    5.105      62.837
2015    2       16    23  40    6.2102   520.2    5.100      62.792
2015    2       16    23  45    6.2043   520.2    5.096      62.748
2015    2       16    23  50    6.1984   520.1    5.092      62.703
2015    2       16    23  55    6.1928   520.1    5.088      62.659
2015    2       17     0   0    6.1869   520.1    5.085      62.615
2015    2       17     0   6    6.1811   520.1    5.081      62.572
2015    2       17     0  11    6.1751   520.1    5.077      62.528
2015    2       17     0  16    6.1696   520.0    5.073      62.485
2015    2       17     0  21    6.1636   520.0    5.070      62.442
2015    2       17     0  26    6.1582   520.0    5.066      62.400
2015    2       17     0  31    6.1522   520.0    5.063      62.357
2015    2       17     0  37    6.1469   519.9    5.060      62.315
2015    2       17     0  42    6.1413   519.9    5.056      62.273
2015    2       17     0  47    6.1357   519.9    5.053      62.232
2015    2       17     0  52    6.1299   519.9    5.050      62.190
2015    2       17     0  57    6.1243   519.8    5.047      62.149
2015    2       17     1   2    6.1188   519.8    5.044      62.109
2015    2       17     1   7    6.1134   519.8    5.041      62.068
2015    2       17     1  13    6.1082   519.8    5.039      62.028
2015    2       17     1  18    6.1025   519.7    5.036      61.989
2015    2       17     1  23    6.0971   519.7    5.033      61.949
2015    2       17     1  28    6.0920   519.7    5.031      61.910
2015    2       17     1  33    6.0867   519.7    5.028      61.871
2015    2       17     1  38    6.0813   519.6    5.026      61.832
2015    2       17     1  44    6.0760   519.6    5.023      61.794
2015    2       17     1  49    6.0705   519.6    5.021      61.755
2015    2       17     1  54    6.0655   519.5    5.019      61.717
2015    2       17     1  59    6.0599   519.5    5.016      61.679
2015    2       17     2   4    6.0549   519.5    5.014      61.641
2015    2       17     2   9    6.0494   519.4    5.012      61.603
2015    2       17     2  15    6.0442   519.4    5.010      61.565
2015    2       17     2  20    6.0392   519.4    5.008      61.527
2015    2       17     2  25    6.0337   519.3    5.005      61.489
2015    2       17     2  30    6.0285   519.3    5.003      61.451
2015    2       17     2  35    6.0233   519.3    5.001      61.413
2015    2       17     2  40    6.0181   519.2    4.999      61.374
2015    2       17     2  46    6.0132   519.2    4.997      61.336
2015    2       17     2  51    6.0077   519.2    4.994      61.297
2015    2       17     2  56    6.0025   519.1    4.992      61.258
2015    2       17     3   1    5.9973   519.1    4.990      61.220
2015    2       17     3   6    5.9921   519.0    4.988      61.180
2015    2       17     3  11    5.9870   519.0    4.985      61.141
2015    2       17     3  17    5.9821   518.9    4.983      61.102
2015    2       17     3  22    5.9770   518.9    4.981      61.062
2015    2       17     3  27    5.9719   518.8    4.978      61.022
2015    2       17     3  32    5.9665   518.8    4.976      60.982
2015    2       17     3  37    5.9615   518.7    4.974      60.942
2015    2       17     3  42    5.9564   518.7    4.971      60.902
2015    2       17     3  48    5.9514   518.6    4.969      60.861
2015    2       17     3  53    5.9464   518.6    4.966      60.820
2015    2       17     3  58    5.9414   518.5    4.964      60.780
2015    2       17     4   3    5.9364   518.4    4.961      60.739
2015    2       17     4   8    5.9314   518.4    4.959      60.697
2015    2       17     4  13    5.9265   518.3    4.956      60.656
2015    2       17     4  19    5.9216   518.3    4.953      60.614
2015    2       17     4  24    5.9167   518.2    4.951      60.573
2015    2       17     4  29    5.9122   518.1    4.948      60.531
2015    2       17     4  34    5.9070   518.1    4.945      60.489
2015    2       17     4  39    5.9022   518.0    4.943      60.447
2015    2       17     4  44    5.8977   517.9    4.940      60.404
2015    2       17     4  50    5.8930   517.9    4.937      60.361
2015    2       17     4  55    5.8880   517.8    4.935      60.319
2015    2       17     5   0    5.8835   517.7    4.932      60.276
2015    2       17     5   5    5.8788   517.7    4.929      60.233
2015    2       17     5  10    5.8739   517.6    4.927      60.190
2015    2       17     5  15    5.8692   517.5    4.924      60.146
2015    2       17     5  21    5.8646   517.5    4.921      60.103
2015    2       17     5  26    5.8603   517.4    4.919      60.059
2015    2       17     5  31    5.8557   517.3    4.916      60.015
2015    2       17     5  36    5.8509   517.3    4.913      59.971
2015    2       17     5  41    5.8466   517.2    4.910      59.927
2015    2       17     5  46    5.8421   517.1    4.908      59.883
2015    2       17     5  52    5.8373   517.0    4.905      59.838
2015    2       17     5  57    5.8331   517.0    4.902      59.794
2015    2       17     6   2    5.8287   516.9    4.900      59.749
2015    2       17     6   7    5.8243   516.8    4.897      59.705
2015    2       17     6  12    5.8196   516.7    4.894      59.660
2015    2       17     6  17    5.8152   516.7    4.892      59.615
2015    2       17     6  23    5.8109   516.6    4.889      59.570
2015    2       17     6  28    5.8065   516.5    4.887      59.525
2015    2       17     6  33    5.8022   516.4    4.884      59.480
2015    2       17     6  38    5.7979   516.4    4.881      59.435
2015    2       17     6  43    5.7936   516.3    4.879      59.390
2015    2       17     6  48    5.7894   516.2    4.876      59.344
2015    2       17     6  54    5.7851   516.1    4.874      59.299
2015    2       17     6  59    5.7809   516.1    4.871      59.254
2015    2       17     7   4    5.7767   516.0    4.869      59.209
2015    2       17     7   9    5.7725   515.9    4.866      59.163
2015    2       17     7  14    5.7683   515.8    4.864      59.118
2015    2       17     7  19    5.7641   515.7    4.862      59.073
2015    2       17     7  25    5.7600   515.7    4.859      59.028
2015    2       17     7  30    5.7559   515.6    4.857      58.982
2015    2       17     7  35    5.7518   515.5    4.855      58.937
2015    2       17     7  40    5.7477   515.4    4.853      58.892
2015    2       17     7  45    5.7438   515.3    4.851      58.848
2015    2       17     7  50    5.7397   515.2    4.849      58.803
2015    2       17     7  56    5.7355   515.2    4.847      58.758
2015    2       17     8   1    5.7315   515.1    4.845      58.714
2015    2       17     8   6    5.7277   515.0    4.843      58.670
2015    2       17     8  11    5.7236   514.9    4.841      58.626
2015    2       17     8  16    5.7196   514.8    4.839      58.583
2015    2       17     8  21    5.7157   514.7    4.838      58.540
2015    2       17     8  27    5.7118   514.7    4.836      58.497
2015    2       17     8  32    5.7079   514.6    4.835      58.454
2015    2       17     8  37    5.7041   514.5    4.833      58.412
2015    2       17     8  42    5.7002   514.4    4.832      58.370
2015    2       17     8  47    5.6966   514.3    4.831      58.329
2015    2       17     8  52    5.6926   514.2    4.830      58.288
2015    2       17     8  58    5.6889   514.1    4.828      58.248
2015    2       17     9   3    5.6851   514.0    4.827      58.207
2015    2       17     9   8    5.6814   514.0    4.826      58.168
2015    2       17     9  13    5.6777   513.9    4.826      58.128
2015    2       17     9  18    5.6740   513.8    4.825      58.090
2015    2       17     9  23    5.6703   513.7    4.824      58.051
2015    2       17     9  29    5.6668   513.6    4.823      58.013
2015    2       17     9  34    5.6630   513.5    4.823      57.975
2015    2       17     9  39    5.6595   513.4    4.822      57.938
2015    2       17     9  44    5.6557   513.3    4.822      57.900
2015    2       17     9  49    5.6521   513.2    4.821      57.864
2015    2       17     9  54    5.6485   513.1    4.821      57.827
2015    2       17     9  59    5.6449   513.1    4.820      57.791
2015    2       17    10   5    5.6414   513.0    4.820      57.755
2015    2       17    10  10    5.6378   512.9    4.820      57.719
2015    2       17    10  15    5.6344   512.8    4.819      57.683
2015    2       17    10  20    5.6309   512.7    4.819      57.648
2015    2       17    10  25    5.6272   512.6    4.819      57.613
2015    2       17    10  30    5.6237   512.5    4.818      57.578
2015    2       17    10  36    5.6202   512.4    4.818      57.544
2015    2       17    10  41    5.6168   512.3    4.818      57.509
2015    2       17    10  46    5.6133   512.2    4.818      57.475
2015    2       17    10  51    5.6098   512.1    4.817      57.441
2015    2       17    10  56    5.6064   512.0    4.817      57.407
2015    2       17    11   1    5.6030   511.9    4.817      57.373
2015    2       17    11   7    5.5995   511.8    4.817      57.340
2015    2       17    11  12    5.5963   511.7    4.816      57.306
2015    2       17    11  17    5.5927   511.6    4.816      57.273
2015    2       17    11  22    5.5893   511.5    4.816      57.240
2015    2       17    11  27    5.5860   511.4    4.815      57.206
2015    2       17    11  32    5.5826   511.3    4.815      57.173
2015    2       17    11  38    5.5793   511.2    4.815      57.139
2015    2       17    11  43    5.5759   511.1    4.814      57.106
2015    2       17    11  48    5.5726   511.0    4.814      57.072
2015    2       17    11  53    5.5692   510.9    4.813      57.038
2015    2       17    11  58    5.5661   510.8    4.813      57.003
2015    2       17    12   3    5.5626   510.7    4.812      56.969
2015    2       17    12   9    5.5593   510.6    4.812      56.934
2015    2       17    12  14    5.5561   510.5    4.811      56.899
2015    2       17    12  19    5.5528   510.4    4.810      56.863
2015    2       17    12  24    5.5495   510.3    4.810      56.828
2015    2       17    12  29    5.5465   510.2    4.809      56.791
2015    2       17    12  34    5.5431   510.0    4.808      56.755
2015    2       17    12  40    5.5401   509.9    4.807      56.718
2015    2       17    12  45    5.5367   509.8    4.806      56.681
2015    2       17    12  50    5.5335   509.7    4.805      56.643
2015    2       17    12  55    5.5303   509.6    4.804      56.605
2015    2       17    13   0    5.5272   509.5    4.803      56.567
2015    2       17    13   5    5.5240   509.4    4.802      56.528
2015    2       17    13  11    5.5209   509.3    4.801      56.489
2015    2       17    13  16    5.5178   509.2    4.800      56.450
2015    2       17    13  21    5.5147   509.1    4.799      56.411
2015    2       17    13  26    5.5116   508.9    4.798      56.371
2015    2       17    13  31    5.5086   508.8    4.797      56.331
2015    2       17    13  36    5.5055   508.7    4.796      56.290
2015    2       17    13  42    5.5024   508.6    4.795      56.250
2015    2       17    13  47    5.4994   508.5    4.794      56.209
2015    2       17    13  52    5.4964   508.4    4.793      56.167
2015    2       17    13  57    5.4935   508.3    4.791      56.126
2015    2       17    14   2    5.4904   508.1    4.790      56.085
2015    2       17    14   7    5.4874   508.0    4.789      56.043
2015    2       17    14  13    5.4846   507.9    4.788      56.001
2015    2       17    14  18    5.4816   507.8    4.787      55.959
2015    2       17    14  23    5.4787   507.7    4.785      55.916
2015    2       17    14  28    5.4757   507.6    4.784      55.874
2015    2       17    14  33    5.4728   507.4    4.783      55.831
2015    2       17    14  38    5.4699   507.3    4.782      55.789
2015    2       17    14  44    5.4670   507.2    4.780      55.746
2015    2       17    14  49    5.4641   507.1    4.779      55.703
2015    2       17    14  54    5.4612   507.0    4.778      55.660
2015    2       17    14  59    5.4583   506.8    4.777      55.616
2015    2       17    15   4    5.4555   506.7    4.776      55.573
2015    2       17    15   9    5.4526   506.6    4.774      55.530
2015    2       17    15  15    5.4497   506.5    4.773      55.486
2015    2       17    15  20    5.4470   506.4    4.772      55.443
2015    2       17    15  25    5.4442   506.2    4.771      55.399
2015    2       17    15  30    5.4413   506.1    4.770      55.356
2015    2       17    15  35    5.4386   506.0    4.769      55.312
2015    2       17    15  40    5.4359   505.9    4.768      55.269
2015    2       17    15  46    5.4330   505.7    4.767      55.226
2015    2       17    15  51    5.4304   505.6    4.766      55.183
2015    2       17    15  56    5.4276   505.5    4.765      55.140
2015    2       17    16   1    5.4249   505.4    4.764      55.097
2015    2       17    16   6    5.4222   505.2    4.763      55.054
2015    2       17    16  11    5.4197   505.1    4.763      55.012
2015    2       17    16  17    5.4169   505.0    4.762      54.970
2015    2       17    16  22    5.4143   504.9    4.761      54.928
2015    2       17    16  27    5.4117   504.7    4.761      54.886
2015    2       17    16  32    5.4091   504.6    4.760      54.845
2015    2       17    16  37    5.4066   504.5    4.759      54.804
2015    2       17    16  42    5.4040   504.4    4.759      54.763
2015    2       17    16  48    5.4016   504.2    4.759      54.722
2015    2       17    16  53    5.3991   504.1    4.758      54.682
2015    2       17    16  58    5.3964   504.0    4.758      54.642
2015    2       17    17   3    5.3940   503.8    4.758      54.603
2015    2       17    17   8    5.3915   503.7    4.757      54.564
2015    2       17    17  13    5.3891   503.6    4.757      54.525
2015    2       17    17  19    5.3866   503.5    4.757      54.487
2015    2       17    17  24    5.3842   503.3    4.757      54.449
2015    2       17    17  29    5.3818   503.2    4.757      54.412
2015    2       17    17  34    5.3794   503.1    4.757      54.374
2015    2       17    17  39    5.3770   502.9    4.758      54.338
2015    2       17    17  44    5.3747   502.8    4.758      54.301
2015    2       17    17  50    5.3724   502.7    4.758      54.266
2015    2       17    17  55    5.3701   502.6    4.758      54.230
2015    2       17    18   0    5.3677   502.4    4.759      54.195
2015    2       17    18   5    5.3654   502.3    4.759      54.160
2015    2       17    18  10    5.3631   502.2    4.759      54.126
2015    2       17    18  15    5.3608   502.1    4.760      54.092
2015    2       17    18  20    5.3585   501.9    4.760      54.058
2015    2       17    18  26    5.3562   501.8    4.761      54.025
2015    2       17    18  31    5.3539   501.7    4.761      53.992
2015    2       17    18  36    5.3517   501.5    4.762      53.959
2015    2       17    18  41    5.3494   501.4    4.763      53.927
2015    2       17    18  46    5.3470   501.3    4.763      53.895
2015    2       17    18  51    5.3449   501.2    4.764      53.863
2015    2       17    18  57    5.3425   501.0    4.765      53.831
2015    2       17    19   2    5.3402   500.9    4.765      53.799
2015    2       17    19   7    5.3380   500.8    4.766      53.768
2015    2       17    19  12    5.3357   500.6    4.766      53.736
2015    2       17    19  17    5.3334   500.5    4.767      53.705
2015    2       17    19  22    5.3312   500.4    4.768      53.673
2015    2       17    19  28    5.3289   500.2    4.768      53.642
2015    2       17    19  33    5.3267   500.1    4.769      53.610
2015    2       17    19  38    5.3245   500.0    4.770      53.579
2015    2       17    19  43    5.3221   499.8    4.770      53.547
2015    2       17    19  48    5.3199   499.7    4.771      53.516
2015    2       17    19  53    5.3177   499.6    4.772      53.484
2015    2       17    19  59    5.3155   499.4    4.772      53.453
2015    2       17    20   4    5.3133   499.3    4.773      53.421
2015    2       17    20   9    5.3111   499.1    4.774      53.389
2015    2       17    20  14    5.3089   499.0    4.775      53.358
2015    2       17    20  19    5.3067   498.9    4.775      53.326
2015    2       17    20  24    5.3045   498.7    4.776      53.294
2015    2       17    20  30    5.3024   498.6    4.777      53.263
2015    2       17    20  35    5.3003   498.5    4.777      53.231
2015    2       17    20  40    5.2981   498.3    4.778      53.199
2015    2       17    20  45    5.2960   498.2    4.779      53.167
2015    2       17    20  50    5.2940   498.0    4.779      53.135
2015    2       17    20  55    5.2918   497.9    4.780      53.102
2015    2       17    21   1    5.2898   497.8    4.780      53.070
2015    2       17    21   6    5.2876   497.6    4.781      53.037
2015    2       17    21  11    5.2856   497.5    4.782      53.005
2015    2       17    21  16    5.2835   497.4    4.782      52.972
2015    2       17    21  21    5.2814   497.2    4.783      52.939
2015    2       17    21  26    5.2794   497.1    4.783      52.906
2015    2       17    21  32    5.2773   496.9    4.784      52.872
2015    2       17    21  37    5.2753   496.8    4.785      52.839
2015    2       17    21  42    5.2733   496.6    4.785      52.805
2015    2       17    21  47    5.2713   496.5    4.785      52.771
2015    2       17    21  52    5.2693   496.4    4.786      52.737
2015    2       17    21  57    5.2673   496.2    4.786      52.703
2015    2       17    22   3    5.2653   496.1    4.787      52.668
2015    2       17    22   8    5.2634   495.9    4.787      52.634
2015    2       17    22  13    5.2614   495.8    4.787      52.599
2015    2       17    22  18    5.2595   495.6    4.788      52.563
2015    2       17    22  23    5.2576   495.5    4.788      52.528
2015    2       17    22  28    5.2558   495.3    4.788      52.492
2015    2       17    22  34    5.2539   495.2    4.788      52.456
2015    2       17    22  39    5.2519   495.1    4.788      52.420
2015    2       17    22  44    5.2501   494.9    4.788      52.383
2015    2       17    22  49    5.2482   494.8    4.789      52.346
2015    2       17    22  54    5.2464   494.6    4.789      52.309
2015    2       17    22  59    5.2446   494.5    4.789      52.272
2015    2       17    23   5    5.2429   494.3    4.789      52.234
2015    2       17    23  10    5.2410   494.2    4.789      52.196
2015    2       17    23  15    5.2393   494.0    4.789      52.158
2015    2       17    23  20    5.2375   493.9    4.789      52.120
2015    2       17    23  25    5.2358   493.7    4.789      52.081
2015    2       17    23  30    5.2340   493.6    4.788      52.043
2015    2       17    23  36    5.2323   493.4    4.788      52.004
2015    2       17    23  41    5.2306   493.3    4.788      51.965
2015    2       17    23  46    5.2289   493.1    4.788      51.926
2015    2       17    23  51    5.2272   493.0    4.788      51.886
2015    2       17    23  56    5.2255   492.8    4.788      51.847
2015    2       18     0   1    5.2238   492.6    4.788      51.807
2015    2       18     0   7    5.2222   492.5    4.788      51.768
2015    2       18     0  12    5.2204   492.3    4.788      51.728
2015    2       18     0  17    5.2187   492.2    4.788      51.688
2015    2       18     0  22    5.2171   492.0    4.787      51.648
2015    2       18     0  27    5.2154   491.9    4.787      51.608
2015    2       18     0  32    5.2138   491.7    4.787      51.568
2015    2       18     0  38    5.2122   491.6    4.787      51.528
2015    2       18     0  43    5.2105   491.4    4.787      51.488
2015    2       18     0  48    5.2088   491.2    4.787      51.448
2015    2       18     0  53    5.2072   491.1    4.787      51.408
2015    2       18     0  58    5.2056   490.9    4.787      51.369
2015    2       18     1   3    5.2040   490.8    4.787      51.329
2015    2       18     1   9    5.2024   490.6    4.788      51.289
2015    2       18     1  14    5.2008   490.4    4.788      51.250
2015    2       18     1  19    5.1992   490.3    4.788      51.211
2015    2       18     1  24    5.1976   490.1    4.788      51.171
2015    2       18     1  29    5.1960   490.0    4.788      51.132
2015    2       18     1  34    5.1945   489.8    4.789      51.093
2015    2       18     1  40    5.1929   489.6    4.789      51.054
2015    2       18     1  45    5.1912   489.5    4.789      51.016
2015    2       18     1  50    5.1897   489.3    4.790      50.977
2015    2       18     1  55    5.1881   489.2    4.790      50.939
2015    2       18     2   0    5.1866   489.0    4.790      50.901
2015    2       18     2   5    5.1850   488.8    4.791      50.863
2015    2       18     2  10    5.1834   488.7    4.791      50.825
2015    2       18     2  16    5.1819   488.5    4.792      50.788
2015    2       18     2  21    5.1803   488.3    4.793      50.751
2015    2       18     2  26    5.1788   488.2    4.793      50.713
2015    2       18     2  31    5.1772   488.0    4.794      50.676
2015    2       18     2  36    5.1757   487.8    4.795      50.639
2015    2       18     2  41    5.1742   487.7    4.795      50.603
2015    2       18     2  47    5.1727   487.5    4.796      50.566
2015    2       18     2  52    5.1711   487.3    4.797      50.530
2015    2       18     2  57    5.1696   487.2    4.798      50.494
2015    2       18     3   2    5.1681   487.0    4.799      50.459
2015    2       18     3   7    5.1665   486.8    4.800      50.423
2015    2       18     3  12    5.1650   486.7    4.801      50.388
2015    2       18     3  18    5.1636   486.5    4.802      50.353
2015    2       18     3  23    5.1621   486.3    4.803      50.318
2015    2       18     3  28    5.1606   486.2    4.804      50.284
2015    2       18     3  33    5.1592   486.0    4.805      50.250
2015    2       18     3  38    5.1577   485.8    4.807      50.216
2015    2       18     3  43    5.1563   485.6    4.808      50.183
2015    2       18     3  49    5.1549   485.5    4.809      50.150
2015    2       18     3  54    5.1535   485.3    4.811      50.117
2015    2       18     3  59    5.1521   485.1    4.812      50.084
2015    2       18     4   4    5.1508   484.9    4.814      50.052
2015    2       18     4   9    5.1494   484.8    4.816      50.020
2015    2       18     4  14    5.1482   484.6    4.817      49.989
2015    2       18     4  20    5.1469   484.4    4.819      49.958
2015    2       18     4  25    5.1456   484.2    4.821      49.927
2015    2       18     4  30    5.1443   484.1    4.823      49.897
2015    2       18     4  35    5.1431   483.9    4.825      49.866
2015    2       18     4  40    5.1419   483.7    4.827      49.836
2015    2       18     4  45    5.1407   483.5    4.829      49.807
2015    2       18     4  51    5.1397   483.4    4.831      49.778
2015    2       18     4  56    5.1385   483.2    4.833      49.748
2015    2       18     5   1    5.1374   483.0    4.835      49.720
2015    2       18     5   6    5.1364   482.8    4.838      49.691
2015    2       18     5  11    5.1353   482.7    4.840      49.663
2015    2       18     5  16    5.1343   482.5    4.842      49.634
2015    2       18     5  22    5.1333   482.3    4.845      49.606
2015    2       18     5  27    5.1324   482.1    4.847      49.579
2015    2       18     5  32    5.1314   481.9    4.849      49.551
2015    2       18     5  37    5.1306   481.8    4.852      49.523
2015    2       18     5  42    5.1297   481.6    4.854      49.496
2015    2       18     5  47    5.1288   481.4    4.857      49.469
2015    2       18     5  53    5.1281   481.2    4.859      49.442
2015    2       18     5  58    5.1272   481.0    4.862      49.415
2015    2       18     6   3    5.1265   480.9    4.865      49.388
2015    2       18     6   8    5.1257   480.7    4.867      49.362
2015    2       18     6  13    5.1250   480.5    4.870      49.335
2015    2       18     6  18    5.1244   480.3    4.873      49.309
2015    2       18     6  24    5.1237   480.1    4.876      49.282
2015    2       18     6  29    5.1231   480.0    4.878      49.256
2015    2       18     6  34    5.1226   479.8    4.881      49.229
2015    2       18     6  39    5.1220   479.6    4.884      49.203
2015    2       18     6  44    5.1214   479.4    4.887      49.177
2015    2       18     6  49    5.1209   479.2    4.889      49.151
2015    2       18     6  55    5.1204   479.1    4.892      49.125
2015    2       18     7   0    5.1198   478.9    4.895      49.099
2015    2       18     7   5    5.1194   478.7    4.898      49.073
2015    2       18     7  10    5.1188   478.5    4.901      49.047
2015    2       18     7  15    5.1183   478.3    4.904      49.021
2015    2       18     7  20    5.1179   478.2    4.907      48.995
2015    2       18     7  26    5.1174   478.0    4.909      48.969
2015    2       18     7  31    5.1169   477.8    4.912      48.943
2015    2       18     7  36    5.1166   477.6    4.915      48.917
2015    2       18     7  41    5.1162   477.4    4.918      48.891
2015    2       18     7  46    5.1158   477.3    4.921      48.865
2015    2       18     7  51    5.1154   477.1    4.924      48.840
2015    2       18     7  57    5.1150   476.9    4.926      48.814
2015    2       18     8   2    5.1146   476.7    4.929      48.788
2015    2       18     8   7    5.1140   476.5    4.932      48.762
2015    2       18     8  12    5.1137   476.4    4.934      48.736
2015    2       18     8  17    5.1133   476.2    4.937      48.710
2015    2       18     8  22    5.1130   476.0    4.940      48.684
2015    2       18     8  28    5.1125   475.8    4.943      48.658
2015    2       18     8  33    5.1123   475.7    4.945      48.632
2015    2       18     8  38    5.1120   475.5    4.948      48.606
2015    2       18     8  43    5.1115   475.3    4.950      48.580
2015    2       18     8  48    5.1113   475.1    4.953      48.554
2015    2       18     8  53    5.1109   474.9    4.955      48.527
2015    2       18     8  59    5.1105   474.8    4.958      48.501
2015    2       18     9   4    5.1102   474.6    4.961      48.475
2015    2       18     9   9    5.1099   474.4    4.963      48.449
2015    2       18     9  14    5.1096   474.2    4.966      48.422
2015    2       18     9  19    5.1095   474.1    4.968      48.396
2015    2       18     9  24    5.1091   473.9    4.970      48.370
2015    2       18     9  29    5.1088   473.7    4.973      48.343
2015    2       18     9  35    5.1087   473.5    4.975      48.317
2015    2       18     9  40    5.1083   473.3    4.978      48.291
2015    2       18     9  45    5.1083   473.2    4.980      48.264
2015    2       18     9  50    5.1079   473.0    4.983      48.238
2015    2       18     9  55    5.1077   472.8    4.985      48.212
2015    2       18    10   0    5.1077   472.6    4.988      48.185
2015    2       18    10   6    5.1074   472.5    4.990      48.159
2015    2       18    10  11    5.1072   472.3    4.993      48.133
2015    2       18    10  16    5.1071   472.1    4.995      48.106
2015    2       18    10  21    5.1070   471.9    4.998      48.080
2015    2       18    10  26    5.1070   471.7    5.001      48.054
2015    2       18    10  31    5.1068   471.6    5.003      48.028
2015    2       18    10  37    5.1067   471.4    5.006      48.002
2015    2       18    10  42    5.1067   471.2    5.009      47.976
2015    2       18    10  47    5.1066   471.0    5.012      47.951
2015    2       18    10  52    5.1066   470.9    5.014      47.925
2015    2       18    10  57    5.1067   470.7    5.017      47.900
2015    2       18    11   2    5.1067   470.5    5.020      47.875
2015    2       18    11   8    5.1068   470.3    5.023      47.850
2015    2       18    11  13    5.1069   470.1    5.026      47.826
2015    2       18    11  18    5.1070   470.0    5.030      47.802
2015    2       18    11  23    5.1073   469.8    5.033      47.778
2015    2       18    11  28    5.1073   469.6    5.036      47.755
2015    2       18    11  33    5.1075   469.4    5.040      47.732
2015    2       18    11  39    5.1080   469.3    5.043      47.710
2015    2       18    11  44    5.1081   469.1    5.047      47.688
2015    2       18    11  49    5.1084   468.9    5.051      47.666
2015    2       18    11  54    5.1087   468.7    5.055      47.645
2015    2       18    11  59    5.1091   468.6    5.059      47.624
2015    2       18    12   4    5.1097   468.4    5.063      47.604
2015    2       18    12  10    5.1100   468.2    5.067      47.584
2015    2       18    12  15    5.1105   468.0    5.071      47.565
2015    2       18    12  20    5.1110   467.9    5.075      47.547
2015    2       18    12  25    5.1118   467.7    5.079      47.528
2015    2       18    12  30    5.1122   467.5    5.084      47.511
2015    2       18    12  35    5.1128   467.4    5.088      47.493
2015    2       18    12  41    5.1137   467.2    5.093      47.477
2015    2       18    12  46    5.1143   467.0    5.098      47.460
2015    2       18    12  51    5.1150   466.8    5.103      47.444
2015    2       18    12  56    5.1158   466.7    5.107      47.429
2015    2       18    13   1    5.1166   466.5    5.112      47.414
2015    2       18    13   6    5.1175   466.3    5.117      47.399
2015    2       18    13  12    5.1184   466.2    5.122      47.385
2015    2       18    13  17    5.1193   466.0    5.127      47.371
2015    2       18    13  22    5.1203   465.9    5.132      47.357
2015    2       18    13  27    5.1213   465.7    5.137      47.343
2015    2       18    13  32    5.1223   465.5    5.142      47.330
2015    2       18    13  37    5.1234   465.4    5.148      47.318
2015    2       18    13  43    5.1245   465.2    5.153      47.305
2015    2       18    13  48    5.1256   465.0    5.158      47.293
2015    2       18    13  53    5.1268   464.9    5.163      47.281
2015    2       18    13  58    5.1280   464.7    5.169      47.269
2015    2       18    14   3    5.1292   464.6    5.174      47.257
2015    2       18    14   8    5.1305   464.4    5.179      47.246
2015    2       18    14  14    5.1318   464.2    5.185      47.235
2015    2       18    14  19    5.1331   464.1    5.190      47.224
2015    2       18    14  24    5.1345   463.9    5.195      47.213
2015    2       18    14  29    5.1359   463.8    5.201      47.203
2015    2       18    14  34    5.1376   463.6    5.206      47.192
2015    2       18    14  39    5.1389   463.5    5.212      47.182
2015    2       18    14  45    5.1404   463.3    5.217      47.172
2015    2       18    14  50    5.1419   463.1    5.223      47.163
2015    2       18    14  55    5.1436   463.0    5.228      47.153
2015    2       18    15   0    5.1452   462.8    5.234      47.144
2015    2       18    15   5    5.1469   462.7    5.239      47.135
2015    2       18    15  10    5.1486   462.5    5.245      47.126
2015    2       18    15  16    5.1504   462.4    5.250      47.118
2015    2       18    15  21    5.1522   462.2    5.256      47.109
2015    2       18    15  26    5.1540   462.1    5.261      47.101
2015    2       18    15  31    5.1559   461.9    5.267      47.093
2015    2       18    15  36    5.1581   461.8    5.272      47.086
2015    2       18    15  41    5.1599   461.6    5.278      47.079
2015    2       18    15  47    5.1619   461.5    5.283      47.072
2015    2       18    15  52    5.1640   461.4    5.289      47.065
2015    2       18    15  57    5.1661   461.2    5.295      47.058
2015    2       18    16   2    5.1682   461.1    5.300      47.052
2015    2       18    16   7    5.1704   460.9    5.306      47.045
2015    2       18    16  12    5.1727   460.8    5.312      47.039
2015    2       18    16  18    5.1750   460.6    5.317      47.034
2015    2       18    16  23    5.1773   460.5    5.323      47.028
2015    2       18    16  28    5.1799   460.4    5.329      47.023
2015    2       18    16  33    5.1821   460.2    5.335      47.018
2015    2       18    16  38    5.1847   460.1    5.340      47.013
2015    2       18    16  43    5.1870   460.0    5.346      47.008
2015    2       18    16  48    5.1895   459.8    5.352      47.004
2015    2       18    16  54    5.1923   459.7    5.358      46.999
2015    2       18    16  59    5.1948   459.6    5.363      46.995
2015    2       18    17   4    5.1972   459.4    5.369      46.991
2015    2       18    17   9    5.1998   459.3    5.375      46.987
2015    2       18    17  14    5.2025   459.2    5.381      46.983
2015    2       18    17  19    5.2052   459.0    5.387      46.979
2015    2       18    17  25    5.2082   458.9    5.393      46.975
2015    2       18    17  30    5.2107   458.8    5.398      46.972
2015    2       18    17  35    5.2135   458.7    5.404      46.968
2015    2       18    17  40    5.2162   458.5    5.410      46.965
2015    2       18    17  45    5.2193   458.4    5.416      46.962
2015    2       18    17  50    5.2221   458.3    5.422      46.959
2015    2       18    17  56    5.2249   458.2    5.428      46.956
2015    2       18    18   1    5.2275   458.1    5.434      46.953
2015    2       18    18   6    5.2306   457.9    5.440      46.950
2015    2       18    18  11    5.2333   457.8    5.445      46.947
2015    2       18    18  16    5.2362   457.7    5.451      46.945
2015    2       18    18  21    5.2393   457.6    5.457      46.943
2015    2       18    18  27    5.2419   457.4    5.463      46.941
2015    2       18    18  32    5.2448   457.3    5.469      46.939
2015    2       18    18  37    5.2477   457.2    5.475      46.937
2015    2       18    18  42    5.2506   457.1    5.480      46.936
2015    2       18    18  47    5.2535   457.0    5.486      46.934
2015    2       18    18  52    5.2564   456.9    5.492      46.933
2015    2       18    18  58    5.2593   456.7    5.498      46.932
2015    2       18    19   3    5.2622   456.6    5.504      46.931
2015    2       18    19   8    5.2653   456.5    5.510      46.930
2015    2       18    19  13    5.2682   456.4    5.515      46.929
2015    2       18    19  18    5.2709   456.3    5.521      46.928
2015    2       18    19  23    5.2738   456.2    5.527      46.928
2015    2       18    19  29    5.2767   456.1    5.533      46.927
2015    2       18    19  34    5.2795   455.9    5.539      46.927
2015    2       18    19  39    5.2824   455.8    5.544      46.926
2015    2       18    19  44    5.2852   455.7    5.550      46.926
2015    2       18    19  49    5.2881   455.6    5.556      46.925
2015    2       18    19  54    5.2909   455.5    5.562      46.925
2015    2       18    20   0    5.2938   455.4    5.568      46.925
2015    2       18    20   5    5.2966   455.3    5.573      46.924
2015    2       18    20  10    5.2994   455.2    5.579      46.924
2015    2       18    20  15    5.3022   455.1    5.585      46.924
2015    2       18    20  20    5.3050   455.0    5.591      46.923
2015    2       18    20  25    5.3078   454.9    5.597      46.923
2015    2       18    20  31    5.3106   454.8    5.602      46.922
2015    2       18    20  36    5.3134   454.6    5.608      46.922
2015    2       18    20  41    5.3163   454.5    5.614      46.921
2015    2       18    20  46    5.3189   454.4    5.619      46.921
2015    2       18    20  51    5.3217   454.3    5.625      46.920
2015    2       18    20  56    5.3246   454.2    5.630      46.920
2015    2       18    21   2    5.3272   454.1    5.636      46.919
2015    2       18    21   7    5.3301   454.0    5.642      46.918
2015    2       18    21  12    5.3329   453.9    5.647      46.917
2015    2       18    21  17    5.3356   453.8    5.653      46.917
2015    2       18    21  22    5.3382   453.7    5.658      46.916
2015    2       18    21  27    5.3411   453.6    5.664      46.915
2015    2       18    21  33    5.3437   453.5    5.669      46.914
2015    2       18    21  38    5.3465   453.4    5.674      46.913
2015    2       18    21  43    5.3492   453.3    5.680      46.912
2015    2       18    21  48    5.3520   453.2    5.685      46.911
2015    2       18    21  53    5.3548   453.1    5.691      46.910
2015    2       18    21  58    5.3575   453.0    5.696      46.910
2015    2       18    22   4    5.3604   452.9    5.701      46.909
2015    2       18    22   9    5.3631   452.8    5.707      46.909
2015    2       18    22  14    5.3660   452.7    5.712      46.908
2015    2       18    22  19    5.3687   452.6    5.718      46.908
2015    2       18    22  24    5.3716   452.5    5.723      46.908
2015    2       18    22  29    5.3744   452.4    5.729      46.908
2015    2       18    22  35    5.3772   452.3    5.734      46.909
2015    2       18    22  40    5.3801   452.2    5.740      46.910
2015    2       18    22  45    5.3830   452.1    5.745      46.911
2015    2       18    22  50    5.3859   452.0    5.751      46.912
2015    2       18    22  55    5.3888   451.9    5.756      46.914
2015    2       18    23   0    5.3918   451.9    5.762      46.916
2015    2       18    23   6    5.3947   451.8    5.768      46.918
2015    2       18    23  11    5.3978   451.7    5.774      46.921
2015    2       18    23  16    5.4007   451.6    5.780      46.924
2015    2       18    23  21    5.4037   451.5    5.786      46.928
2015    2       18    23  26    5.4068   451.4    5.792      46.931
2015    2       18    23  31    5.4098   451.3    5.798      46.936
2015    2       18    23  37    5.4129   451.2    5.804      46.941
2015    2       18    23  42    5.4160   451.1    5.810      46.946
2015    2       18    23  47    5.4191   451.1    5.817      46.951
2015    2       18    23  52    5.4223   451.0    5.823      46.957
2015    2       18    23  57    5.4253   450.9    5.829      46.963
2015    2       19     0   2    5.4284   450.8    5.836      46.970
2015    2       19     0   8    5.4315   450.7    5.842      46.977
2015    2       19     0  13    5.4347   450.7    5.849      46.984
2015    2       19     0  18    5.4377   450.6    5.855      46.992
2015    2       19     0  23    5.4407   450.5    5.862      46.999
2015    2       19     0  28    5.4437   450.4    5.869      47.007
2015    2       19     0  33    5.4468   450.4    5.875      47.015
2015    2       19     0  38    5.4497   450.3    5.882      47.024
2015    2       19     0  44    5.4527   450.2    5.889      47.032
2015    2       19     0  49    5.4556   450.1    5.895      47.041
2015    2       19     0  54    5.4586   450.1    5.902      47.050
2015    2       19     0  59    5.4615   450.0    5.908      47.060
2015    2       19     1   4    5.4644   449.9    5.915      47.069
2015    2       19     1   9    5.4673   449.8    5.921      47.079
2015    2       19     1  15    5.4701   449.8    5.928      47.089
2015    2       19     1  20    5.4730   449.7    5.934      47.098
2015    2       19     1  25    5.4759   449.6    5.940      47.108
2015    2       19     1  30    5.4787   449.5    5.946      47.118
2015    2       19     1  35    5.4815   449.5    5.953      47.128
2015    2       19     1  40    5.4844   449.4    5.959      47.138
2015    2       19     1  46    5.4871   449.3    5.965      47.148
2015    2       19     1  51    5.4899   449.2    5.970      47.159
2015    2       19     1  56    5.4927   449.2    5.976      47.169
2015    2       19     2   1    5.4955   449.1    5.982      47.178
2015    2       19     2   6    5.4982   449.0    5.988      47.188
2015    2       19     2  11    5.5010   448.9    5.993      47.198
2015    2       19     2  17    5.5037   448.9    5.999      47.208
2015    2       19     2  22    5.5065   448.8    6.005      47.217
2015    2       19     2  27    5.5092   448.7    6.010      47.226
2015    2       19     2  32    5.5119   448.6    6.015      47.235
2015    2       19     2  37    5.5147   448.6    6.021      47.244
2015    2       19     2  42    5.5174   448.5    6.026      47.253
2015    2       19     2  48    5.5202   448.4    6.031      47.261
2015    2       19     2  53    5.5229   448.3    6.037      47.269
2015    2       19     2  58    5.5256   448.3    6.042      47.277
2015    2       19     3   3    5.5284   448.2    6.047      47.285
2015    2       19     3   8    5.5311   448.1    6.052      47.292
2015    2       19     3  13    5.5339   448.1    6.057      47.300
2015    2       19     3  19    5.5365   448.0    6.062      47.307
2015    2       19     3  24    5.5393   447.9    6.067      47.314
2015    2       19     3  29    5.5420   447.8    6.072      47.320
2015    2       19     3  34    5.5447   447.8    6.077      47.327
2015    2       19     3  39    5.5475   447.7    6.082      47.333
2015    2       19     3  44    5.5501   447.6    6.087      47.339
2015    2       19     3  50    5.5529   447.6    6.092      47.344
2015    2       19     3  55    5.5556   447.5    6.097      47.350
2015    2       19     4   0    5.5583   447.4    6.102      47.355
2015    2       19     4   5    5.5610   447.4    6.107      47.361
2015    2       19     4  10    5.5637   447.3    6.112      47.366
2015    2       19     4  15    5.5665   447.2    6.117      47.371
2015    2       19     4  21    5.5692   447.2    6.122      47.376
2015    2       19     4  26    5.5719   447.1    6.127      47.381
2015    2       19     4  31    5.5747   447.0    6.132      47.386
2015    2       19     4  36    5.5774   446.9    6.137      47.391
2015    2       19     4  41    5.5802   446.9    6.142      47.395
2015    2       19     4  46    5.5829   446.8    6.147      47.400
2015    2       19     4  52    5.5856   446.7    6.152      47.405
2015    2       19     4  57    5.5884   446.7    6.157      47.410
2015    2       19     5   2    5.5912   446.6    6.162      47.415
2015    2       19     5   7    5.5939   446.6    6.167      47.421
2015    2       19     5  12    5.5967   446.5    6.173      47.426
2015    2       19     5  17    5.5995   446.4    6.178      47.432
2015    2       19     5  23    5.6023   446.4    6.183      47.438
2015    2       19     5  28    5.6051   446.3    6.189      47.444
2015    2       19     5  33    5.6079   446.2    6.194      47.451
2015    2       19     5  38    5.6107   446.2    6.200      47.457
2015    2       19     5  43    5.6136   446.1    6.206      47.465
2015    2       19     5  48    5.6164   446.1    6.212      47.472
2015    2       19     5  54    5.6193   446.0    6.217      47.480
2015    2       19     5  59    5.6221   445.9    6.223      47.489
2015    2       19     6   4    5.6250   445.9    6.229      47.498
2015    2       19     6   9    5.6278   445.8    6.235      47.507
2015    2       19     6  14    5.6307   445.8    6.241      47.517
2015    2       19     6  19    5.6336   445.7    6.247      47.528
2015    2       19     6  25    5.6365   445.6    6.253      47.539
2015    2       19     6  30    5.6394   445.6    6.260      47.551
2015    2       19     6  35    5.6423   445.5    6.266      47.563
2015    2       19     6  40    5.6452   445.5    6.272      47.575
2015    2       19     6  45    5.6482   445.4    6.278      47.588
2015    2       19     6  50    5.6511   445.4    6.285      47.602
2015    2       19     6  56    5.6540   445.3    6.291      47.615
2015    2       19     7   1    5.6570   445.3    6.297      47.630
2015    2       19     7   6    5.6599   445.2    6.304      47.644
2015    2       19     7  11    5.6629   445.2    6.310      47.659
2015    2       19     7  16    5.6658   445.1    6.317      47.675
2015    2       19     7  21    5.6688   445.1    6.323      47.691
2015    2       19     7  27    5.6718   445.1    6.330      47.707
2015    2       19     7  32    5.6747   445.0    6.336      47.724
2015    2       19     7  37    5.6776   445.0    6.342      47.741
2015    2       19     7  42    5.6806   444.9    6.349      47.759
2015    2       19     7  47    5.6835   444.9    6.355      47.777
2015    2       19     7  52    5.6864   444.8    6.361      47.795
2015    2       19     7  57    5.6894   444.8    6.367      47.814
2015    2       19     8   3    5.6922   444.7    6.373      47.833
2015    2       19     8   8    5.6951   444.7    6.379      47.853
2015    2       19     8  13    5.6980   444.7    6.385      47.872
2015    2       19     8  18    5.7009   444.6    6.391      47.892
2015    2       19     8  23    5.7038   444.6    6.396      47.911
2015    2       19     8  28    5.7066   444.5    6.402      47.930
2015    2       19     8  34    5.7095   444.5    6.407      47.949
2015    2       19     8  39    5.7123   444.4    6.413      47.968
2015    2       19     8  44    5.7151   444.4    6.418      47.987
2015    2       19     8  49    5.7180   444.4    6.423      48.005
2015    2       19     8  54    5.7208   444.3    6.428      48.023
2015    2       19     8  59    5.7236   444.3    6.433      48.040
2015    2       19     9   5    5.7264   444.2    6.438      48.057
2015    2       19     9  10    5.7293   444.2    6.443      48.074
2015    2       19     9  15    5.7321   444.1    6.448      48.090
2015    2       19     9  20    5.7349   444.1    6.453      48.105
2015    2       19     9  25    5.7377   444.0    6.458      48.120
2015    2       19     9  30    5.7405   444.0    6.462      48.135
2015    2       19     9  36    5.7434   444.0    6.467      48.148
2015    2       19     9  41    5.7462   443.9    6.472      48.162
2015    2       19     9  46    5.7491   443.9    6.476      48.175
2015    2       19     9  51    5.7519   443.8    6.481      48.188
2015    2       19     9  56    5.7548   443.8    6.485      48.201
2015    2       19    10   1    5.7576   443.7    6.490      48.213
2015    2       19    10   7    5.7605   443.7    6.494      48.225
2015    2       19    10  12    5.7634   443.6    6.499      48.237
2015    2       19    10  17    5.7663   443.6    6.503      48.248
2015    2       19    10  22    5.7692   443.5    6.507      48.260
2015    2       19    10  27    5.7721   443.5    6.512      48.271
2015    2       19    10  32    5.7750   443.5    6.516      48.282
2015    2       19    10  38    5.7780   443.4    6.521      48.293
2015    2       19    10  43    5.7809   443.4    6.525      48.304
2015    2       19    10  48    5.7838   443.3    6.530      48.315
2015    2       19    10  53    5.7867   443.3    6.534      48.326
2015    2       19    10  58    5.7897   443.2    6.539      48.337
2015    2       19    11   3    5.7926   443.2    6.543      48.348
2015    2       19    11   9    5.7956   443.2    6.548      48.359
2015    2       19    11  14    5.7985   443.1    6.552      48.371
2015    2       19    11  19    5.8014   443.1    6.557      48.382
2015    2       19    11  24    5.8044   443.1    6.562      48.393
2015    2       19    11  29    5.8073   443.0    6.566      48.404
2015    2       19    11  34    5.8103   443.0    6.571      48.416
2015    2       19    11  40    5.8132   442.9    6.575      48.427
2015    2       19    11  45    5.8162   442.9    6.580      48.439
2015    2       19    11  50    5.8191   442.9    6.585      48.451
2015    2       19    11  55    5.8220   442.8    6.589      48.462
2015    2       19    12   0    5.8250   442.8    6.594      48.474
2015    2       19    12   5    5.8279   442.8    6.599      48.486
2015    2       19    12  11    5.8308   442.7    6.603      48.498
2015    2       19    12  16    5.8338   442.7    6.608      48.511
2015    2       19    12  21    5.8367   442.7    6.613      48.523
2015    2       19    12  26    5.8396   442.7    6.617      48.535
2015    2       19    12  31    5.8425   442.6    6.622      48.548
2015    2       19    12  36    5.8454   442.6    6.627      48.561
2015    2       19    12  42    5.8484   442.6    6.632      48.574
2015    2       19    12  47    5.8513   442.5    6.637      48.588
2015    2       19    12  52    5.8542   442.5    6.642      48.601
2015    2       19    12  57    5.8571   442.5    6.647      48.615
2015    2       19    13   2    5.8600   442.5    6.652      48.629
2015    2       19    13   7    5.8629   442.4    6.657      48.644
2015    2       19    13  13    5.8658   442.4    6.662      48.658
2015    2       19    13  18    5.8687   442.4    6.667      48.673
2015    2       19    13  23    5.8715   442.4    6.672      48.689
2015    2       19    13  28    5.8744   442.3    6.677      48.704
2015    2       19    13  33    5.8772   442.3    6.682      48.720
2015    2       19    13  38    5.8801   442.3    6.688      48.736
2015    2       19    13  44    5.8829   442.3    6.693      48.752
2015    2       19    13  49    5.8858   442.3    6.698      48.769
2015    2       19    13  54    5.8886   442.2    6.703      48.785
2015    2       19    13  59    5.8914   442.2    6.708      48.803
2015    2       19    14   4    5.8942   442.2    6.714      48.820
2015    2       19    14   9    5.8970   442.2    6.719      48.837
2015    2       19    14  15    5.8998   442.2    6.724      48.855
2015    2       19    14  20    5.9025   442.1    6.729      48.873
2015    2       19    14  25    5.9053   442.1    6.735      48.892
2015    2       19    14  30    5.9081   442.1    6.740      48.910
2015    2       19    14  35    5.9108   442.1    6.745      48.929
2015    2       19    14  40    5.9136   442.1    6.750      48.949
2015    2       19    14  46    5.9163   442.0    6.755      48.968
2015    2       19    14  51    5.9191   442.0    6.761      48.987
2015    2       19    14  56    5.9218   442.0    6.766      49.007
2015    2       19    15   1    5.9245   442.0    6.771      49.027
2015    2       19    15   6    5.9272   441.9    6.776      49.047
2015    2       19    15  11    5.9300   441.9    6.781      49.067
2015    2       19    15  16    5.9327   441.9    6.786      49.088
2015    2       19    15  22    5.9355   441.9    6.792      49.109
2015    2       19    15  27    5.9382   441.9    6.797      49.130
2015    2       19    15  32    5.9409   441.8    6.802      49.151
2015    2       19    15  37    5.9437   441.8    6.807      49.172
2015    2       19    15  42    5.9464   441.8    6.812      49.194
2015    2       19    15  47    5.9492   441.8    6.818      49.216
2015    2       19    15  53    5.9519   441.7    6.823      49.238
2015    2       19    15  58    5.9547   441.7    6.828      49.261
2015    2       19    16   3    5.9575   441.7    6.834      49.283
2015    2       19    16   8    5.9603   441.7    6.839      49.306
2015    2       19    16  13    5.9631   441.6    6.845      49.330
2015    2       19    16  18    5.9659   441.6    6.850      49.353
2015    2       19    16  24    5.9688   441.6    6.856      49.378
2015    2       19    16  29    5.9716   441.6    6.861      49.402
2015    2       19    16  34    5.9745   441.6    6.867      49.428
2015    2       19    16  39    5.9774   441.5    6.873      49.453
2015    2       19    16  44    5.9804   441.5    6.878      49.480
2015    2       19    16  49    5.9833   441.5    6.884      49.506
2015    2       19    16  55    5.9863   441.5    6.890      49.532
2015    2       19    17   0    5.9893   441.4    6.895      49.559
2015    2       19    17   5    5.9923   441.4    6.901      49.586
2015    2       19    17  10    5.9953   441.4    6.907      49.612
2015    2       19    17  15    5.9983   441.4    6.912      49.639
2015    2       19    17  20    6.0014   441.4    6.917      49.666
2015    2       19    17  26    6.0044   441.4    6.923      49.693
2015    2       19    17  31    6.0075   441.3    6.928      49.719
2015    2       19    17  36    6.0106   441.3    6.933      49.746
2015    2       19    17  41    6.0136   441.3    6.938      49.772
2015    2       19    17  46    6.0167   441.3    6.943      49.798
2015    2       19    17  51    6.0198   441.3    6.948      49.823
2015    2       19    17  57    6.0229   441.3    6.953      49.848
2015    2       19    18   2    6.0260   441.2    6.958      49.873
2015    2       19    18   7    6.0292   441.2    6.962      49.898
2015    2       19    18  12    6.0323   441.2    6.967      49.922
2015    2       19    18  17    6.0354   441.2    6.971      49.946
2015    2       19    18  22    6.0386   441.2    6.976      49.969
2015    2       19    18  28    6.0417   441.2    6.980      49.992
2015    2       19    18  33    6.0449   441.2    6.985      50.016
2015    2       19    18  38    6.0480   441.1    6.989      50.038
2015    2       19    18  43    6.0512   441.1    6.993      50.061
2015    2       19    18  48    6.0544   441.1    6.997      50.083
2015    2       19    18  53    6.0576   441.1    7.002      50.105
2015    2       19    18  59    6.0608   441.1    7.006      50.127
2015    2       19    19   4    6.0640   441.1    7.010      50.149
2015    2       19    19   9    6.0672   441.1    7.014      50.170
2015    2       19    19  14    6.0705   441.1    7.018      50.192
2015    2       19    19  19    6.0737   441.1    7.022      50.213
2015    2       19    19  24    6.0770   441.0    7.026      50.233
2015    2       19    19  30    6.0803   441.0    7.030      50.254
2015    2       19    19  35    6.0836   441.0    7.033      50.275
2015    2       19    19  40    6.0869   441.0    7.037      50.295
2015    2       19    19  45    6.0902   441.0    7.041      50.315
2015    2       19    19  50    6.0935   441.0    7.045      50.334
2015    2       19    19  55    6.0968   441.0    7.049      50.354
2015    2       19    20   1    6.1002   441.0    7.052      50.373
2015    2       19    20   6    6.1036   441.0    7.056      50.392
2015    2       19    20  11    6.1070   441.0    7.060      50.411
2015    2       19    20  16    6.1104   441.0    7.063      50.430
2015    2       19    20  21    6.1138   441.0    7.067      50.448
2015    2       19    20  26    6.1173   441.0    7.070      50.467
2015    2       19    20  32    6.1207   441.0    7.074      50.485
2015    2       19    20  37    6.1242   441.0    7.078      50.503
2015    2       19    20  42    6.1277   441.0    7.081      50.521
2015    2       19    20  47    6.1312   441.0    7.085      50.539
2015    2       19    20  52    6.1346   441.0    7.088      50.556
2015    2       19    20  57    6.1382   440.9    7.092      50.574
2015    2       19    21   3    6.1417   440.9    7.095      50.591
2015    2       19    21   8    6.1452   440.9    7.098      50.609
2015    2       19    21  13    6.1487   440.9    7.102      50.626
2015    2       19    21  18    6.1523   441.0    7.105      50.643
2015    2       19    21  23    6.1558   441.0    7.109      50.660
2015    2       19    21  28    6.1594   441.0    7.112      50.677
2015    2       19    21  34    6.1630   441.0    7.116      50.694
2015    2       19    21  39    6.1665   441.0    7.119      50.711
2015    2       19    21  44    6.1701   441.0    7.123      50.728
2015    2       19    21  49    6.1737   441.0    7.126      50.744
2015    2       19    21  54    6.1773   441.0    7.130      50.761
2015    2       19    21  59    6.1809   441.0    7.134      50.778
2015    2       19    22   5    6.1845   441.0    7.137      50.795
2015    2       19    22  10    6.1881   441.0    7.141      50.813
2015    2       19    22  15    6.1917   441.0    7.145      50.830
2015    2       19    22  20    6.1954   441.0    7.149      50.848
2015    2       19    22  25    6.1990   441.0    7.153      50.865
2015    2       19    22  30    6.2027   441.0    7.157      50.884
2015    2       19    22  35    6.2063   441.0    7.161      50.903
2015    2       19    22  41    6.2099   441.0    7.165      50.922
2015    2       19    22  46    6.2136   441.0    7.169      50.942
2015    2       19    22  51    6.2172   441.0    7.174      50.962
2015    2       19    22  56    6.2208   441.0    7.178      50.983
2015    2       19    23   1    6.2244   441.0    7.182      51.004
2015    2       19    23   6    6.2280   441.0    7.187      51.025
2015    2       19    23  12    6.2316   441.0    7.191      51.047
2015    2       19    23  17    6.2351   441.0    7.196      51.069
2015    2       19    23  22    6.2387   441.0    7.200      51.091
2015    2       19    23  27    6.2422   441.1    7.205      51.113
2015    2       19    23  32    6.2457   441.1    7.209      51.136
2015    2       19    23  37    6.2492   441.1    7.214      51.159
2015    2       19    23  43    6.2526   441.1    7.218      51.183
2015    2       19    23  48    6.2560   441.1    7.222      51.206
2015    2       19    23  53    6.2594   441.1    7.227      51.230
2015    2       19    23  58    6.2628   441.1    7.231      51.254
2015    2       20     0   3    6.2661   441.2    7.235      51.278
2015    2       20     0   8    6.2695   441.2    7.240      51.301
2015    2       20     0  14    6.2728   441.2    7.244      51.325
2015    2       20     0  19    6.2760   441.2    7.248      51.349
2015    2       20     0  24    6.2793   441.2    7.252      51.373
2015    2       20     0  29    6.2825   441.3    7.256      51.397
2015    2       20     0  34    6.2857   441.3    7.260      51.422
2015    2       20     0  39    6.2889   441.3    7.264      51.446
2015    2       20     0  45    6.2921   441.3    7.268      51.471
2015    2       20     0  50    6.2952   441.3    7.271      51.495
2015    2       20     0  55    6.2984   441.4    7.275      51.519
2015    2       20     1   0    6.3015   441.4    7.278      51.543
2015    2       20     1   5    6.3046   441.4    7.282      51.567
2015    2       20     1  10    6.3077   441.4    7.285      51.591
2015    2       20     1  16    6.3107   441.4    7.288      51.614
2015    2       20     1  21    6.3138   441.5    7.291      51.637
2015    2       20     1  26    6.3169   441.5    7.294      51.660
2015    2       20     1  31    6.3199   441.5    7.297      51.682
2015    2       20     1  36    6.3229   441.5    7.299      51.704
2015    2       20     1  41    6.3259   441.5    7.302      51.725
2015    2       20     1  47    6.3289   441.6    7.304      51.746
2015    2       20     1  52    6.3319   441.6    7.307      51.766
2015    2       20     1  57    6.3348   441.6    7.309      51.785
2015    2       20     2   2    6.3378   441.6    7.311      51.804
2015    2       20     2   7    6.3407   441.6    7.313      51.823
2015    2       20     2  12    6.3437   441.7    7.315      51.840
2015    2       20     2  18    6.3467   441.7    7.317      51.858
2015    2       20     2  23    6.3495   441.7    7.319      51.874
2015    2       20     2  28    6.3525   441.7    7.321      51.891
2015    2       20     2  33    6.3554   441.8    7.323      51.907
2015    2       20     2  38    6.3583   441.8    7.324      51.922
2015    2       20     2  43    6.3612   441.8    7.326      51.937
2015    2       20     2  49    6.3641   441.8    7.327      51.952
2015    2       20     2  54    6.3671   441.8    7.329      51.966
2015    2       20     2  59    6.3700   441.9    7.331      51.980
2015    2       20     3   4    6.3729   441.9    7.332      51.994
2015    2       20     3   9    6.3757   441.9    7.334      52.007
2015    2       20     3  14    6.3787   441.9    7.335      52.021
2015    2       20     3  20    6.3817   441.9    7.337      52.034
2015    2       20     3  25    6.3845   442.0    7.338      52.047
2015    2       20     3  30    6.3875   442.0    7.340      52.060
2015    2       20     3  35    6.3905   442.0    7.341      52.072
2015    2       20     3  40    6.3934   442.0    7.343      52.085
2015    2       20     3  45    6.3965   442.1    7.344      52.097
2015    2       20     3  51    6.3994   442.1    7.346      52.110
2015    2       20     3  56    6.4024   442.1    7.347      52.123
2015    2       20     4   1    6.4056   442.2    7.349      52.136
2015    2       20     4   6    6.4087   442.2    7.350      52.148
2015    2       20     4  11    6.4118   442.2    7.352      52.161
2015    2       20     4  16    6.4148   442.2    7.354      52.174
2015    2       20     4  22    6.4181   442.3    7.356      52.188
2015    2       20     4  27    6.4213   442.3    7.358      52.201
2015    2       20     4  32    6.4245   442.4    7.359      52.215
2015    2       20     4  37    6.4276   442.4    7.361      52.229
2015    2       20     4  42    6.4310   442.4    7.363      52.243
2015    2       20     4  47    6.4342   442.5    7.366      52.258
2015    2       20     4  52    6.4375   442.5    7.368      52.273
2015    2       20     4  58    6.4407   442.6    7.370      52.289
2015    2       20     5   3    6.4440   442.6    7.372      52.305
2015    2       20     5   8    6.4472   442.6    7.374      52.321
2015    2       20     5  13    6.4504   442.7    7.377      52.337
2015    2       20     5  18    6.4536   442.7    7.379      52.354
2015    2       20     5  23    6.4568   442.8    7.381      52.371
2015    2       20     5  29    6.4599   442.9    7.383      52.388
2015    2       20     5  34    6.4630   442.9    7.386      52.405
2015    2       20     5  39    6.4660   443.0    7.388      52.422
2015    2       20     5  44    6.4690   443.0    7.390      52.439
2015    2       20     5  49    6.4720   443.1    7.393      52.456
2015    2       20     5  54    6.4748   443.1    7.395      52.474
2015    2       20     6   0    6.4777   443.2    7.397      52.491
2015    2       20     6   5    6.4805   443.2    7.400      52.508
2015    2       20     6  10    6.4833   443.3    7.402      52.525
2015    2       20     6  15    6.4860   443.4    7.404      52.542
2015    2       20     6  20    6.4886   443.4    7.406      52.559
2015    2       20     6  25    6.4913   443.5    7.409      52.576
2015    2       20     6  31    6.4940   443.6    7.411      52.593
2015    2       20     6  36    6.4964   443.6    7.413      52.610
2015    2       20     6  41    6.4989   443.7    7.415      52.628
2015    2       20     6  46    6.5015   443.7    7.417      52.645
2015    2       20     6  51    6.5038   443.8    7.420      52.662
2015    2       20     6  56    6.5062   443.9    7.422      52.679
2015    2       20     7   2    6.5085   443.9    7.424      52.696
2015    2       20     7   7    6.5108   444.0    7.425      52.712
2015    2       20     7  12    6.5131   444.1    7.427      52.729
2015    2       20     7  17    6.5155   444.2    7.429      52.745
2015    2       20     7  22    6.5177   444.2    7.431      52.761
2015    2       20     7  27    6.5198   444.3    7.432      52.776
2015    2       20     7  33    6.5220   444.4    7.434      52.791
2015    2       20     7  38    6.5241   444.4    7.435      52.806
2015    2       20     7  43    6.5261   444.5    7.437      52.820
2015    2       20     7  48    6.5283   444.6    7.438      52.834
2015    2       20     7  53    6.5302   444.6    7.439      52.848
2015    2       20     7  58    6.5324   444.7    7.441      52.862
2015    2       20     8   4    6.5343   444.8    7.442      52.875
2015    2       20     8   9    6.5364   444.8    7.443      52.888
2015    2       20     8  14    6.5384   444.9    7.444      52.901
2015    2       20     8  19    6.5405   444.9    7.446      52.914
2015    2       20     8  24    6.5426   445.0    7.447      52.927
2015    2       20     8  29    6.5447   445.1    7.448      52.940
2015    2       20     8  35    6.5467   445.1    7.450      52.954
2015    2       20     8  40    6.5488   445.2    7.451      52.968
2015    2       20     8  45    6.5509   445.2    7.452      52.983
2015    2       20     8  50    6.5531   445.3    7.454      52.997
2015    2       20     8  55    6.5552   445.4    7.455      53.013
2015    2       20     9   0    6.5573   445.4    7.456      53.029
2015    2       20     9   6    6.5595   445.5    7.458      53.045
2015    2       20     9  11    6.5617   445.6    7.459      53.062
2015    2       20     9  16    6.5638   445.6    7.460      53.078
2015    2       20     9  21    6.5659   445.7    7.461      53.095
2015    2       20     9  26    6.5682   445.8    7.462      53.112
2015    2       20     9  31    6.5703   445.8    7.463      53.129
2015    2       20     9  37    6.5725   445.9    7.464      53.146
2015    2       20     9  42    6.5746   446.0    7.464      53.163
2015    2       20     9  47    6.5767   446.0    7.465      53.179
2015    2       20     9  52    6.5788   446.1    7.465      53.196
2015    2       20     9  57    6.5808   446.2    7.465      53.211
2015    2       20    10   2    6.5829   446.2    7.465      53.226
2015    2       20    10   8    6.5849   446.3    7.465      53.240
2015    2       20    10  13    6.5869   446.4    7.465      53.254
2015    2       20    10  18    6.5889   446.4    7.464      53.266
2015    2       20    10  23    6.5908   446.5    7.464      53.279
2015    2       20    10  28    6.5928   446.6    7.463      53.290
2015    2       20    10  33    6.5947   446.7    7.463      53.301
2015    2       20    10  39    6.5966   446.7    7.462      53.311
2015    2       20    10  44    6.5985   446.8    7.461      53.321
2015    2       20    10  49    6.6004   446.9    7.460      53.330
2015    2       20    10  54    6.6022   446.9    7.459      53.338
2015    2       20    10  59    6.6041   447.0    7.458      53.346
2015    2       20    11   4    6.6059   447.1    7.456      53.354
2015    2       20    11  10    6.6078   447.1    7.455      53.362
2015    2       20    11  15    6.6097   447.2    7.454      53.369
2015    2       20    11  20    6.6115   447.3    7.453      53.376
2015    2       20    11  25    6.6133   447.3    7.451      53.382
2015    2       20    11  30    6.6152   447.4    7.450      53.389
2015    2       20    11  35    6.6171   447.5    7.448      53.395
2015    2       20    11  41    6.6190   447.6    7.447      53.401
2015    2       20    11  46    6.6209   447.6    7.446      53.408
2015    2       20    11  51    6.6228   447.7    7.445      53.414
2015    2       20    11  56    6.6247   447.8    7.443      53.421
2015    2       20    12   1    6.6268   447.8    7.442      53.427
2015    2       20    12   6    6.6288   447.9    7.441      53.434
2015    2       20    12  11    6.6307   448.0    7.440      53.441
2015    2       20    12  17    6.6327   448.1    7.439      53.448
2015    2       20    12  22    6.6347   448.1    7.438      53.456
2015    2       20    12  27    6.6366   448.2    7.437      53.464
2015    2       20    12  32    6.6387   448.3    7.436      53.472
2015    2       20    12  37    6.6406   448.4    7.435      53.481
2015    2       20    12  42    6.6426   448.5    7.434      53.491
2015    2       20    12  48    6.6445   448.6    7.434      53.500
2015    2       20    12  53    6.6464   448.6    7.433      53.510
2015    2       20    12  58    6.6483   448.7    7.432      53.520
2015    2       20    13   3    6.6501   448.8    7.432      53.530
2015    2       20    13   8    6.6519   448.9    7.431      53.541
2015    2       20    13  13    6.6536   449.0    7.430      53.551
2015    2       20    13  19    6.6553   449.1    7.429      53.562
2015    2       20    13  24    6.6570   449.2    7.429      53.572
2015    2       20    13  29    6.6585   449.3    7.428      53.583
2015    2       20    13  34    6.6601   449.4    7.427      53.593
2015    2       20    13  39    6.6615   449.4    7.426      53.603
2015    2       20    13  44    6.6631   449.5    7.426      53.614
2015    2       20    13  50    6.6644   449.6    7.425      53.624
2015    2       20    13  55    6.6659   449.7    7.424      53.634
2015    2       20    14   0    6.6673   449.8    7.423      53.643
2015    2       20    14   5    6.6686   449.9    7.422      53.653
2015    2       20    14  10    6.6699   450.0    7.421      53.663
2015    2       20    14  15    6.6711   450.1    7.420      53.672
2015    2       20    14  21    6.6724   450.2    7.420      53.681
2015    2       20    14  26    6.6736   450.3    7.419      53.690
2015    2       20    14  31    6.6748   450.4    7.418      53.699
2015    2       20    14  36    6.6761   450.4    7.417      53.709
2015    2       20    14  41    6.6772   450.5    7.416      53.718
2015    2       20    14  46    6.6784   450.6    7.416      53.727
2015    2       20    14  52    6.6796   450.7    7.415      53.736
2015    2       20    14  57    6.6808   450.8    7.415      53.745
2015    2       20    15   2    6.6820   450.9    7.414      53.755
2015    2       20    15   7    6.6832   451.0    7.414      53.764
2015    2       20    15  12    6.6844   451.1    7.414      53.774
2015    2       20    15  17    6.6856   451.1    7.414      53.784
2015    2       20    15  23    6.6867   451.2    7.414      53.794
2015    2       20    15  28    6.6881   451.3    7.414      53.805
2015    2       20    15  33    6.6893   451.4    7.414      53.816
2015    2       20    15  38    6.6906   451.5    7.415      53.828
2015    2       20    15  43    6.6919   451.6    7.415      53.841
2015    2       20    15  48    6.6933   451.7    7.416      53.855
2015    2       20    15  54    6.6946   451.7    7.417      53.870
2015    2       20    15  59    6.6960   451.8    7.419      53.886
2015    2       20    16   4    6.6974   451.9    7.420      53.902
2015    2       20    16   9    6.6990   452.0    7.421      53.920
2015    2       20    16  14    6.7004   452.1    7.423      53.939
2015    2       20    16  19    6.7020   452.2    7.425      53.959
2015    2       20    16  25    6.7036   452.3    7.427      53.979
2015    2       20    16  30    6.7051   452.4    7.429      54.001
2015    2       20    16  35    6.7067   452.5    7.431      54.024
2015    2       20    16  40    6.7084   452.6    7.434      54.049
2015    2       20    16  45    6.7099   452.7    7.436      54.075
2015    2       20    16  50    6.7115   452.8    7.439      54.102
2015    2       20    16  56    6.7131   452.9    7.441      54.131
2015    2       20    17   1    6.7146   453.0    7.443      54.160
2015    2       20    17   6    6.7161   453.1    7.446      54.189
2015    2       20    17  11    6.7176   453.2    7.448      54.218
2015    2       20    17  16    6.7191   453.3    7.450      54.248
2015    2       20    17  21    6.7204   453.4    7.452      54.277
2015    2       20    17  27    6.7218   453.5    7.453      54.306
2015    2       20    17  32    6.7230   453.6    7.454      54.335
2015    2       20    17  37    6.7243   453.7    7.456      54.362
2015    2       20    17  42    6.7255   453.9    7.456      54.389
2015    2       20    17  47    6.7266   454.0    7.457      54.416
2015    2       20    17  52    6.7276   454.1    7.457      54.441
2015    2       20    17  58    6.7287   454.2    7.457      54.466
2015    2       20    18   3    6.7296   454.3    7.457      54.489
2015    2       20    18   8    6.7306   454.5    7.456      54.510
2015    2       20    18  13    6.7314   454.6    7.455      54.530
2015    2       20    18  18    6.7323   454.7    7.454      54.549
2015    2       20    18  23    6.7331   454.8    7.453      54.567
2015    2       20    18  29    6.7339   454.9    7.451      54.584
2015    2       20    18  34    6.7346   455.0    7.449      54.600
2015    2       20    18  39    6.7354   455.2    7.447      54.615
2015    2       20    18  44    6.7360   455.3    7.445      54.628
2015    2       20    18  49    6.7367   455.4    7.443      54.641
2015    2       20    18  54    6.7374   455.5    7.440      54.653
2015    2       20    19   0    6.7380   455.6    7.437      54.664
2015    2       20    19   5    6.7386   455.8    7.434      54.674
2015    2       20    19  10    6.7392   455.9    7.431      54.683
2015    2       20    19  15    6.7398   456.0    7.428      54.692
2015    2       20    19  20    6.7404   456.1    7.424      54.700
2015    2       20    19  25    6.7409   456.2    7.421      54.707
2015    2       20    19  30    6.7415   456.4    7.417      54.714
2015    2       20    19  36    6.7420   456.5    7.413      54.720
2015    2       20    19  41    6.7425   456.6    7.410      54.725
2015    2       20    19  46    6.7431   456.7    7.406      54.731
2015    2       20    19  51    6.7435   456.8    7.402      54.735
2015    2       20    19  56    6.7440   457.0    7.398      54.739
2015    2       20    20   1    6.7445   457.1    7.393      54.743
2015    2       20    20   7    6.7449   457.2    7.389      54.747
2015    2       20    20  12    6.7453   457.3    7.385      54.750
2015    2       20    20  17    6.7457   457.4    7.381      54.752
2015    2       20    20  22    6.7462   457.6    7.376      54.755
2015    2       20    20  27    6.7466   457.7    7.372      54.757
2015    2       20    20  32    6.7469   457.8    7.367      54.759
2015    2       20    20  38    6.7473   457.9    7.363      54.761
2015    2       20    20  43    6.7476   458.0    7.358      54.762
2015    2       20    20  48    6.7480   458.1    7.354      54.763
2015    2       20    20  53    6.7482   458.3    7.349      54.764
2015    2       20    20  58    6.7486   458.4    7.345      54.766
2015    2       20    21   3    6.7489   458.5    7.340      54.767
2015    2       20    21   9    6.7492   458.6    7.335      54.767
2015    2       20    21  14    6.7495   458.7    7.331      54.768
2015    2       20    21  19    6.7497   458.8    7.326      54.769
2015    2       20    21  24    6.7500   459.0    7.322      54.770
2015    2       20    21  29    6.7502   459.1    7.318      54.771
2015    2       20    21  34    6.7505   459.2    7.313      54.772
2015    2       20    21  40    6.7507   459.3    7.309      54.773
2015    2       20    21  45    6.7509   459.4    7.305      54.775
2015    2       20    21  50    6.7512   459.5    7.301      54.777
2015    2       20    21  55    6.7513   459.6    7.297      54.779
2015    2       20    22   0    6.7516   459.7    7.293      54.781
2015    2       20    22   5    6.7518   459.9    7.289      54.784
2015    2       20    22  11    6.7521   460.0    7.285      54.788
2015    2       20    22  16    6.7522   460.1    7.282      54.791
2015    2       20    22  21    6.7526   460.2    7.278      54.796
2015    2       20    22  26    6.7528   460.3    7.275      54.801
2015    2       20    22  31    6.7531   460.4    7.272      54.807
2015    2       20    22  36    6.7532   460.5    7.269      54.813
2015    2       20    22  42    6.7535   460.7    7.267      54.821
2015    2       20    22  47    6.7537   460.8    7.264      54.828
2015    2       20    22  52    6.7541   460.9    7.262      54.837
2015    2       20    22  57    6.7543   461.0    7.260      54.847
2015    2       20    23   2    6.7545   461.1    7.258      54.857
2015    2       20    23   7    6.7548   461.2    7.256      54.868
2015    2       20    23  13    6.7550   461.4    7.254      54.880
2015    2       20    23  18    6.7551   461.5    7.253      54.893
2015    2       20    23  23    6.7553   461.6    7.252      54.906
2015    2       20    23  28    6.7556   461.7    7.251      54.921
2015    2       20    23  33    6.7558   461.8    7.251      54.936
2015    2       20    23  38    6.7561   462.0    7.250      54.952
2015    2       20    23  44    6.7561   462.1    7.250      54.968
2015    2       20    23  49    6.7564   462.2    7.250      54.986
2015    2       20    23  54    6.7563   462.3    7.250      55.005
2015    2       20    23  59    6.7565   462.4    7.251      55.026
2015    2       21     0   4    6.7566   462.6    7.251      55.047
2015    2       21     0   9    6.7565   462.7    7.252      55.069
2015    2       21     0  15    6.7565   462.8    7.252      55.093
2015    2       21     0  20    6.7564   463.0    7.253      55.116
2015    2       21     0  25    6.7561   463.1    7.253      55.141
2015    2       21     0  30    6.7558   463.2    7.254      55.166
2015    2       21     0  35    6.7558   463.4    7.254      55.190
2015    2       21     0  40    6.7554   463.5    7.255      55.215
2015    2       21     0  46    6.7551   463.6    7.255      55.239
2015    2       21     0  51    6.7546   463.8    7.255      55.264
2015    2       21     0  56    6.7542   463.9    7.255      55.288
2015    2       21     1   1    6.7534   464.0    7.255      55.312
2015    2       21     1   6    6.7528   464.2    7.255      55.336
2015    2       21     1  11    6.7522   464.3    7.254      55.359
2015    2       21     1  17    6.7515   464.4    7.254      55.381
2015    2       21     1  22    6.7510   464.6    7.253      55.402
2015    2       21     1  27    6.7500   464.7    7.252      55.422
2015    2       21     1  32    6.7492   464.8    7.250      55.441
2015    2       21     1  37    6.7484   465.0    7.249      55.460
2015    2       21     1  42    6.7477   465.1    7.248      55.478
2015    2       21     1  48    6.7467   465.3    7.246      55.495
2015    2       21     1  53    6.7459   465.4    7.244      55.512
2015    2       21     1  58    6.7450   465.5    7.243      55.528
2015    2       21     2   3    6.7441   465.7    7.241      55.544
2015    2       21     2   8    6.7431   465.8    7.239      55.560
2015    2       21     2  13    6.7422   465.9    7.236      55.575
2015    2       21     2  18    6.7412   466.1    7.234      55.590
2015    2       21     2  24    6.7402   466.2    7.232      55.605
2015    2       21     2  29    6.7393   466.4    7.229      55.619
2015    2       21     2  34    6.7383   466.5    7.227      55.633
2015    2       21     2  39    6.7373   466.6    7.224      55.647
2015    2       21     2  44    6.7363   466.8    7.221      55.659
2015    2       21     2  49    6.7353   466.9    7.218      55.672
2015    2       21     2  55    6.7341   467.1    7.215      55.684
2015    2       21     3   0    6.7331   467.2    7.212      55.695
2015    2       21     3   5    6.7320   467.3    7.208      55.706
2015    2       21     3  10    6.7309   467.5    7.205      55.716
2015    2       21     3  15    6.7298   467.6    7.201      55.726
2015    2       21     3  20    6.7287   467.8    7.198      55.735
2015    2       21     3  26    6.7276   467.9    7.194      55.743
2015    2       21     3  31    6.7264   468.1    7.190      55.751
2015    2       21     3  36    6.7254   468.2    7.186      55.758
2015    2       21     3  41    6.7242   468.3    7.181      55.764
2015    2       21     3  46    6.7229   468.5    7.177      55.769
2015    2       21     3  51    6.7215   468.6    7.172      55.774
2015    2       21     3  57    6.7203   468.8    7.168      55.779
2015    2       21     4   2    6.7190   468.9    7.163      55.782
2015    2       21     4   7    6.7175   469.1    7.158      55.785
2015    2       21     4  12    6.7162   469.2    7.154      55.788
2015    2       21     4  17    6.7148   469.4    7.149      55.789
2015    2       21     4  22    6.7132   469.5    7.144      55.791
2015    2       21     4  28    6.7117   469.7    7.138      55.792
2015    2       21     4  33    6.7104   469.8    7.133      55.792
2015    2       21     4  38    6.7087   469.9    7.128      55.792
2015    2       21     4  43    6.7071   470.1    7.123      55.791
2015    2       21     4  48    6.7056   470.2    7.117      55.790
2015    2       21     4  53    6.7038   470.4    7.112      55.788
2015    2       21     4  59    6.7023   470.5    7.106      55.786
2015    2       21     5   4    6.7006   470.7    7.101      55.784
2015    2       21     5   9    6.6987   470.8    7.095      55.781
2015    2       21     5  14    6.6971   471.0    7.089      55.778
2015    2       21     5  19    6.6953   471.1    7.083      55.774
2015    2       21     5  24    6.6933   471.3    7.078      55.770
2015    2       21     5  30    6.6917   471.4    7.072      55.766
2015    2       21     5  35    6.6896   471.6    7.066      55.761
2015    2       21     5  40    6.6879   471.7    7.060      55.757
2015    2       21     5  45    6.6857   471.9    7.054      55.752
2015    2       21     5  50    6.6838   472.0    7.048      55.747
2015    2       21     5  55    6.6818   472.1    7.042      55.742
2015    2       21     6   1    6.6799   472.3    7.036      55.736
2015    2       21     6   6    6.6779   472.4    7.030      55.731
2015    2       21     6  11    6.6758   472.6    7.024      55.725
2015    2       21     6  16    6.6736   472.7    7.018      55.720
2015    2       21     6  21    6.6714   472.9    7.012      55.714
2015    2       21     6  26    6.6692   473.0    7.006      55.708
2015    2       21     6  32    6.6667   473.2    7.000      55.702
2015    2       21     6  37    6.6646   473.3    6.994      55.695
2015    2       21     6  42    6.6620   473.5    6.988      55.689
2015    2       21     6  47    6.6598   473.6    6.981      55.682
2015    2       21     6  52    6.6573   473.8    6.975      55.676
2015    2       21     6  57    6.6545   473.9    6.969      55.669
2015    2       21     7   3    6.6521   474.1    6.963      55.662
2015    2       21     7   8    6.6495   474.2    6.957      55.655
2015    2       21     7  13    6.6465   474.4    6.951      55.648
2015    2       21     7  18    6.6440   474.5    6.945      55.640
2015    2       21     7  23    6.6408   474.7    6.939      55.633
2015    2       21     7  28    6.6382   474.8    6.933      55.625
2015    2       21     7  34    6.6352   475.0    6.927      55.617
2015    2       21     7  39    6.6319   475.1    6.921      55.609
2015    2       21     7  44    6.6288   475.3    6.914      55.600
2015    2       21     7  49    6.6257   475.4    6.908      55.592
2015    2       21     7  54    6.6229   475.6    6.902      55.583
2015    2       21     7  59    6.6194   475.7    6.896      55.574
2015    2       21     8   5    6.6165   475.8    6.890      55.565
2015    2       21     8  10    6.6132   476.0    6.884      55.556
2015    2       21     8  15    6.6099   476.1    6.877      55.546
2015    2       21     8  20    6.6066   476.3    6.871      55.537
2015    2       21     8  25    6.6029   476.4    6.865      55.527
2015    2       21     8  30    6.5995   476.5    6.859      55.517
2015    2       21     8  36    6.5965   476.7    6.853      55.507
2015    2       21     8  41    6.5927   476.8    6.846      55.496
2015    2       21     8  46    6.5896   476.9    6.840      55.486
2015    2       21     8  51    6.5859   477.1    6.834      55.475
2015    2       21     8  56    6.5824   477.2    6.828      55.464
2015    2       21     9   1    6.5790   477.3    6.821      55.454
2015    2       21     9   6    6.5759   477.5    6.815      55.443
2015    2       21     9  12    6.5724   477.6    6.809      55.432
2015    2       21     9  17    6.5689   477.7    6.803      55.421
2015    2       21     9  22    6.5655   477.8    6.797      55.410
2015    2       21     9  27    6.5620   478.0    6.791      55.400
2015    2       21     9  32    6.5582   478.1    6.785      55.389
2015    2       21     9  37    6.5551   478.2    6.779      55.379
2015    2       21     9  43    6.5516   478.3    6.773      55.369
2015    2       21     9  48    6.5478   478.5    6.767      55.360
2015    2       21     9  53    6.5447   478.6    6.761      55.350
2015    2       21     9  58    6.5412   478.7    6.756      55.341
2015    2       21    10   3    6.5378   478.8    6.750      55.332
2015    2       21    10   8    6.5343   478.9    6.744      55.324
2015    2       21    10  14    6.5305   479.1    6.738      55.315
2015    2       21    10  19    6.5271   479.2    6.732      55.306
2015    2       21    10  24    6.5236   479.3    6.727      55.297
2015    2       21    10  29    6.5204   479.4    6.721      55.288
2015    2       21    10  34    6.5166   479.5    6.715      55.278
2015    2       21    10  39    6.5134   479.6    6.709      55.269
2015    2       21    10  45    6.5099   479.8    6.703      55.259
2015    2       21    10  50    6.5063   479.9    6.697      55.249
2015    2       21    10  55    6.5028   480.0    6.691      55.239
2015    2       21    11   0    6.4992   480.1    6.685      55.228
2015    2       21    11   5    6.4955   480.2    6.679      55.217
2015    2       21    11  10    6.4919   480.3    6.673      55.205
2015    2       21    11  16    6.4882   480.5    6.667      55.193
2015    2       21    11  21    6.4845   480.6    6.661      55.180
2015    2       21    11  26    6.4808   480.7    6.654      55.166
2015    2       21    11  31    6.4770   480.8    6.648      55.152
2015    2       21    11  36    6.4729   480.9    6.642      55.138
2015    2       21    11  41    6.4691   481.0    6.635      55.123
2015    2       21    11  47    6.4656   481.2    6.629      55.107
2015    2       21    11  52    6.4614   481.3    6.622      55.091
2015    2       21    11  57    6.4578   481.4    6.616      55.074
2015    2       21    12   2    6.4538   481.5    6.609      55.057
2015    2       21    12   7    6.4495   481.6    6.602      55.039
2015    2       21    12  12    6.4458   481.7    6.595      55.021
2015    2       21    12  18    6.4418   481.8    6.589      55.002
2015    2       21    12  23    6.4377   482.0    6.582      54.982
2015    2       21    12  28    6.4336   482.1    6.575      54.962
2015    2       21    12  33    6.4295   482.2    6.568      54.941
2015    2       21    12  38    6.4253   482.3    6.561      54.919
2015    2       21    12  43    6.4211   482.4    6.553      54.897
2015    2       21    12  49    6.4169   482.5    6.546      54.875
2015    2       21    12  54    6.4126   482.6    6.539      54.852
2015    2       21    12  59    6.4080   482.7    6.532      54.828
2015    2       21    13   4    6.4040   482.9    6.524      54.803
2015    2       21    13   9    6.3994   483.0    6.517      54.778
2015    2       21    13  14    6.3953   483.1    6.509      54.753
2015    2       21    13  20    6.3909   483.2    6.502      54.726
2015    2       21    13  25    6.3864   483.3    6.494      54.700
2015    2       21    13  30    6.3817   483.4    6.486      54.672
2015    2       21    13  35    6.3775   483.5    6.478      54.645
2015    2       21    13  40    6.3730   483.6    6.471      54.616
2015    2       21    13  45    6.3685   483.7    6.463      54.587
2015    2       21    13  51    6.3640   483.8    6.455      54.558
2015    2       21    13  56    6.3594   483.9    6.447      54.528
2015    2       21    14   1    6.3548   484.1    6.439      54.498
2015    2       21    14   6    6.3500   484.2    6.431      54.467
2015    2       21    14  11    6.3453   484.3    6.423      54.436
2015    2       21    14  16    6.3409   484.4    6.415      54.404
2015    2       21    14  22    6.3362   484.5    6.407      54.372
2015    2       21    14  27    6.3315   484.6    6.398      54.339
2015    2       21    14  32    6.3268   484.7    6.390      54.306
2015    2       21    14  37    6.3221   484.8    6.382      54.273
2015    2       21    14  42    6.3173   484.8    6.374      54.239
2015    2       21    14  47    6.3125   484.9    6.366      54.205
2015    2       21    14  53    6.3078   485.0    6.357      54.170
2015    2       21    14  58    6.3028   485.1    6.349      54.136
2015    2       21    15   3    6.2981   485.2    6.341      54.101
2015    2       21    15   8    6.2933   485.3    6.333      54.066
2015    2       21    15  13    6.2883   485.4    6.324      54.030
2015    2       21    15  18    6.2835   485.5    6.316      53.995
2015    2       21    15  24    6.2788   485.6    6.308      53.959
2015    2       21    15  29    6.2738   485.7    6.299      53.922
2015    2       21    15  34    6.2689   485.7    6.291      53.886
2015    2       21    15  39    6.2642   485.8    6.283      53.849
2015    2       21    15  44    6.2592   485.9    6.274      53.812
2015    2       21    15  49    6.2544   486.0    6.266      53.775
2015    2       21    15  55    6.2496   486.1    6.258      53.737
2015    2       21    16   0    6.2448   486.2    6.249      53.699
2015    2       21    16   5    6.2399   486.2    6.241      53.661
2015    2       21    16  10    6.2352   486.3    6.232      53.623
2015    2       21    16  15    6.2303   486.4    6.224      53.584
2015    2       21    16  20    6.2255   486.5    6.216      53.545
2015    2       21    16  25    6.2207   486.5    6.207      53.506
2015    2       21    16  31    6.2158   486.6    6.199      53.467
2015    2       21    16  36    6.2110   486.7    6.190      53.427
2015    2       21    16  41    6.2062   486.8    6.182      53.387
2015    2       21    16  46    6.2013   486.8    6.173      53.347
2015    2       21    16  51    6.1965   486.9    6.165      53.306
2015    2       21    16  56    6.1917   487.0    6.157      53.266
2015    2       21    17   2    6.1868   487.0    6.148      53.225
2015    2       21    17   7    6.1820   487.1    6.140      53.184
2015    2       21    17  12    6.1771   487.1    6.131      53.142
2015    2       21    17  17    6.1723   487.2    6.123      53.100
2015    2       21    17  22    6.1674   487.3    6.115      53.058
2015    2       21    17  27    6.1625   487.3    6.106      53.016
2015    2       21    17  33    6.1576   487.4    6.098      52.974
2015    2       21    17  38    6.1528   487.4    6.089      52.931
2015    2       21    17  43    6.1479   487.5    6.081      52.889
2015    2       21    17  48    6.1430   487.6    6.073      52.846
2015    2       21    17  53    6.1382   487.6    6.065      52.803
2015    2       21    17  58    6.1333   487.7    6.056      52.761
2015    2       21    18   4    6.1285   487.7    6.048      52.718
2015    2       21    18   9    6.1236   487.8    6.040      52.675
2015    2       21    18  14    6.1187   487.8    6.032      52.632
2015    2       21    18  19    6.1139   487.8    6.024      52.589
2015    2       21    18  24    6.1089   487.9    6.016      52.546
2015    2       21    18  29    6.1041   487.9    6.008      52.503
2015    2       21    18  35    6.0993   488.0    6.000      52.460
2015    2       21    18  40    6.0944   488.0    5.992      52.417
2015    2       21    18  45    6.0896   488.1    5.984      52.374
2015    2       21    18  50    6.0847   488.1    5.976      52.330
2015    2       21    18  55    6.0798   488.1    5.969      52.287
2015    2       21    19   0    6.0750   488.2    5.961      52.244
2015    2       21    19   6    6.0702   488.2    5.953      52.201
2015    2       21    19  11    6.0654   488.2    5.946      52.158
2015    2       21    19  16    6.0605   488.2    5.938      52.114
2015    2       21    19  21    6.0557   488.3    5.931      52.071
2015    2       21    19  26    6.0508   488.3    5.924      52.028
2015    2       21    19  31    6.0461   488.3    5.916      51.984
2015    2       21    19  37    6.0413   488.3    5.909      51.941
2015    2       21    19  42    6.0365   488.4    5.902      51.898
2015    2       21    19  47    6.0317   488.4    5.895      51.855
2015    2       21    19  52    6.0269   488.4    5.888      51.812
2015    2       21    19  57    6.0221   488.4    5.881      51.769
2015    2       21    20   2    6.0174   488.4    5.874      51.726
2015    2       21    20   8    6.0126   488.5    5.868      51.683
2015    2       21    20  13    6.0079   488.5    5.861      51.641
2015    2       21    20  18    6.0031   488.5    5.855      51.598
2015    2       21    20  23    5.9984   488.5    5.848      51.556
2015    2       21    20  28    5.9936   488.5    5.842      51.513
2015    2       21    20  33    5.9889   488.5    5.835      51.471
2015    2       21    20  39    5.9842   488.5    5.829      51.429
2015    2       21    20  44    5.9795   488.5    5.823      51.388
2015    2       21    20  49    5.9749   488.5    5.817      51.346
2015    2       21    20  54    5.9702   488.6    5.811      51.305
2015    2       21    20  59    5.9655   488.6    5.805      51.264
2015    2       21    21   4    5.9609   488.6    5.799      51.223
2015    2       21    21  10    5.9562   488.6    5.794      51.183
2015    2       21    21  15    5.9516   488.6    5.788      51.142
2015    2       21    21  20    5.9470   488.6    5.782      51.102
2015    2       21    21  25    5.9424   488.6    5.777      51.063
2015    2       21    21  30    5.9378   488.6    5.771      51.024
2015    2       21    21  35    5.9333   488.6    5.766      50.985
2015    2       21    21  41    5.9287   488.6    5.761      50.946
2015    2       21    21  46    5.9242   488.6    5.755      50.907
2015    2       21    21  51    5.9197   488.5    5.750      50.869
2015    2       21    21  56    5.9152   488.5    5.745      50.831
2015    2       21    22   1    5.9107   488.5    5.740      50.794
2015    2       21    22   6    5.9063   488.5    5.735      50.756
2015    2       21    22  12    5.9020   488.5    5.730      50.719
2015    2       21    22  17    5.8975   488.5    5.725      50.682
2015    2       21    22  22    5.8932   488.5    5.720      50.646
2015    2       21    22  27    5.8889   488.5    5.715      50.609
2015    2       21    22  32    5.8845   488.5    5.710      50.573
2015    2       21    22  37    5.8802   488.5    5.706      50.536
2015    2       21    22  43    5.8759   488.5    5.701      50.500
2015    2       21    22  48    5.8716   488.5    5.696      50.463
2015    2       21    22  53    5.8674   488.4    5.691      50.427
2015    2       21    22  58    5.8631   488.4    5.686      50.390
2015    2       21    23   3    5.8589   488.4    5.682      50.353
2015    2       21    23   8    5.8547   488.4    5.677      50.316
2015    2       21    23  13    5.8505   488.4    5.672      50.278
2015    2       21    23  19    5.8463   488.4    5.667      50.241
2015    2       21    23  24    5.8421   488.4    5.662      50.203
2015    2       21    23  29    5.8379   488.4    5.657      50.165
2015    2       21    23  34    5.8339   488.4    5.652      50.126
2015    2       21    23  39    5.8297   488.3    5.647      50.087
2015    2       21    23  44    5.8254   488.3    5.642      50.048
2015    2       21    23  50    5.8214   488.3    5.637      50.009
2015    2       21    23  55    5.8171   488.3    5.632      49.969
2015    2       22     0   0    5.8129   488.3    5.627      49.930
2015    2       22     0   5    5.8087   488.3    5.622      49.889
2015    2       22     0  10    5.8046   488.2    5.617      49.849
2015    2       22     0  15    5.8004   488.2    5.612      49.808
2015    2       22     0  21    5.7963   488.2    5.607      49.767
2015    2       22     0  26    5.7921   488.2    5.602      49.726
2015    2       22     0  31    5.7881   488.2    5.597      49.685
2015    2       22     0  36    5.7840   488.1    5.591      49.643
2015    2       22     0  41    5.7797   488.1    5.586      49.602
2015    2       22     0  46    5.7756   488.1    5.581      49.559
2015    2       22     0  52    5.7715   488.1    5.576      49.517
2015    2       22     0  57    5.7674   488.0    5.571      49.475
2015    2       22     1   2    5.7633   488.0    5.566      49.432
2015    2       22     1   7    5.7592   488.0    5.561      49.390
2015    2       22     1  12    5.7551   488.0    5.556      49.347
2015    2       22     1  17    5.7511   487.9    5.551      49.304
2015    2       22     1  23    5.7470   487.9    5.546      49.262
2015    2       22     1  28    5.7430   487.9    5.541      49.219
2015    2       22     1  33    5.7390   487.8    5.536      49.176
2015    2       22     1  38    5.7350   487.8    5.531      49.133
2015    2       22     1  43    5.7310   487.8    5.526      49.090
2015    2       22     1  48    5.7270   487.7    5.521      49.047
2015    2       22     1  54    5.7233   487.7    5.517      49.005
2015    2       22     1  59    5.7192   487.7    5.512      48.962
2015    2       22     2   4    5.7152   487.6    5.507      48.919
2015    2       22     2   9    5.7113   487.6    5.503      48.876
2015    2       22     2  14    5.7076   487.6    5.498      48.834
2015    2       22     2  19    5.7036   487.5    5.493      48.791
2015    2       22     2  25    5.6999   487.5    5.489      48.749
2015    2       22     2  30    5.6961   487.4    5.485      48.706
2015    2       22     2  35    5.6921   487.4    5.480      48.664
2015    2       22     2  40    5.6883   487.4    5.476      48.622
2015    2       22     2  45    5.6845   487.3    5.472      48.580
2015    2       22     2  50    5.6807   487.3    5.467      48.538
2015    2       22     2  56    5.6771   487.2    5.463      48.496
2015    2       22     3   1    5.6732   487.2    5.459      48.454
2015    2       22     3   6    5.6695   487.1    5.455      48.413
2015    2       22     3  11    5.6660   487.1    5.451      48.371
2015    2       22     3  16    5.6623   487.0    5.447      48.331
2015    2       22     3  21    5.6586   487.0    5.443      48.290
2015    2       22     3  27    5.6547   486.9    5.440      48.249
2015    2       22     3  32    5.6511   486.9    5.436      48.209
2015    2       22     3  37    5.6475   486.8    5.432      48.169
2015    2       22     3  42    5.6439   486.8    5.429      48.130
2015    2       22     3  47    5.6403   486.7    5.425      48.090
2015    2       22     3  52    5.6368   486.7    5.422      48.052
2015    2       22     3  58    5.6332   486.6    5.418      48.013
2015    2       22     4   3    5.6297   486.5    5.415      47.975
2015    2       22     4   8    5.6262   486.5    5.412      47.937
2015    2       22     4  13    5.6227   486.4    5.409      47.900
2015    2       22     4  18    5.6193   486.4    5.406      47.863
2015    2       22     4  23    5.6161   486.3    5.403      47.827
2015    2       22     4  29    5.6124   486.2    5.400      47.791
2015    2       22     4  34    5.6091   486.2    5.397      47.755
2015    2       22     4  39    5.6057   486.1    5.394      47.720
2015    2       22     4  44    5.6024   486.1    5.391      47.685
2015    2       22     4  49    5.5990   486.0    5.389      47.651
2015    2       22     4  54    5.5957   485.9    5.386      47.617
2015    2       22     5   0    5.5925   485.9    5.383      47.584
2015    2       22     5   5    5.5894   485.8    5.381      47.551
2015    2       22     5  10    5.5860   485.7    5.379      47.519
2015    2       22     5  15    5.5829   485.7    5.376      47.487
2015    2       22     5  20    5.5795   485.6    5.374      47.455
2015    2       22     5  25    5.5764   485.5    5.372      47.424
2015    2       22     5  31    5.5732   485.5    5.369      47.393
2015    2       22     5  36    5.5703   485.4    5.367      47.362
2015    2       22     5  41    5.5672   485.3    5.365      47.332
2015    2       22     5  46    5.5639   485.3    5.363      47.302
2015    2       22     5  51    5.5610   485.2    5.361      47.272
2015    2       22     5  56    5.5580   485.1    5.359      47.242
2015    2       22     6   2    5.5549   485.1    5.357      47.212
2015    2       22     6   7    5.5518   485.0    5.355      47.183
2015    2       22     6  12    5.5489   484.9    5.353      47.154
2015    2       22     6  17    5.5458   484.9    5.351      47.124
2015    2       22     6  22    5.5428   484.8    5.349      47.094
2015    2       22     6  27    5.5398   484.7    5.347      47.065
2015    2       22     6  32    5.5370   484.7    5.344      47.035
2015    2       22     6  38    5.5339   484.6    5.342      47.005
2015    2       22     6  43    5.5310   484.5    5.340      46.975
2015    2       22     6  48    5.5282   484.5    5.338      46.945
2015    2       22     6  53    5.5253   484.4    5.336      46.914
2015    2       22     6  58    5.5224   484.3    5.334      46.884
2015    2       22     7   3    5.5193   484.2    5.332      46.853
2015    2       22     7   9    5.5164   484.2    5.330      46.823
2015    2       22     7  14    5.5135   484.1    5.328      46.792
2015    2       22     7  19    5.5106   484.0    5.326      46.761
2015    2       22     7  24    5.5077   484.0    5.324      46.730
2015    2       22     7  29    5.5048   483.9    5.322      46.698
2015    2       22     7  34    5.5020   483.8    5.320      46.667
2015    2       22     7  40    5.4990   483.7    5.318      46.635
2015    2       22     7  45    5.4963   483.7    5.316      46.604
2015    2       22     7  50    5.4933   483.6    5.314      46.572
2015    2       22     7  55    5.4905   483.5    5.312      46.541
2015    2       22     8   0    5.4877   483.5    5.310      46.509
2015    2       22     8   5    5.4849   483.4    5.308      46.477
2015    2       22     8  11    5.4820   483.3    5.306      46.446
2015    2       22     8  16    5.4791   483.2    5.304      46.414
2015    2       22     8  21    5.4764   483.2    5.302      46.382
2015    2       22     8  26    5.4735   483.1    5.300      46.350
2015    2       22     8  31    5.4709   483.0    5.298      46.319
2015    2       22     8  36    5.4681   482.9    5.296      46.287
2015    2       22     8  42    5.4653   482.9    5.294      46.255
2015    2       22     8  47    5.4626   482.8    5.293      46.224
2015    2       22     8  52    5.4599   482.7    5.291      46.192
2015    2       22     8  57    5.4571   482.6    5.289      46.161
2015    2       22     9   2    5.4543   482.6    5.288      46.130
2015    2       22     9   7    5.4517   482.5    5.286      46.099
2015    2       22     9  13    5.4491   482.4    5.285      46.068
2015    2       22     9  18    5.4464   482.3    5.283      46.037
2015    2       22     9  23    5.4437   482.2    5.282      46.007
2015    2       22     9  28    5.4410   482.2    5.281      45.977
2015    2       22     9  33    5.4384   482.1    5.280      45.946
2015    2       22     9  38    5.4359   482.0    5.278      45.916
2015    2       22     9  44    5.4334   481.9    5.277      45.886
2015    2       22     9  49    5.4308   481.8    5.276      45.857
2015    2       22     9  54    5.4282   481.8    5.275      45.828
2015    2       22     9  59    5.4257   481.7    5.274      45.798
2015    2       22    10   4    5.4232   481.6    5.274      45.769
2015    2       22    10   9    5.4207   481.5    5.273      45.740
2015    2       22    10  15    5.4183   481.4    5.272      45.712
2015    2       22    10  20    5.4158   481.4    5.271      45.684
2015    2       22    10  25    5.4135   481.3    5.271      45.656
2015    2       22    10  30    5.4109   481.2    5.270      45.628
2015    2       22    10  35    5.4087   481.1    5.269      45.600
2015    2       22    10  40    5.4062   481.0    5.269      45.573
2015    2       22    10  46    5.4038   481.0    5.268      45.545
2015    2       22    10  51    5.4015   480.9    5.268      45.519
2015    2       22    10  56    5.3992   480.8    5.268      45.492
2015    2       22    11   1    5.3969   480.7    5.267      45.465
2015    2       22    11   6    5.3946   480.6    5.267      45.439
2015    2       22    11  11    5.3923   480.5    5.267      45.413
2015    2       22    11  17    5.3901   480.5    5.267      45.388
2015    2       22    11  22    5.3878   480.4    5.267      45.362
2015    2       22    11  27    5.3856   480.3    5.267      45.337
2015    2       22    11  32    5.3834   480.2    5.266      45.312
2015    2       22    11  37    5.3813   480.1    5.266      45.287
2015    2       22    11  42    5.3791   480.1    5.266      45.263
2015    2       22    11  48    5.3769   480.0    5.266      45.238
2015    2       22    11  53    5.3749   479.9    5.266      45.214
2015    2       22    11  58    5.3727   479.8    5.266      45.189
2015    2       22    12   3    5.3706   479.7    5.266      45.165
2015    2       22    12   8    5.3685   479.6    5.266      45.140
2015    2       22    12  13    5.3665   479.6    5.266      45.116
2015    2       22    12  19    5.3644   479.5    5.266      45.091
2015    2       22    12  24    5.3623   479.4    5.265      45.066
2015    2       22    12  29    5.3602   479.3    5.265      45.041
2015    2       22    12  34    5.3582   479.2    5.265      45.016
2015    2       22    12  39    5.3563   479.1    5.264      44.991
2015    2       22    12  44    5.3541   479.1    5.264      44.966
2015    2       22    12  50    5.3522   479.0    5.264      44.940
2015    2       22    12  55    5.3501   478.9    5.263      44.914
2015    2       22    13   0    5.3482   478.8    5.263      44.888
2015    2       22    13   5    5.3462   478.7    5.262      44.861
2015    2       22    13  10    5.3442   478.6    5.262      44.835
2015    2       22    13  15    5.3423   478.6    5.261      44.808
2015    2       22    13  21    5.3403   478.5    5.260      44.781
2015    2       22    13  26    5.3383   478.4    5.260      44.753
2015    2       22    13  31    5.3364   478.3    5.259      44.726
2015    2       22    13  36    5.3343   478.2    5.258      44.698
2015    2       22    13  41    5.3324   478.1    5.258      44.670
2015    2       22    13  46    5.3306   478.1    5.257      44.642
2015    2       22    13  51    5.3287   478.0    5.256      44.614
2015    2       22    13  57    5.3268   477.9    5.255      44.585
2015    2       22    14   2    5.3247   477.8    5.254      44.556
2015    2       22    14   7    5.3230   477.7    5.253      44.527
2015    2       22    14  12    5.3210   477.6    5.252      44.498
2015    2       22    14  17    5.3191   477.6    5.252      44.469
2015    2       22    14  22    5.3172   477.5    5.251      44.440
2015    2       22    14  28    5.3155   477.4    5.250      44.410
2015    2       22    14  33    5.3135   477.3    5.249      44.380
2015    2       22    14  38    5.3118   477.2    5.248      44.351
2015    2       22    14  43    5.3099   477.1    5.247      44.321
2015    2       22    14  48    5.3080   477.1    5.246      44.291
2015    2       22    14  53    5.3062   477.0    5.245      44.261
2015    2       22    14  59    5.3045   476.9    5.244      44.230
2015    2       22    15   4    5.3026   476.8    5.243      44.200
2015    2       22    15   9    5.3008   476.7    5.242      44.170
2015    2       22    15  14    5.2991   476.6    5.240      44.139
2015    2       22    15  19    5.2973   476.6    5.239      44.109
2015    2       22    15  24    5.2955   476.5    5.238      44.079
2015    2       22    15  30    5.2938   476.4    5.237      44.048
2015    2       22    15  35    5.2920   476.3    5.236      44.017
2015    2       22    15  40    5.2904   476.2    5.235      43.987
2015    2       22    15  45    5.2887   476.1    5.234      43.956
2015    2       22    15  50    5.2869   476.1    5.233      43.926
2015    2       22    15  55    5.2852   476.0    5.232      43.895
2015    2       22    16   1    5.2835   475.9    5.231      43.864
2015    2       22    16   6    5.2820   475.8    5.230      43.834
2015    2       22    16  11    5.2801   475.7    5.229      43.803
2015    2       22    16  16    5.2785   475.6    5.228      43.773
2015    2       22    16  21    5.2770   475.5    5.227      43.742
2015    2       22    16  26    5.2752   475.5    5.226      43.712
2015    2       22    16  32    5.2738   475.4    5.225      43.682
2015    2       22    16  37    5.2720   475.3    5.224      43.652
2015    2       22    16  42    5.2704   475.2    5.224      43.622
2015    2       22    16  47    5.2688   475.1    5.223      43.592
2015    2       22    16  52    5.2674   475.0    5.222      43.562
2015    2       22    16  57    5.2659   474.9    5.221      43.532
2015    2       22    17   3    5.2642   474.8    5.221      43.503
2015    2       22    17   8    5.2627   474.8    5.220      43.474
2015    2       22    17  13    5.2613   474.7    5.219      43.445
2015    2       22    17  18    5.2597   474.6    5.219      43.416
2015    2       22    17  23    5.2583   474.5    5.218      43.387
2015    2       22    17  28    5.2569   474.4    5.218      43.359
2015    2       22    17  34    5.2553   474.3    5.217      43.331
2015    2       22    17  39    5.2538   474.2    5.217      43.303
2015    2       22    17  44    5.2524   474.1    5.216      43.276
2015    2       22    17  49    5.2510   474.0    5.216      43.248
2015    2       22    17  54    5.2498   474.0    5.216      43.221
2015    2       22    17  59    5.2483   473.9    5.216      43.195
2015    2       22    18   5    5.2470   473.8    5.216      43.169
2015    2       22    18  10    5.2457   473.7    5.216      43.143
2015    2       22    18  15    5.2442   473.6    5.216      43.117
2015    2       22    18  20    5.2430   473.5    5.216      43.092
2015    2       22    18  25    5.2416   473.4    5.216      43.068
2015    2       22    18  30    5.2405   473.3    5.216      43.043
2015    2       22    18  36    5.2391   473.2    5.216      43.019
2015    2       22    18  41    5.2378   473.1    5.217      42.995
2015    2       22    18  46    5.2366   473.0    5.217      42.972
2015    2       22    18  51    5.2354   472.9    5.218      42.949
2015    2       22    18  56    5.2341   472.9    5.218      42.927
2015    2       22    19   1    5.2329   472.8    5.219      42.905
2015    2       22    19   7    5.2317   472.7    5.219      42.883
2015    2       22    19  12    5.2306   472.6    5.220      42.861
2015    2       22    19  17    5.2295   472.5    5.221      42.840
2015    2       22    19  22    5.2283   472.4    5.222      42.819
2015    2       22    19  27    5.2271   472.3    5.222      42.798
2015    2       22    19  32    5.2260   472.2    5.223      42.777
2015    2       22    19  38    5.2248   472.1    5.224      42.756
2015    2       22    19  43    5.2237   472.0    5.225      42.735
2015    2       22    19  48    5.2226   471.9    5.226      42.714
2015    2       22    19  53    5.2215   471.8    5.226      42.694
2015    2       22    19  58    5.2206   471.7    5.227      42.673
2015    2       22    20   3    5.2194   471.6    5.228      42.652
2015    2       22    20   9    5.2184   471.6    5.229      42.632
2015    2       22    20  14    5.2172   471.5    5.230      42.611
2015    2       22    20  19    5.2162   471.4    5.231      42.590
2015    2       22    20  24    5.2152   471.3    5.232      42.569
2015    2       22    20  29    5.2141   471.2    5.233      42.548
2015    2       22    20  34    5.2131   471.1    5.234      42.527
2015    2       22    20  39    5.2121   471.0    5.235      42.506
2015    2       22    20  45    5.2111   470.9    5.236      42.485
2015    2       22    20  50    5.2101   470.8    5.237      42.464
2015    2       22    20  55    5.2091   470.7    5.238      42.443
2015    2       22    21   0    5.2081   470.6    5.239      42.421
2015    2       22    21   5    5.2071   470.5    5.240      42.400
2015    2       22    21  10    5.2061   470.4    5.241      42.379
2015    2       22    21  16    5.2052   470.3    5.242      42.357
2015    2       22    21  21    5.2042   470.2    5.243      42.336
2015    2       22    21  26    5.2032   470.1    5.244      42.314
2015    2       22    21  31    5.2023   470.0    5.245      42.292
2015    2       22    21  36    5.2013   469.9    5.246      42.271
2015    2       22    21  41    5.2003   469.9    5.247      42.249
2015    2       22    21  47    5.1994   469.8    5.248      42.227
2015    2       22    21  52    5.1985   469.7    5.249      42.205
2015    2       22    21  57    5.1975   469.6    5.250      42.183
2015    2       22    22   2    5.1966   469.5    5.251      42.161
2015    2       22    22   7    5.1956   469.4    5.252      42.138
2015    2       22    22  12    5.1947   469.3    5.253      42.116
2015    2       22    22  18    5.1938   469.2    5.254      42.093
2015    2       22    22  23    5.1929   469.1    5.254      42.071
2015    2       22    22  28    5.1919   469.0    5.255      42.048
2015    2       22    22  33    5.1910   468.9    5.256      42.025
2015    2       22    22  38    5.1901   468.8    5.257      42.002
2015    2       22    22  43    5.1892   468.7    5.258      41.979
2015    2       22    22  49    5.1883   468.6    5.258      41.956
2015    2       22    22  54    5.1874   468.5    5.259      41.933
2015    2       22    22  59    5.1866   468.4    5.260      41.910
2015    2       22    23   4    5.1857   468.3    5.261      41.887
2015    2       22    23   9    5.1848   468.2    5.261      41.863
2015    2       22    23  14    5.1840   468.1    5.262      41.840
2015    2       22    23  20    5.1831   468.0    5.262      41.816
2015    2       22    23  25    5.1823   467.9    5.263      41.793
2015    2       22    23  30    5.1815   467.8    5.264      41.769
2015    2       22    23  35    5.1807   467.7    5.264      41.746
2015    2       22    23  40    5.1799   467.7    5.265      41.722
2015    2       22    23  45    5.1791   467.6    5.265      41.699
2015    2       22    23  51    5.1784   467.5    5.265      41.675
2015    2       22    23  56    5.1776   467.4    5.266      41.651
2015    2       23     0   1    5.1769   467.3    5.266      41.627
2015    2       23     0   6    5.1762   467.2    5.267      41.603
2015    2       23     0  11    5.1755   467.1    5.267      41.579
2015    2       23     0  16    5.1749   467.0    5.267      41.555
2015    2       23     0  22    5.1742   466.9    5.268      41.530
2015    2       23     0  27    5.1735   466.8    5.268      41.506
2015    2       23     0  32    5.1728   466.7    5.269      41.481
2015    2       23     0  37    5.1721   466.6    5.269      41.456
2015    2       23     0  42    5.1715   466.5    5.269      41.431
2015    2       23     0  47    5.1708   466.4    5.269      41.407
2015    2       23     0  53    5.1702   466.3    5.270      41.381
2015    2       23     0  58    5.1695   466.2    5.270      41.356
2015    2       23     1   3    5.1689   466.1    5.270      41.331
2015    2       23     1   8    5.1684   466.0    5.271      41.305
2015    2       23     1  13    5.1677   465.9    5.271      41.280
2015    2       23     1  18    5.1671   465.8    5.271      41.254
2015    2       23     1  24    5.1665   465.7    5.271      41.228
2015    2       23     1  29    5.1658   465.6    5.272      41.203
2015    2       23     1  34    5.1653   465.5    5.272      41.177
2015    2       23     1  39    5.1647   465.4    5.272      41.151
2015    2       23     1  44    5.1641   465.3    5.273      41.126
2015    2       23     1  49    5.1635   465.2    5.273      41.100
2015    2       23     1  55    5.1629   465.1    5.273      41.074
2015    2       23     2   0    5.1624   465.0    5.274      41.048
2015    2       23     2   5    5.1618   464.9    5.274      41.023
2015    2       23     2  10    5.1612   464.8    5.274      40.997
2015    2       23     2  15    5.1607   464.7    5.275      40.971
2015    2       23     2  20    5.1602   464.5    5.275      40.946
2015    2       23     2  26    5.1597   464.4    5.276      40.920
2015    2       23     2  31    5.1591   464.3    5.276      40.895
2015    2       23     2  36    5.1586   464.2    5.277      40.870
2015    2       23     2  41    5.1581   464.1    5.277      40.845
2015    2       23     2  46    5.1575   464.0    5.278      40.820
2015    2       23     2  51    5.1571   463.9    5.278      40.795
2015    2       23     2  57    5.1566   463.8    5.279      40.770
2015    2       23     3   2    5.1561   463.7    5.280      40.745
2015    2       23     3   7    5.1556   463.6    5.280      40.721
2015    2       23     3  12    5.1552   463.5    5.281      40.696
2015    2       23     3  17    5.1547   463.4    5.282      40.672
2015    2       23     3  22    5.1543   463.3    5.283      40.648
2015    2       23     3  28    5.1538   463.2    5.284      40.623
2015    2       23     3  33    5.1533   463.0    5.285      40.600
2015    2       23     3  38    5.1529   462.9    5.286      40.576
2015    2       23     3  43    5.1525   462.8    5.287      40.552
2015    2       23     3  48    5.1521   462.7    5.288      40.529
2015    2       23     3  53    5.1518   462.6    5.289      40.506
2015    2       23     3  58    5.1513   462.5    5.291      40.483
2015    2       23     4   4    5.1510   462.4    5.292      40.460
2015    2       23     4   9    5.1506   462.3    5.294      40.438
2015    2       23     4  14    5.1503   462.1    5.295      40.415
2015    2       23     4  19    5.1500   462.0    5.297      40.393
2015    2       23     4  24    5.1496   461.9    5.298      40.371
2015    2       23     4  29    5.1493   461.8    5.300      40.349
2015    2       23     4  35    5.1491   461.7    5.302      40.328
2015    2       23     4  40    5.1488   461.6    5.304      40.307
2015    2       23     4  45    5.1486   461.4    5.306      40.286
2015    2       23     4  50    5.1483   461.3    5.308      40.265
2015    2       23     4  55    5.1482   461.2    5.310      40.244
2015    2       23     5   0    5.1479   461.1    5.312      40.224
2015    2       23     5   6    5.1478   461.0    5.314      40.204
2015    2       23     5  11    5.1476   460.9    5.316      40.184
2015    2       23     5  16    5.1474   460.7    5.319      40.164
2015    2       23     5  21    5.1473   460.6    5.321      40.145
2015    2       23     5  26    5.1471   460.5    5.324      40.126
2015    2       23     5  31    5.1471   460.4    5.326      40.107
2015    2       23     5  37    5.1470   460.3    5.329      40.088
2015    2       23     5  42    5.1469   460.1    5.331      40.070
2015    2       23     5  47    5.1470   460.0    5.334      40.051
2015    2       23     5  52    5.1469   459.9    5.337      40.033
2015    2       23     5  57    5.1469   459.8    5.340      40.016
2015    2       23     6   2    5.1469   459.7    5.343      39.998
2015    2       23     6   8    5.1469   459.5    5.346      39.981
2015    2       23     6  13    5.1470   459.4    5.349      39.964
2015    2       23     6  18    5.1471   459.3    5.352      39.947
2015    2       23     6  23    5.1472   459.2    5.355      39.931
2015    2       23     6  28    5.1474   459.0    5.358      39.915
2015    2       23     6  33    5.1475   458.9    5.362      39.900
2015    2       23     6  39    5.1477   458.8    5.365      39.884
2015    2       23     6  44    5.1480   458.7    5.369      39.869
2015    2       23     6  49    5.1482   458.5    5.372      39.855
2015    2       23     6  54    5.1485   458.4    5.376      39.840
2015    2       23     6  59    5.1489   458.3    5.380      39.826
2015    2       23     7   4    5.1493   458.1    5.383      39.813
2015    2       23     7  10    5.1497   458.0    5.387      39.799
2015    2       23     7  15    5.1501   457.9    5.391      39.786
2015    2       23     7  20    5.1506   457.8    5.395      39.774
2015    2       23     7  25    5.1511   457.6    5.400      39.761
2015    2       23     7  30    5.1516   457.5    5.404      39.749
2015    2       23     7  35    5.1522   457.4    5.408      39.737
2015    2       23     7  41    5.1528   457.3    5.413      39.726
2015    2       23     7  46    5.1536   457.1    5.418      39.715
2015    2       23     7  51    5.1542   457.0    5.422      39.705
2015    2       23     7  56    5.1551   456.9    5.427      39.694
2015    2       23     8   1    5.1559   456.7    5.432      39.684
2015    2       23     8   6    5.1567   456.6    5.437      39.675
2015    2       23     8  12    5.1574   456.5    5.443      39.665
2015    2       23     8  17    5.1585   456.4    5.448      39.656
2015    2       23     8  22    5.1593   456.2    5.453      39.647
2015    2       23     8  27    5.1602   456.1    5.459      39.639
2015    2       23     8  32    5.1612   456.0    5.464      39.630
2015    2       23     8  37    5.1623   455.9    5.470      39.623
2015    2       23     8  43    5.1633   455.8    5.476      39.615
2015    2       23     8  48    5.1644   455.6    5.481      39.608
2015    2       23     8  53    5.1655   455.5    5.487      39.601
2015    2       23     8  58    5.1666   455.4    5.493      39.594
2015    2       23     9   3    5.1677   455.3    5.499      39.587
2015    2       23     9   8    5.1691   455.2    5.504      39.580
2015    2       23     9  14    5.1702   455.1    5.510      39.573
2015    2       23     9  19    5.1714   455.0    5.516      39.566
2015    2       23     9  24    5.1726   454.8    5.521      39.559
2015    2       23     9  29    5.1737   454.7    5.527      39.551
2015    2       23     9  34    5.1749   454.6    5.532      39.544
2015    2       23     9  39    5.1761   454.5    5.538      39.536
2015    2       23     9  45    5.1773   454.4    5.543      39.529
2015    2       23     9  50    5.1783   454.3    5.548      39.521
2015    2       23     9  55    5.1797   454.2    5.554      39.512
2015    2       23    10   0    5.1809   454.1    5.559      39.504
2015    2       23    10   5    5.1819   454.0    5.564      39.495
2015    2       23    10  10    5.1833   453.9    5.569      39.486
2015    2       23    10  16    5.1845   453.8    5.574      39.477
2015    2       23    10  21    5.1856   453.7    5.579      39.467
2015    2       23    10  26    5.1870   453.6    5.584      39.458
2015    2       23    10  31    5.1882   453.5    5.589      39.448
2015    2       23    10  36    5.1893   453.3    5.594      39.438
2015    2       23    10  41    5.1905   453.2    5.599      39.428
2015    2       23    10  46    5.1920   453.1    5.604      39.418
2015    2       23    10  52    5.1931   453.0    5.609      39.408
2015    2       23    10  57    5.1944   452.9    5.614      39.398
2015    2       23    11   2    5.1957   452.8    5.619      39.387
2015    2       23    11   7    5.1970   452.7    5.624      39.377
2015    2       23    11  12    5.1983   452.6    5.629      39.367
2015    2       23    11  17    5.1997   452.5    5.634      39.356
2015    2       23    11  23    5.2013   452.4    5.639      39.346
2015    2       23    11  28    5.2024   452.3    5.644      39.336
2015    2       23    11  33    5.2038   452.2    5.649      39.326
2015    2       23    11  38    5.2052   452.1    5.654      39.316
2015    2       23    11  43    5.2066   452.0    5.659      39.306
2015    2       23    11  48    5.2081   451.9    5.664      39.296
2015    2       23    11  54    5.2098   451.8    5.669      39.287
2015    2       23    11  59    5.2112   451.7    5.675      39.277
2015    2       23    12   4    5.2127   451.6    5.680      39.268
2015    2       23    12   9    5.2140   451.5    5.685      39.259
2015    2       23    12  14    5.2157   451.4    5.691      39.250
2015    2       23    12  19    5.2171   451.3    5.696      39.241
2015    2       23    12  25    5.2186   451.2    5.702      39.232
2015    2       23    12  30    5.2202   451.1    5.707      39.224
2015    2       23    12  35    5.2220   451.0    5.713      39.215
2015    2       23    12  40    5.2236   450.9    5.718      39.208
2015    2       23    12  45    5.2253   450.8    5.724      39.200
2015    2       23    12  50    5.2267   450.7    5.730      39.192
2015    2       23    12  56    5.2283   450.6    5.736      39.185
2015    2       23    13   1    5.2300   450.5    5.742      39.178
2015    2       23    13   6    5.2317   450.4    5.747      39.171
2015    2       23    13  11    5.2337   450.3    5.754      39.165
2015    2       23    13  16    5.2352   450.3    5.760      39.159
2015    2       23    13  21    5.2369   450.2    5.766      39.153
2015    2       23    13  27    5.2387   450.1    5.772      39.147
2015    2       23    13  32    5.2405   450.0    5.778      39.142
2015    2       23    13  37    5.2423   449.9    5.785      39.136
2015    2       23    13  42    5.2441   449.8    5.791      39.132
2015    2       23    13  47    5.2462   449.7    5.798      39.127
2015    2       23    13  52    5.2478   449.6    5.805      39.123
2015    2       23    13  58    5.2497   449.5    5.811      39.118
2015    2       23    14   3    5.2518   449.4    5.818      39.115
2015    2       23    14   8    5.2537   449.3    5.825      39.111
2015    2       23    14  13    5.2557   449.2    5.832      39.108
2015    2       23    14  18    5.2574   449.1    5.839      39.105
2015    2       23    14  23    5.2596   449.1    5.847      39.102
2015    2       23    14  29    5.2614   449.0    5.854      39.100
2015    2       23    14  34    5.2637   448.9    5.861      39.098
2015    2       23    14  39    5.2656   448.8    5.869      39.097
2015    2       23    14  44    5.2679   448.7    5.876      39.095
2015    2       23    14  49    5.2700   448.6    5.884      39.094
2015    2       23    14  54    5.2721   448.5    5.892      39.094
2015    2       23    15   0    5.2743   448.4    5.900      39.094
2015    2       23    15   5    5.2764   448.4    5.908      39.094
2015    2       23    15  10    5.2786   448.3    5.916      39.094
2015    2       23    15  15    5.2809   448.2    5.924      39.095
2015    2       23    15  20    5.2835   448.1    5.933      39.097
2015    2       23    15  25    5.2856   448.0    5.941      39.099
2015    2       23    15  31    5.2881   447.9    5.950      39.101
2015    2       23    15  36    5.2907   447.9    5.958      39.104
2015    2       23    15  41    5.2930   447.8    5.967      39.107
2015    2       23    15  46    5.2956   447.7    5.976      39.111
2015    2       23    15  51    5.2983   447.6    5.985      39.115
2015    2       23    15  56    5.3007   447.6    5.994      39.120
2015    2       23    16   2    5.3034   447.5    6.004      39.125
2015    2       23    16   7    5.3061   447.4    6.013      39.131
2015    2       23    16  12    5.3088   447.4    6.022      39.137
2015    2       23    16  17    5.3115   447.3    6.032      39.144
2015    2       23    16  22    5.3144   447.2    6.041      39.151
2015    2       23    16  27    5.3170   447.2    6.050      39.158
2015    2       23    16  33    5.3200   447.1    6.060      39.165
2015    2       23    16  38    5.3226   447.0    6.069      39.173
2015    2       23    16  43    5.3256   447.0    6.078      39.181
2015    2       23    16  48    5.3282   446.9    6.088      39.188
2015    2       23    16  53    5.3312   446.9    6.097      39.196
2015    2       23    16  58    5.3339   446.8    6.106      39.204
2015    2       23    17   4    5.3368   446.7    6.115      39.213
2015    2       23    17   9    5.3396   446.7    6.124      39.221
2015    2       23    17  14    5.3425   446.6    6.133      39.229
2015    2       23    17  19    5.3454   446.6    6.142      39.237
2015    2       23    17  24    5.3484   446.5    6.151      39.245
2015    2       23    17  29    5.3513   446.5    6.160      39.253
2015    2       23    17  35    5.3540   446.4    6.169      39.261
2015    2       23    17  40    5.3571   446.4    6.178      39.269
2015    2       23    17  45    5.3600   446.3    6.187      39.277
2015    2       23    17  50    5.3629   446.3    6.196      39.285
2015    2       23    17  55    5.3659   446.3    6.204      39.293
2015    2       23    18   0    5.3687   446.2    6.213      39.301
2015    2       23    18   5    5.3718   446.2    6.222      39.310
2015    2       23    18  11    5.3746   446.1    6.231      39.318
2015    2       23    18  16    5.3776   446.1    6.240      39.327
2015    2       23    18  21    5.3806   446.0    6.248      39.336
2015    2       23    18  26    5.3838   446.0    6.257      39.345
2015    2       23    18  31    5.3867   446.0    6.266      39.355
2015    2       23    18  36    5.3898   445.9    6.275      39.365
2015    2       23    18  42    5.3928   445.9    6.284      39.375
2015    2       23    18  47    5.3959   445.8    6.293      39.385
2015    2       23    18  52    5.3989   445.8    6.302      39.396
2015    2       23    18  57    5.4020   445.8    6.311      39.407
2015    2       23    19   2    5.4051   445.7    6.319      39.418
2015    2       23    19   7    5.4082   445.7    6.328      39.429
2015    2       23    19  13    5.4113   445.7    6.337      39.441
2015    2       23    19  18    5.4145   445.6    6.346      39.453
2015    2       23    19  23    5.4176   445.6    6.355      39.466
2015    2       23    19  28    5.4208   445.6    6.364      39.479
2015    2       23    19  33    5.4240   445.6    6.372      39.492
2015    2       23    19  38    5.4269   445.5    6.381      39.505
2015    2       23    19  44    5.4300   445.5    6.389      39.518
2015    2       23    19  49    5.4331   445.5    6.398      39.531
2015    2       23    19  54    5.4362   445.5    6.406      39.544
2015    2       23    19  59    5.4393   445.5    6.414      39.556
2015    2       23    20   4    5.4424   445.4    6.423      39.569
2015    2       23    20   9    5.4454   445.4    6.431      39.581
2015    2       23    20  15    5.4486   445.4    6.438      39.593
2015    2       23    20  20    5.4515   445.4    6.446      39.604
2015    2       23    20  25    5.4544   445.4    6.454      39.616
2015    2       23    20  30    5.4574   445.4    6.461      39.626
2015    2       23    20  35    5.4605   445.4    6.469      39.636
2015    2       23    20  40    5.4634   445.3    6.476      39.646
2015    2       23    20  46    5.4663   445.3    6.483      39.655
2015    2       23    20  51    5.4692   445.3    6.490      39.664
2015    2       23    20  56    5.4721   445.3    6.497      39.672
2015    2       23    21   1    5.4750   445.3    6.504      39.680
2015    2       23    21   6    5.4780   445.3    6.511      39.688
2015    2       23    21  11    5.4807   445.3    6.518      39.695
2015    2       23    21  17    5.4837   445.3    6.525      39.701
2015    2       23    21  22    5.4865   445.2    6.531      39.708
2015    2       23    21  27    5.4893   445.2    6.538      39.713
2015    2       23    21  32    5.4921   445.2    6.544      39.719
2015    2       23    21  37    5.4949   445.2    6.550      39.724
2015    2       23    21  42    5.4978   445.2    6.556      39.729
2015    2       23    21  48    5.5005   445.2    6.563      39.733
2015    2       23    21  53    5.5033   445.2    6.569      39.738
2015    2       23    21  58    5.5061   445.2    6.575      39.742
2015    2       23    22   3    5.5089   445.2    6.581      39.745
2015    2       23    22   8    5.5117   445.2    6.587      39.749
2015    2       23    22  13    5.5145   445.2    6.593      39.752
2015    2       23    22  19    5.5173   445.2    6.598      39.755
2015    2       23    22  24    5.5200   445.1    6.604      39.758
2015    2       23    22  29    5.5228   445.1    6.610      39.761
2015    2       23    22  34    5.5256   445.1    6.616      39.763
2015    2       23    22  39    5.5284   445.1    6.621      39.765
2015    2       23    22  44    5.5312   445.1    6.627      39.768
2015    2       23    22  50    5.5339   445.1    6.632      39.770
2015    2       23    22  55    5.5367   445.1    6.638      39.772
2015    2       23    23   0    5.5395   445.1    6.643      39.773
2015    2       23    23   5    5.5423   445.1    6.649      39.775
2015    2       23    23  10    5.5451   445.1    6.654      39.777
2015    2       23    23  15    5.5479   445.1    6.660      39.779
2015    2       23    23  21    5.5507   445.1    6.665      39.780
2015    2       23    23  26    5.5535   445.1    6.670      39.782
2015    2       23    23  31    5.5563   445.1    6.676      39.784
2015    2       23    23  36    5.5591   445.1    6.681      39.785
2015    2       23    23  41    5.5619   445.1    6.686      39.787
2015    2       23    23  46    5.5647   445.0    6.691      39.789
2015    2       23    23  52    5.5675   445.0    6.697      39.790
2015    2       23    23  57    5.5704   445.0    6.702      39.792
2015    2       24     0   2    5.5732   445.0    6.707      39.794
