year    month   day   hour  minute  B_enl V_enl   n_enl       T_enl
[year] [month] [day] [hour][minute] [nT]  [km/s]  [cm-3]      [kK]
2015    4        2     0   0    5.0689   654.9    3.397      70.701
2015    4        2     0   6    5.0668   655.1    3.393      70.709
2015    4        2     0  12    5.0646   655.3    3.390      70.717
2015    4        2     0  18    5.0625   655.4    3.387      70.725
2015    4        2     0  24    5.0603   655.6    3.384      70.733
2015    4        2     0  30    5.0582   655.8    3.381      70.741
2015    4        2     0  35    5.0561   655.9    3.378      70.749
2015    4        2     0  41    5.0539   656.1    3.375      70.757
2015    4        2     0  47    5.0518   656.2    3.372      70.765
2015    4        2     0  53    5.0497   656.4    3.369      70.774
2015    4        2     0  59    5.0476   656.6    3.366      70.782
2015    4        2     1   5    5.0455   656.7    3.363      70.790
2015    4        2     1  10    5.0434   656.9    3.360      70.798
2015    4        2     1  16    5.0413   657.0    3.357      70.807
2015    4        2     1  22    5.0391   657.2    3.354      70.815
2015    4        2     1  28    5.0370   657.4    3.351      70.823
2015    4        2     1  34    5.0349   657.5    3.348      70.831
2015    4        2     1  40    5.0328   657.7    3.345      70.839
2015    4        2     1  46    5.0306   657.8    3.342      70.847
2015    4        2     1  51    5.0285   658.0    3.340      70.855
2015    4        2     1  57    5.0264   658.1    3.337      70.863
2015    4        2     2   3    5.0242   658.3    3.334      70.870
2015    4        2     2   9    5.0221   658.4    3.331      70.878
2015    4        2     2  15    5.0200   658.6    3.328      70.886
2015    4        2     2  21    5.0178   658.7    3.325      70.894
2015    4        2     2  26    5.0157   658.9    3.322      70.901
2015    4        2     2  32    5.0136   659.0    3.319      70.909
2015    4        2     2  38    5.0114   659.2    3.316      70.917
2015    4        2     2  44    5.0093   659.3    3.313      70.925
2015    4        2     2  50    5.0072   659.5    3.310      70.934
2015    4        2     2  56    5.0050   659.6    3.308      70.942
2015    4        2     3   1    5.0029   659.8    3.305      70.950
2015    4        2     3   7    5.0008   659.9    3.302      70.959
2015    4        2     3  13    4.9987   660.1    3.299      70.967
2015    4        2     3  19    4.9966   660.2    3.296      70.976
2015    4        2     3  25    4.9944   660.4    3.294      70.985
2015    4        2     3  31    4.9923   660.5    3.291      70.994
2015    4        2     3  37    4.9902   660.7    3.288      71.003
2015    4        2     3  42    4.9881   660.8    3.286      71.012
2015    4        2     3  48    4.9859   661.0    3.283      71.020
2015    4        2     3  54    4.9838   661.1    3.280      71.029
2015    4        2     4   0    4.9817   661.3    3.278      71.038
2015    4        2     4   6    4.9796   661.4    3.275      71.046
2015    4        2     4  12    4.9774   661.6    3.272      71.055
2015    4        2     4  17    4.9753   661.7    3.270      71.063
2015    4        2     4  23    4.9732   661.9    3.267      71.070
2015    4        2     4  29    4.9710   662.0    3.264      71.078
2015    4        2     4  35    4.9689   662.1    3.262      71.085
2015    4        2     4  41    4.9668   662.3    3.259      71.092
2015    4        2     4  47    4.9646   662.4    3.256      71.099
2015    4        2     4  52    4.9625   662.6    3.254      71.106
2015    4        2     4  58    4.9604   662.7    3.251      71.112
2015    4        2     5   4    4.9582   662.8    3.248      71.118
2015    4        2     5  10    4.9561   663.0    3.246      71.124
2015    4        2     5  16    4.9540   663.1    3.243      71.129
2015    4        2     5  22    4.9519   663.3    3.240      71.135
2015    4        2     5  28    4.9498   663.4    3.238      71.140
2015    4        2     5  33    4.9477   663.5    3.235      71.145
2015    4        2     5  39    4.9456   663.7    3.232      71.150
2015    4        2     5  45    4.9435   663.8    3.230      71.155
2015    4        2     5  51    4.9414   663.9    3.227      71.160
2015    4        2     5  57    4.9394   664.1    3.225      71.165
2015    4        2     6   3    4.9373   664.2    3.222      71.170
2015    4        2     6   8    4.9352   664.3    3.220      71.175
2015    4        2     6  14    4.9332   664.5    3.217      71.179
2015    4        2     6  20    4.9311   664.6    3.214      71.184
2015    4        2     6  26    4.9291   664.7    3.212      71.188
2015    4        2     6  32    4.9271   664.9    3.209      71.193
2015    4        2     6  38    4.9250   665.0    3.207      71.197
2015    4        2     6  43    4.9230   665.1    3.204      71.201
2015    4        2     6  49    4.9210   665.3    3.202      71.205
2015    4        2     6  55    4.9189   665.4    3.199      71.208
2015    4        2     7   1    4.9169   665.5    3.197      71.212
2015    4        2     7   7    4.9149   665.7    3.194      71.215
2015    4        2     7  13    4.9128   665.8    3.192      71.218
2015    4        2     7  19    4.9108   665.9    3.189      71.221
2015    4        2     7  24    4.9088   666.0    3.187      71.224
2015    4        2     7  30    4.9067   666.2    3.184      71.227
2015    4        2     7  36    4.9047   666.3    3.181      71.229
2015    4        2     7  42    4.9027   666.4    3.179      71.231
2015    4        2     7  48    4.9006   666.5    3.176      71.234
2015    4        2     7  54    4.8986   666.7    3.174      71.236
2015    4        2     7  59    4.8966   666.8    3.171      71.238
2015    4        2     8   5    4.8945   666.9    3.169      71.240
2015    4        2     8  11    4.8925   667.0    3.166      71.242
2015    4        2     8  17    4.8905   667.1    3.164      71.245
2015    4        2     8  23    4.8885   667.3    3.161      71.247
2015    4        2     8  29    4.8864   667.4    3.159      71.250
2015    4        2     8  34    4.8844   667.5    3.156      71.253
2015    4        2     8  40    4.8824   667.6    3.154      71.255
2015    4        2     8  46    4.8804   667.7    3.151      71.259
2015    4        2     8  52    4.8784   667.9    3.149      71.262
2015    4        2     8  58    4.8764   668.0    3.146      71.265
2015    4        2     9   4    4.8744   668.1    3.144      71.269
2015    4        2     9  10    4.8724   668.2    3.142      71.273
2015    4        2     9  15    4.8704   668.3    3.139      71.277
2015    4        2     9  21    4.8684   668.5    3.137      71.281
2015    4        2     9  27    4.8663   668.6    3.135      71.285
2015    4        2     9  33    4.8643   668.7    3.132      71.289
2015    4        2     9  39    4.8623   668.8    3.130      71.293
2015    4        2     9  45    4.8603   668.9    3.128      71.297
2015    4        2     9  50    4.8583   669.0    3.126      71.301
2015    4        2     9  56    4.8562   669.2    3.123      71.305
2015    4        2    10   2    4.8542   669.3    3.121      71.309
2015    4        2    10   8    4.8522   669.4    3.119      71.313
2015    4        2    10  14    4.8501   669.5    3.116      71.317
2015    4        2    10  20    4.8481   669.6    3.114      71.320
2015    4        2    10  25    4.8460   669.7    3.112      71.324
2015    4        2    10  31    4.8440   669.8    3.110      71.327
2015    4        2    10  37    4.8420   670.0    3.107      71.330
2015    4        2    10  43    4.8399   670.1    3.105      71.333
2015    4        2    10  49    4.8379   670.2    3.103      71.336
2015    4        2    10  55    4.8358   670.3    3.101      71.339
2015    4        2    11   1    4.8338   670.4    3.099      71.342
2015    4        2    11   6    4.8318   670.5    3.096      71.345
2015    4        2    11  12    4.8297   670.6    3.094      71.348
2015    4        2    11  18    4.8277   670.7    3.092      71.351
2015    4        2    11  24    4.8257   670.8    3.090      71.353
2015    4        2    11  30    4.8237   670.9    3.088      71.356
2015    4        2    11  36    4.8217   671.1    3.086      71.359
2015    4        2    11  41    4.8197   671.2    3.083      71.362
2015    4        2    11  47    4.8177   671.3    3.081      71.364
2015    4        2    11  53    4.8157   671.4    3.079      71.367
2015    4        2    11  59    4.8137   671.5    3.077      71.369
2015    4        2    12   5    4.8117   671.6    3.075      71.371
2015    4        2    12  11    4.8097   671.7    3.073      71.374
2015    4        2    12  16    4.8078   671.8    3.071      71.376
2015    4        2    12  22    4.8058   671.9    3.069      71.378
2015    4        2    12  28    4.8038   672.0    3.067      71.380
2015    4        2    12  34    4.8019   672.1    3.065      71.381
2015    4        2    12  40    4.7999   672.2    3.063      71.383
2015    4        2    12  46    4.7979   672.3    3.061      71.384
2015    4        2    12  51    4.7960   672.4    3.059      71.385
2015    4        2    12  57    4.7940   672.5    3.057      71.385
2015    4        2    13   3    4.7921   672.6    3.055      71.386
2015    4        2    13   9    4.7901   672.7    3.053      71.386
2015    4        2    13  15    4.7882   672.8    3.050      71.386
2015    4        2    13  21    4.7863   672.9    3.048      71.386
2015    4        2    13  27    4.7843   673.0    3.046      71.385
2015    4        2    13  32    4.7824   673.1    3.044      71.385
2015    4        2    13  38    4.7805   673.2    3.042      71.384
2015    4        2    13  44    4.7785   673.3    3.040      71.383
2015    4        2    13  50    4.7766   673.4    3.038      71.382
2015    4        2    13  56    4.7747   673.5    3.036      71.381
2015    4        2    14   2    4.7728   673.6    3.034      71.380
2015    4        2    14   7    4.7709   673.7    3.032      71.379
2015    4        2    14  13    4.7690   673.8    3.030      71.378
2015    4        2    14  19    4.7671   673.8    3.028      71.377
2015    4        2    14  25    4.7652   673.9    3.026      71.376
2015    4        2    14  31    4.7634   674.0    3.024      71.375
2015    4        2    14  37    4.7615   674.1    3.022      71.374
2015    4        2    14  42    4.7596   674.2    3.019      71.373
2015    4        2    14  48    4.7577   674.3    3.017      71.372
2015    4        2    14  54    4.7559   674.4    3.015      71.371
2015    4        2    15   0    4.7540   674.5    3.013      71.371
2015    4        2    15   6    4.7521   674.6    3.011      71.370
2015    4        2    15  12    4.7503   674.7    3.009      71.369
2015    4        2    15  18    4.7484   674.7    3.007      71.368
2015    4        2    15  23    4.7465   674.8    3.005      71.368
2015    4        2    15  29    4.7446   674.9    3.004      71.367
2015    4        2    15  35    4.7428   675.0    3.002      71.366
2015    4        2    15  41    4.7409   675.1    3.000      71.365
2015    4        2    15  47    4.7390   675.2    2.998      71.364
2015    4        2    15  53    4.7371   675.3    2.996      71.364
2015    4        2    15  58    4.7353   675.3    2.994      71.363
2015    4        2    16   4    4.7334   675.4    2.992      71.362
2015    4        2    16  10    4.7315   675.5    2.990      71.361
2015    4        2    16  16    4.7296   675.6    2.988      71.360
2015    4        2    16  22    4.7277   675.7    2.986      71.359
2015    4        2    16  28    4.7258   675.8    2.984      71.358
2015    4        2    16  33    4.7239   675.8    2.982      71.357
2015    4        2    16  39    4.7220   675.9    2.980      71.356
2015    4        2    16  45    4.7202   676.0    2.978      71.355
2015    4        2    16  51    4.7183   676.1    2.977      71.354
2015    4        2    16  57    4.7164   676.2    2.975      71.353
2015    4        2    17   3    4.7145   676.2    2.973      71.352
2015    4        2    17   9    4.7126   676.3    2.971      71.351
2015    4        2    17  14    4.7107   676.4    2.969      71.350
2015    4        2    17  20    4.7088   676.5    2.967      71.350
2015    4        2    17  26    4.7069   676.6    2.966      71.349
2015    4        2    17  32    4.7050   676.6    2.964      71.348
2015    4        2    17  38    4.7032   676.7    2.962      71.347
2015    4        2    17  44    4.7013   676.8    2.960      71.346
2015    4        2    17  49    4.6994   676.9    2.959      71.345
2015    4        2    17  55    4.6975   676.9    2.957      71.344
2015    4        2    18   1    4.6956   677.0    2.955      71.343
2015    4        2    18   7    4.6938   677.1    2.953      71.342
2015    4        2    18  13    4.6919   677.2    2.952      71.341
2015    4        2    18  19    4.6900   677.2    2.950      71.340
2015    4        2    18  24    4.6881   677.3    2.948      71.338
2015    4        2    18  30    4.6863   677.4    2.947      71.337
2015    4        2    18  36    4.6844   677.5    2.945      71.335
2015    4        2    18  42    4.6825   677.5    2.943      71.334
2015    4        2    18  48    4.6807   677.6    2.942      71.332
2015    4        2    18  54    4.6788   677.7    2.940      71.330
2015    4        2    19   0    4.6770   677.7    2.938      71.327
2015    4        2    19   5    4.6751   677.8    2.937      71.325
2015    4        2    19  11    4.6733   677.9    2.935      71.322
2015    4        2    19  17    4.6714   678.0    2.934      71.320
2015    4        2    19  23    4.6696   678.0    2.932      71.317
2015    4        2    19  29    4.6678   678.1    2.930      71.314
2015    4        2    19  35    4.6659   678.2    2.929      71.311
2015    4        2    19  40    4.6641   678.2    2.927      71.308
2015    4        2    19  46    4.6623   678.3    2.925      71.305
2015    4        2    19  52    4.6605   678.4    2.924      71.301
2015    4        2    19  58    4.6587   678.4    2.922      71.298
2015    4        2    20   4    4.6569   678.5    2.921      71.295
2015    4        2    20  10    4.6551   678.5    2.919      71.291
2015    4        2    20  15    4.6534   678.6    2.917      71.287
2015    4        2    20  21    4.6516   678.7    2.916      71.284
2015    4        2    20  27    4.6498   678.7    2.914      71.280
2015    4        2    20  33    4.6480   678.8    2.913      71.277
2015    4        2    20  39    4.6463   678.9    2.911      71.273
2015    4        2    20  45    4.6445   678.9    2.909      71.269
2015    4        2    20  51    4.6428   679.0    2.908      71.266
2015    4        2    20  56    4.6410   679.0    2.906      71.262
2015    4        2    21   2    4.6393   679.1    2.905      71.258
2015    4        2    21   8    4.6376   679.2    2.903      71.255
2015    4        2    21  14    4.6358   679.2    2.902      71.251
2015    4        2    21  20    4.6341   679.3    2.900      71.248
2015    4        2    21  26    4.6324   679.3    2.898      71.244
2015    4        2    21  31    4.6307   679.4    2.897      71.240
2015    4        2    21  37    4.6290   679.4    2.895      71.237
2015    4        2    21  43    4.6273   679.5    2.894      71.233
2015    4        2    21  49    4.6256   679.6    2.892      71.230
2015    4        2    21  55    4.6238   679.6    2.891      71.227
2015    4        2    22   1    4.6221   679.7    2.889      71.223
2015    4        2    22   6    4.6204   679.7    2.888      71.220
2015    4        2    22  12    4.6187   679.8    2.886      71.216
2015    4        2    22  18    4.6170   679.8    2.885      71.213
2015    4        2    22  24    4.6153   679.9    2.883      71.210
2015    4        2    22  30    4.6136   679.9    2.882      71.206
2015    4        2    22  36    4.6119   680.0    2.880      71.203
2015    4        2    22  42    4.6102   680.0    2.879      71.200
2015    4        2    22  47    4.6085   680.1    2.877      71.196
2015    4        2    22  53    4.6068   680.1    2.876      71.193
2015    4        2    22  59    4.6051   680.2    2.874      71.189
2015    4        2    23   5    4.6034   680.2    2.873      71.186
2015    4        2    23  11    4.6017   680.3    2.871      71.183
2015    4        2    23  17    4.6000   680.3    2.870      71.179
2015    4        2    23  22    4.5983   680.4    2.868      71.176
2015    4        2    23  28    4.5966   680.4    2.867      71.172
2015    4        2    23  34    4.5949   680.5    2.865      71.168
2015    4        2    23  40    4.5932   680.5    2.864      71.165
2015    4        2    23  46    4.5915   680.6    2.862      71.161
2015    4        2    23  52    4.5898   680.6    2.861      71.157
2015    4        2    23  57    4.5881   680.7    2.860      71.153
2015    4        3     0   3    4.5863   680.7    2.858      71.149
2015    4        3     0   9    4.5846   680.8    2.857      71.145
2015    4        3     0  15    4.5829   680.8    2.855      71.140
2015    4        3     0  21    4.5812   680.9    2.854      71.136
2015    4        3     0  27    4.5795   680.9    2.853      71.131
2015    4        3     0  33    4.5778   681.0    2.851      71.127
2015    4        3     0  38    4.5761   681.0    2.850      71.122
2015    4        3     0  44    4.5744   681.0    2.848      71.117
2015    4        3     0  50    4.5727   681.1    2.847      71.112
2015    4        3     0  56    4.5710   681.1    2.846      71.106
2015    4        3     1   2    4.5693   681.2    2.844      71.101
2015    4        3     1   8    4.5676   681.2    2.843      71.095
2015    4        3     1  13    4.5659   681.3    2.842      71.090
2015    4        3     1  19    4.5642   681.3    2.840      71.084
2015    4        3     1  25    4.5625   681.3    2.839      71.078
2015    4        3     1  31    4.5608   681.4    2.838      71.071
2015    4        3     1  37    4.5591   681.4    2.836      71.065
2015    4        3     1  43    4.5575   681.5    2.835      71.059
2015    4        3     1  48    4.5558   681.5    2.834      71.052
2015    4        3     1  54    4.5541   681.5    2.832      71.045
2015    4        3     2   0    4.5525   681.6    2.831      71.038
2015    4        3     2   6    4.5508   681.6    2.830      71.031
2015    4        3     2  12    4.5492   681.6    2.828      71.024
2015    4        3     2  18    4.5475   681.7    2.827      71.016
2015    4        3     2  23    4.5459   681.7    2.826      71.009
2015    4        3     2  29    4.5443   681.7    2.825      71.001
2015    4        3     2  35    4.5426   681.8    2.823      70.994
2015    4        3     2  41    4.5410   681.8    2.822      70.986
2015    4        3     2  47    4.5394   681.8    2.821      70.978
2015    4        3     2  53    4.5378   681.9    2.820      70.970
2015    4        3     2  59    4.5362   681.9    2.818      70.962
2015    4        3     3   4    4.5346   681.9    2.817      70.954
2015    4        3     3  10    4.5330   682.0    2.816      70.946
2015    4        3     3  16    4.5314   682.0    2.815      70.938
2015    4        3     3  22    4.5298   682.0    2.813      70.930
2015    4        3     3  28    4.5282   682.1    2.812      70.923
2015    4        3     3  34    4.5267   682.1    2.811      70.915
2015    4        3     3  39    4.5251   682.1    2.810      70.907
2015    4        3     3  45    4.5236   682.1    2.808      70.900
2015    4        3     3  51    4.5220   682.2    2.807      70.892
2015    4        3     3  57    4.5205   682.2    2.806      70.885
2015    4        3     4   3    4.5190   682.2    2.805      70.877
2015    4        3     4   9    4.5174   682.3    2.804      70.870
2015    4        3     4  14    4.5159   682.3    2.802      70.863
2015    4        3     4  20    4.5144   682.3    2.801      70.856
2015    4        3     4  26    4.5129   682.3    2.800      70.850
2015    4        3     4  32    4.5114   682.4    2.799      70.843
2015    4        3     4  38    4.5099   682.4    2.798      70.837
2015    4        3     4  44    4.5084   682.4    2.797      70.831
2015    4        3     4  50    4.5070   682.4    2.796      70.825
2015    4        3     4  55    4.5055   682.4    2.795      70.819
2015    4        3     5   1    4.5040   682.5    2.793      70.814
2015    4        3     5   7    4.5026   682.5    2.792      70.808
2015    4        3     5  13    4.5011   682.5    2.791      70.803
2015    4        3     5  19    4.4996   682.5    2.790      70.798
2015    4        3     5  25    4.4982   682.6    2.789      70.793
2015    4        3     5  30    4.4967   682.6    2.788      70.788
2015    4        3     5  36    4.4953   682.6    2.787      70.784
2015    4        3     5  42    4.4938   682.6    2.786      70.779
2015    4        3     5  48    4.4924   682.6    2.785      70.775
2015    4        3     5  54    4.4909   682.7    2.784      70.770
2015    4        3     6   0    4.4894   682.7    2.783      70.766
2015    4        3     6   5    4.4880   682.7    2.782      70.762
2015    4        3     6  11    4.4865   682.7    2.781      70.757
2015    4        3     6  17    4.4851   682.7    2.780      70.753
2015    4        3     6  23    4.4836   682.8    2.779      70.749
2015    4        3     6  29    4.4821   682.8    2.778      70.744
2015    4        3     6  35    4.4807   682.8    2.777      70.740
2015    4        3     6  41    4.4792   682.8    2.776      70.735
2015    4        3     6  46    4.4777   682.8    2.775      70.730
2015    4        3     6  52    4.4762   682.8    2.774      70.725
2015    4        3     6  58    4.4748   682.9    2.773      70.720
2015    4        3     7   4    4.4733   682.9    2.773      70.714
2015    4        3     7  10    4.4718   682.9    2.772      70.709
2015    4        3     7  16    4.4703   682.9    2.771      70.703
2015    4        3     7  21    4.4689   682.9    2.770      70.697
2015    4        3     7  27    4.4674   682.9    2.769      70.691
2015    4        3     7  33    4.4659   682.9    2.768      70.684
2015    4        3     7  39    4.4644   683.0    2.767      70.677
2015    4        3     7  45    4.4630   683.0    2.766      70.670
2015    4        3     7  51    4.4615   683.0    2.765      70.663
2015    4        3     7  56    4.4600   683.0    2.764      70.655
2015    4        3     8   2    4.4586   683.0    2.763      70.647
2015    4        3     8   8    4.4571   683.0    2.762      70.639
2015    4        3     8  14    4.4557   683.0    2.761      70.630
2015    4        3     8  20    4.4542   683.0    2.760      70.621
2015    4        3     8  26    4.4528   683.0    2.759      70.612
2015    4        3     8  32    4.4514   683.0    2.758      70.603
2015    4        3     8  37    4.4499   683.1    2.757      70.593
2015    4        3     8  43    4.4485   683.1    2.756      70.583
2015    4        3     8  49    4.4471   683.1    2.755      70.573
2015    4        3     8  55    4.4457   683.1    2.754      70.563
2015    4        3     9   1    4.4443   683.1    2.753      70.552
2015    4        3     9   7    4.4429   683.1    2.752      70.541
2015    4        3     9  12    4.4415   683.1    2.751      70.531
2015    4        3     9  18    4.4401   683.1    2.750      70.519
2015    4        3     9  24    4.4387   683.1    2.749      70.508
2015    4        3     9  30    4.4374   683.1    2.749      70.497
2015    4        3     9  36    4.4360   683.1    2.748      70.486
2015    4        3     9  42    4.4346   683.1    2.747      70.474
2015    4        3     9  47    4.4333   683.1    2.746      70.462
2015    4        3     9  53    4.4319   683.1    2.745      70.451
2015    4        3     9  59    4.4306   683.1    2.744      70.439
2015    4        3    10   5    4.4292   683.1    2.743      70.427
2015    4        3    10  11    4.4279   683.1    2.742      70.415
2015    4        3    10  17    4.4265   683.1    2.741      70.404
2015    4        3    10  22    4.4252   683.1    2.740      70.392
2015    4        3    10  28    4.4238   683.1    2.739      70.381
2015    4        3    10  34    4.4225   683.1    2.738      70.369
2015    4        3    10  40    4.4212   683.1    2.738      70.358
2015    4        3    10  46    4.4198   683.1    2.737      70.346
2015    4        3    10  52    4.4185   683.1    2.736      70.335
2015    4        3    10  58    4.4172   683.1    2.735      70.325
2015    4        3    11   3    4.4159   683.1    2.734      70.314
2015    4        3    11   9    4.4146   683.1    2.733      70.304
2015    4        3    11  15    4.4133   683.1    2.732      70.294
2015    4        3    11  21    4.4120   683.1    2.732      70.284
2015    4        3    11  27    4.4108   683.1    2.731      70.275
2015    4        3    11  33    4.4095   683.1    2.730      70.266
2015    4        3    11  38    4.4082   683.1    2.729      70.258
2015    4        3    11  44    4.4070   683.1    2.729      70.250
2015    4        3    11  50    4.4058   683.1    2.728      70.242
2015    4        3    11  56    4.4045   683.1    2.727      70.235
2015    4        3    12   2    4.4033   683.1    2.727      70.228
2015    4        3    12   8    4.4021   683.1    2.726      70.222
2015    4        3    12  13    4.4008   683.1    2.725      70.216
2015    4        3    12  19    4.3996   683.1    2.725      70.210
2015    4        3    12  25    4.3984   683.1    2.724      70.204
2015    4        3    12  31    4.3972   683.1    2.724      70.199
2015    4        3    12  37    4.3960   683.1    2.723      70.194
2015    4        3    12  43    4.3948   683.1    2.722      70.189
2015    4        3    12  49    4.3936   683.1    2.722      70.185
2015    4        3    12  54    4.3924   683.1    2.721      70.180
2015    4        3    13   0    4.3912   683.1    2.721      70.176
2015    4        3    13   6    4.3900   683.1    2.720      70.172
2015    4        3    13  12    4.3887   683.1    2.720      70.168
2015    4        3    13  18    4.3875   683.0    2.719      70.163
2015    4        3    13  24    4.3863   683.0    2.719      70.159
2015    4        3    13  29    4.3851   683.0    2.718      70.155
2015    4        3    13  35    4.3838   683.0    2.718      70.150
2015    4        3    13  41    4.3826   683.0    2.717      70.146
2015    4        3    13  47    4.3813   683.0    2.717      70.141
2015    4        3    13  53    4.3801   683.0    2.716      70.136
2015    4        3    13  59    4.3788   683.0    2.716      70.131
2015    4        3    14   4    4.3776   683.0    2.715      70.125
2015    4        3    14  10    4.3763   683.0    2.714      70.119
2015    4        3    14  16    4.3751   683.0    2.714      70.113
2015    4        3    14  22    4.3738   683.0    2.713      70.107
2015    4        3    14  28    4.3726   682.9    2.713      70.100
2015    4        3    14  34    4.3713   682.9    2.712      70.092
2015    4        3    14  40    4.3701   682.9    2.712      70.085
2015    4        3    14  45    4.3688   682.9    2.711      70.077
2015    4        3    14  51    4.3676   682.9    2.711      70.068
2015    4        3    14  57    4.3663   682.9    2.710      70.060
2015    4        3    15   3    4.3651   682.9    2.709      70.051
2015    4        3    15   9    4.3639   682.8    2.709      70.041
2015    4        3    15  15    4.3626   682.8    2.708      70.031
2015    4        3    15  20    4.3614   682.8    2.708      70.021
2015    4        3    15  26    4.3602   682.8    2.707      70.011
2015    4        3    15  32    4.3590   682.8    2.707      70.000
2015    4        3    15  38    4.3578   682.8    2.706      69.990
2015    4        3    15  44    4.3566   682.7    2.706      69.979
2015    4        3    15  50    4.3554   682.7    2.705      69.968
2015    4        3    15  55    4.3543   682.7    2.704      69.957
2015    4        3    16   1    4.3531   682.7    2.704      69.945
2015    4        3    16   7    4.3519   682.7    2.703      69.934
2015    4        3    16  13    4.3508   682.6    2.703      69.923
2015    4        3    16  19    4.3496   682.6    2.702      69.911
2015    4        3    16  25    4.3484   682.6    2.702      69.900
2015    4        3    16  31    4.3473   682.6    2.701      69.888
2015    4        3    16  36    4.3461   682.6    2.701      69.877
2015    4        3    16  42    4.3450   682.6    2.700      69.866
2015    4        3    16  48    4.3438   682.5    2.700      69.854
2015    4        3    16  54    4.3427   682.5    2.699      69.843
2015    4        3    17   0    4.3415   682.5    2.699      69.831
2015    4        3    17   6    4.3403   682.5    2.698      69.820
2015    4        3    17  11    4.3392   682.5    2.698      69.809
2015    4        3    17  17    4.3380   682.4    2.697      69.797
2015    4        3    17  23    4.3368   682.4    2.697      69.786
2015    4        3    17  29    4.3356   682.4    2.696      69.774
2015    4        3    17  35    4.3344   682.4    2.696      69.763
2015    4        3    17  41    4.3333   682.4    2.695      69.751
2015    4        3    17  46    4.3321   682.3    2.695      69.739
2015    4        3    17  52    4.3309   682.3    2.694      69.728
2015    4        3    17  58    4.3297   682.3    2.693      69.716
2015    4        3    18   4    4.3285   682.3    2.693      69.705
2015    4        3    18  10    4.3273   682.2    2.692      69.693
2015    4        3    18  16    4.3261   682.2    2.692      69.682
2015    4        3    18  21    4.3249   682.2    2.691      69.671
2015    4        3    18  27    4.3237   682.2    2.691      69.659
2015    4        3    18  33    4.3225   682.2    2.690      69.648
2015    4        3    18  39    4.3213   682.1    2.690      69.637
2015    4        3    18  45    4.3201   682.1    2.689      69.626
2015    4        3    18  51    4.3190   682.1    2.689      69.616
2015    4        3    18  57    4.3178   682.1    2.688      69.605
2015    4        3    19   2    4.3166   682.0    2.688      69.595
2015    4        3    19   8    4.3155   682.0    2.687      69.585
2015    4        3    19  14    4.3143   682.0    2.687      69.575
2015    4        3    19  20    4.3131   682.0    2.686      69.565
2015    4        3    19  26    4.3120   681.9    2.686      69.555
2015    4        3    19  32    4.3108   681.9    2.686      69.545
2015    4        3    19  37    4.3097   681.9    2.685      69.536
2015    4        3    19  43    4.3085   681.9    2.685      69.527
2015    4        3    19  49    4.3074   681.8    2.684      69.517
2015    4        3    19  55    4.3063   681.8    2.684      69.508
2015    4        3    20   1    4.3051   681.8    2.684      69.499
2015    4        3    20   7    4.3040   681.8    2.683      69.490
2015    4        3    20  12    4.3028   681.7    2.683      69.481
2015    4        3    20  18    4.3017   681.7    2.682      69.473
2015    4        3    20  24    4.3006   681.7    2.682      69.464
2015    4        3    20  30    4.2994   681.7    2.682      69.455
2015    4        3    20  36    4.2983   681.6    2.681      69.447
2015    4        3    20  42    4.2972   681.6    2.681      69.438
2015    4        3    20  48    4.2960   681.6    2.681      69.429
2015    4        3    20  53    4.2949   681.6    2.680      69.421
2015    4        3    20  59    4.2938   681.5    2.680      69.412
2015    4        3    21   5    4.2926   681.5    2.680      69.403
2015    4        3    21  11    4.2915   681.5    2.679      69.394
2015    4        3    21  17    4.2904   681.5    2.679      69.385
2015    4        3    21  23    4.2892   681.4    2.678      69.376
2015    4        3    21  28    4.2881   681.4    2.678      69.367
2015    4        3    21  34    4.2869   681.4    2.678      69.358
2015    4        3    21  40    4.2858   681.4    2.677      69.349
2015    4        3    21  46    4.2847   681.3    2.677      69.340
2015    4        3    21  52    4.2835   681.3    2.677      69.330
2015    4        3    21  58    4.2824   681.3    2.677      69.321
2015    4        3    22   3    4.2812   681.2    2.676      69.311
2015    4        3    22   9    4.2801   681.2    2.676      69.301
2015    4        3    22  15    4.2790   681.2    2.676      69.291
2015    4        3    22  21    4.2778   681.1    2.675      69.281
2015    4        3    22  27    4.2767   681.1    2.675      69.271
2015    4        3    22  33    4.2756   681.1    2.675      69.261
2015    4        3    22  39    4.2744   681.1    2.675      69.251
2015    4        3    22  44    4.2733   681.0    2.674      69.241
2015    4        3    22  50    4.2722   681.0    2.674      69.230
2015    4        3    22  56    4.2710   681.0    2.674      69.220
2015    4        3    23   2    4.2699   680.9    2.674      69.209
2015    4        3    23   8    4.2688   680.9    2.673      69.198
2015    4        3    23  14    4.2676   680.9    2.673      69.188
2015    4        3    23  19    4.2665   680.8    2.673      69.176
2015    4        3    23  25    4.2653   680.8    2.673      69.165
2015    4        3    23  31    4.2642   680.8    2.672      69.154
2015    4        3    23  37    4.2630   680.7    2.672      69.142
2015    4        3    23  43    4.2618   680.7    2.672      69.130
2015    4        3    23  49    4.2607   680.7    2.671      69.118
2015    4        3    23  54    4.2595   680.6    2.671      69.106
2015    4        4     0   0    4.2583   680.6    2.671      69.093
2015    4        4     0   6    4.2571   680.6    2.670      69.080
2015    4        4     0  12    4.2559   680.5    2.670      69.067
2015    4        4     0  18    4.2546   680.5    2.669      69.054
2015    4        4     0  24    4.2534   680.5    2.669      69.040
2015    4        4     0  29    4.2522   680.4    2.669      69.025
2015    4        4     0  35    4.2509   680.4    2.668      69.011
2015    4        4     0  41    4.2497   680.4    2.668      68.996
2015    4        4     0  47    4.2484   680.3    2.667      68.981
2015    4        4     0  53    4.2471   680.3    2.667      68.966
2015    4        4     0  59    4.2459   680.3    2.666      68.950
2015    4        4     1   5    4.2446   680.2    2.666      68.935
2015    4        4     1  10    4.2433   680.2    2.665      68.919
2015    4        4     1  16    4.2421   680.1    2.665      68.903
2015    4        4     1  22    4.2408   680.1    2.664      68.886
2015    4        4     1  28    4.2395   680.1    2.664      68.870
2015    4        4     1  34    4.2382   680.0    2.663      68.854
2015    4        4     1  40    4.2370   680.0    2.663      68.837
2015    4        4     1  45    4.2357   679.9    2.662      68.821
2015    4        4     1  51    4.2345   679.9    2.662      68.805
2015    4        4     1  57    4.2332   679.8    2.661      68.788
2015    4        4     2   3    4.2320   679.8    2.661      68.772
2015    4        4     2   9    4.2308   679.7    2.661      68.756
2015    4        4     2  15    4.2295   679.7    2.660      68.739
2015    4        4     2  20    4.2283   679.6    2.660      68.723
2015    4        4     2  26    4.2271   679.6    2.659      68.707
2015    4        4     2  32    4.2259   679.5    2.659      68.691
2015    4        4     2  38    4.2247   679.5    2.659      68.675
2015    4        4     2  44    4.2235   679.4    2.659      68.660
2015    4        4     2  50    4.2224   679.4    2.658      68.644
2015    4        4     2  56    4.2212   679.3    2.658      68.629
2015    4        4     3   1    4.2201   679.3    2.658      68.614
2015    4        4     3   7    4.2189   679.2    2.658      68.599
2015    4        4     3  13    4.2178   679.2    2.657      68.584
2015    4        4     3  19    4.2167   679.1    2.657      68.570
2015    4        4     3  25    4.2155   679.1    2.657      68.556
2015    4        4     3  31    4.2144   679.0    2.657      68.542
2015    4        4     3  36    4.2133   679.0    2.656      68.528
2015    4        4     3  42    4.2122   678.9    2.656      68.515
2015    4        4     3  48    4.2111   678.9    2.656      68.502
2015    4        4     3  54    4.2099   678.8    2.656      68.489
2015    4        4     4   0    4.2088   678.8    2.655      68.476
2015    4        4     4   6    4.2077   678.7    2.655      68.463
2015    4        4     4  11    4.2066   678.7    2.655      68.451
2015    4        4     4  17    4.2054   678.6    2.654      68.437
2015    4        4     4  23    4.2043   678.6    2.654      68.424
2015    4        4     4  29    4.2032   678.5    2.654      68.411
2015    4        4     4  35    4.2020   678.5    2.654      68.397
2015    4        4     4  41    4.2009   678.4    2.653      68.383
2015    4        4     4  47    4.1997   678.4    2.653      68.369
2015    4        4     4  52    4.1986   678.3    2.653      68.355
2015    4        4     4  58    4.1974   678.3    2.652      68.341
2015    4        4     5   4    4.1962   678.2    2.652      68.327
2015    4        4     5  10    4.1950   678.2    2.652      68.313
2015    4        4     5  16    4.1938   678.1    2.651      68.299
2015    4        4     5  22    4.1926   678.1    2.651      68.284
2015    4        4     5  27    4.1914   678.1    2.651      68.269
2015    4        4     5  33    4.1901   678.0    2.651      68.255
2015    4        4     5  39    4.1889   678.0    2.650      68.240
2015    4        4     5  45    4.1876   677.9    2.650      68.225
2015    4        4     5  51    4.1863   677.9    2.650      68.209
2015    4        4     5  57    4.1851   677.8    2.649      68.194
2015    4        4     6   2    4.1838   677.8    2.649      68.178
2015    4        4     6   8    4.1824   677.7    2.649      68.162
2015    4        4     6  14    4.1811   677.7    2.648      68.145
2015    4        4     6  20    4.1798   677.6    2.648      68.129
2015    4        4     6  26    4.1784   677.6    2.648      68.111
2015    4        4     6  32    4.1771   677.5    2.647      68.094
2015    4        4     6  37    4.1757   677.5    2.647      68.076
2015    4        4     6  43    4.1743   677.4    2.647      68.057
2015    4        4     6  49    4.1729   677.4    2.646      68.038
2015    4        4     6  55    4.1715   677.3    2.646      68.019
2015    4        4     7   1    4.1701   677.2    2.645      67.999
2015    4        4     7   7    4.1687   677.2    2.645      67.978
2015    4        4     7  13    4.1673   677.1    2.645      67.958
2015    4        4     7  18    4.1659   677.1    2.644      67.936
2015    4        4     7  24    4.1645   677.0    2.644      67.915
2015    4        4     7  30    4.1631   676.9    2.643      67.893
2015    4        4     7  36    4.1617   676.9    2.643      67.870
2015    4        4     7  42    4.1603   676.8    2.642      67.847
2015    4        4     7  48    4.1588   676.7    2.642      67.824
2015    4        4     7  53    4.1574   676.7    2.641      67.801
2015    4        4     7  59    4.1560   676.6    2.641      67.777
2015    4        4     8   5    4.1546   676.5    2.640      67.754
2015    4        4     8  11    4.1533   676.4    2.639      67.730
2015    4        4     8  17    4.1519   676.4    2.639      67.706
2015    4        4     8  23    4.1505   676.3    2.638      67.682
2015    4        4     8  28    4.1491   676.2    2.638      67.659
2015    4        4     8  34    4.1477   676.1    2.638      67.635
2015    4        4     8  40    4.1464   676.1    2.637      67.611
2015    4        4     8  46    4.1450   676.0    2.637      67.588
2015    4        4     8  52    4.1437   675.9    2.636      67.565
2015    4        4     8  58    4.1423   675.8    2.636      67.543
2015    4        4     9   4    4.1410   675.8    2.636      67.520
2015    4        4     9   9    4.1397   675.7    2.635      67.498
2015    4        4     9  15    4.1383   675.6    2.635      67.477
2015    4        4     9  21    4.1370   675.5    2.635      67.456
2015    4        4     9  27    4.1357   675.4    2.635      67.435
2015    4        4     9  33    4.1345   675.3    2.635      67.415
2015    4        4     9  39    4.1332   675.3    2.634      67.394
2015    4        4     9  44    4.1319   675.2    2.634      67.375
2015    4        4     9  50    4.1307   675.1    2.634      67.356
2015    4        4     9  56    4.1294   675.0    2.634      67.337
2015    4        4    10   2    4.1282   674.9    2.634      67.318
2015    4        4    10   8    4.1269   674.9    2.634      67.300
2015    4        4    10  14    4.1257   674.8    2.634      67.281
2015    4        4    10  19    4.1245   674.7    2.634      67.263
2015    4        4    10  25    4.1232   674.6    2.634      67.246
2015    4        4    10  31    4.1220   674.5    2.634      67.228
2015    4        4    10  37    4.1208   674.5    2.634      67.211
2015    4        4    10  43    4.1195   674.4    2.634      67.193
2015    4        4    10  49    4.1183   674.3    2.634      67.176
2015    4        4    10  55    4.1170   674.2    2.634      67.159
2015    4        4    11   0    4.1158   674.1    2.633      67.142
2015    4        4    11   6    4.1145   674.1    2.633      67.124
2015    4        4    11  12    4.1132   674.0    2.633      67.106
2015    4        4    11  18    4.1119   673.9    2.633      67.088
2015    4        4    11  24    4.1106   673.8    2.632      67.069
2015    4        4    11  30    4.1093   673.7    2.632      67.049
2015    4        4    11  35    4.1079   673.7    2.632      67.028
2015    4        4    11  41    4.1066   673.6    2.631      67.007
2015    4        4    11  47    4.1052   673.5    2.631      66.985
2015    4        4    11  53    4.1039   673.4    2.630      66.963
2015    4        4    11  59    4.1025   673.4    2.630      66.939
2015    4        4    12   5    4.1011   673.3    2.629      66.915
2015    4        4    12  10    4.0997   673.2    2.629      66.891
2015    4        4    12  16    4.0982   673.1    2.628      66.866
2015    4        4    12  22    4.0968   673.1    2.628      66.840
2015    4        4    12  28    4.0953   673.0    2.627      66.814
2015    4        4    12  34    4.0939   672.9    2.627      66.787
2015    4        4    12  40    4.0924   672.8    2.626      66.760
2015    4        4    12  45    4.0909   672.7    2.626      66.732
2015    4        4    12  51    4.0894   672.7    2.625      66.704
2015    4        4    12  57    4.0878   672.6    2.625      66.675
2015    4        4    13   3    4.0863   672.5    2.624      66.646
2015    4        4    13   9    4.0847   672.4    2.624      66.617
2015    4        4    13  15    4.0832   672.3    2.623      66.588
2015    4        4    13  21    4.0816   672.2    2.623      66.559
2015    4        4    13  26    4.0800   672.1    2.622      66.530
2015    4        4    13  32    4.0784   672.0    2.622      66.501
2015    4        4    13  38    4.0769   671.9    2.622      66.473
2015    4        4    13  44    4.0753   671.8    2.621      66.444
2015    4        4    13  50    4.0737   671.7    2.621      66.416
2015    4        4    13  56    4.0721   671.6    2.621      66.389
2015    4        4    14   1    4.0706   671.5    2.621      66.362
2015    4        4    14   7    4.0690   671.4    2.621      66.335
2015    4        4    14  13    4.0675   671.3    2.620      66.310
2015    4        4    14  19    4.0659   671.2    2.620      66.285
2015    4        4    14  25    4.0644   671.1    2.620      66.260
2015    4        4    14  31    4.0629   671.0    2.620      66.236
2015    4        4    14  36    4.0615   670.9    2.620      66.213
2015    4        4    14  42    4.0600   670.8    2.620      66.190
2015    4        4    14  48    4.0586   670.7    2.620      66.167
2015    4        4    14  54    4.0571   670.5    2.620      66.144
2015    4        4    15   0    4.0557   670.4    2.620      66.121
2015    4        4    15   6    4.0543   670.3    2.620      66.097
2015    4        4    15  12    4.0529   670.2    2.620      66.073
2015    4        4    15  17    4.0515   670.1    2.620      66.048
2015    4        4    15  23    4.0500   670.0    2.620      66.022
2015    4        4    15  29    4.0486   669.9    2.620      65.996
2015    4        4    15  35    4.0472   669.8    2.620      65.970
2015    4        4    15  41    4.0458   669.7    2.619      65.942
2015    4        4    15  47    4.0444   669.6    2.619      65.915
2015    4        4    15  52    4.0429   669.4    2.619      65.887
2015    4        4    15  58    4.0415   669.3    2.619      65.858
2015    4        4    16   4    4.0401   669.2    2.618      65.829
2015    4        4    16  10    4.0387   669.1    2.618      65.801
2015    4        4    16  16    4.0372   669.0    2.618      65.771
2015    4        4    16  22    4.0358   668.9    2.617      65.742
2015    4        4    16  27    4.0344   668.8    2.617      65.713
2015    4        4    16  33    4.0329   668.7    2.617      65.683
2015    4        4    16  39    4.0315   668.6    2.617      65.653
2015    4        4    16  45    4.0300   668.5    2.616      65.624
2015    4        4    16  51    4.0286   668.3    2.616      65.594
2015    4        4    16  57    4.0271   668.2    2.616      65.564
2015    4        4    17   3    4.0257   668.1    2.615      65.534
2015    4        4    17   8    4.0242   668.0    2.615      65.504
2015    4        4    17  14    4.0228   667.9    2.615      65.474
2015    4        4    17  20    4.0213   667.8    2.614      65.444
2015    4        4    17  26    4.0198   667.7    2.614      65.413
2015    4        4    17  32    4.0184   667.6    2.614      65.383
2015    4        4    17  38    4.0169   667.5    2.613      65.353
2015    4        4    17  43    4.0154   667.3    2.613      65.322
2015    4        4    17  49    4.0139   667.2    2.613      65.291
2015    4        4    17  55    4.0124   667.1    2.612      65.261
2015    4        4    18   1    4.0108   667.0    2.612      65.230
2015    4        4    18   7    4.0093   666.9    2.612      65.200
2015    4        4    18  13    4.0078   666.8    2.612      65.170
2015    4        4    18  18    4.0063   666.6    2.611      65.139
2015    4        4    18  24    4.0047   666.5    2.611      65.109
2015    4        4    18  30    4.0032   666.4    2.611      65.079
2015    4        4    18  36    4.0016   666.3    2.610      65.049
2015    4        4    18  42    4.0001   666.1    2.610      65.019
2015    4        4    18  48    3.9985   666.0    2.610      64.990
2015    4        4    18  53    3.9970   665.9    2.610      64.960
2015    4        4    18  59    3.9954   665.8    2.610      64.931
2015    4        4    19   5    3.9939   665.7    2.609      64.901
2015    4        4    19  11    3.9923   665.5    2.609      64.871
2015    4        4    19  17    3.9907   665.4    2.609      64.842
2015    4        4    19  23    3.9892   665.3    2.609      64.812
2015    4        4    19  29    3.9876   665.2    2.609      64.782
2015    4        4    19  34    3.9860   665.0    2.609      64.752
2015    4        4    19  40    3.9844   664.9    2.609      64.721
2015    4        4    19  46    3.9828   664.8    2.608      64.690
2015    4        4    19  52    3.9812   664.6    2.608      64.659
2015    4        4    19  58    3.9796   664.5    2.608      64.628
2015    4        4    20   4    3.9780   664.4    2.608      64.596
2015    4        4    20   9    3.9764   664.2    2.608      64.564
2015    4        4    20  15    3.9747   664.1    2.608      64.531
2015    4        4    20  21    3.9731   664.0    2.608      64.499
2015    4        4    20  27    3.9715   663.8    2.608      64.466
2015    4        4    20  33    3.9698   663.7    2.607      64.433
2015    4        4    20  39    3.9682   663.6    2.607      64.400
2015    4        4    20  44    3.9665   663.4    2.607      64.366
2015    4        4    20  50    3.9649   663.3    2.607      64.333
2015    4        4    20  56    3.9633   663.1    2.607      64.300
2015    4        4    21   2    3.9617   663.0    2.607      64.268
2015    4        4    21   8    3.9600   662.9    2.607      64.236
2015    4        4    21  14    3.9584   662.7    2.607      64.204
2015    4        4    21  20    3.9569   662.6    2.607      64.173
2015    4        4    21  25    3.9553   662.4    2.607      64.143
2015    4        4    21  31    3.9537   662.3    2.608      64.114
2015    4        4    21  37    3.9522   662.1    2.608      64.085
2015    4        4    21  43    3.9506   662.0    2.608      64.057
2015    4        4    21  49    3.9491   661.9    2.609      64.030
2015    4        4    21  55    3.9476   661.7    2.609      64.003
2015    4        4    22   0    3.9461   661.6    2.609      63.978
2015    4        4    22   6    3.9446   661.4    2.610      63.952
2015    4        4    22  12    3.9432   661.3    2.610      63.927
2015    4        4    22  18    3.9417   661.1    2.611      63.901
2015    4        4    22  24    3.9402   661.0    2.611      63.876
2015    4        4    22  30    3.9387   660.9    2.611      63.849
2015    4        4    22  35    3.9373   660.7    2.612      63.822
2015    4        4    22  41    3.9358   660.6    2.612      63.795
2015    4        4    22  47    3.9343   660.4    2.612      63.768
2015    4        4    22  53    3.9328   660.3    2.613      63.740
2015    4        4    22  59    3.9313   660.2    2.613      63.711
2015    4        4    23   5    3.9298   660.0    2.613      63.682
2015    4        4    23  10    3.9283   659.9    2.613      63.652
2015    4        4    23  16    3.9268   659.7    2.613      63.620
2015    4        4    23  22    3.9252   659.6    2.613      63.588
2015    4        4    23  28    3.9237   659.5    2.613      63.554
2015    4        4    23  34    3.9222   659.3    2.613      63.520
2015    4        4    23  40    3.9206   659.2    2.613      63.484
2015    4        4    23  46    3.9190   659.0    2.612      63.448
2015    4        4    23  51    3.9174   658.9    2.612      63.410
2015    4        4    23  57    3.9159   658.8    2.612      63.372
2015    4        5     0   3    3.9143   658.6    2.611      63.333
2015    4        5     0   9    3.9127   658.5    2.611      63.293
2015    4        5     0  15    3.9111   658.3    2.611      63.252
2015    4        5     0  21    3.9095   658.2    2.610      63.211
2015    4        5     0  26    3.9078   658.0    2.610      63.169
2015    4        5     0  32    3.9062   657.9    2.609      63.127
2015    4        5     0  38    3.9046   657.8    2.609      63.084
2015    4        5     0  44    3.9029   657.6    2.608      63.041
2015    4        5     0  50    3.9013   657.5    2.608      62.997
2015    4        5     0  56    3.8997   657.3    2.607      62.953
2015    4        5     1   1    3.8980   657.2    2.607      62.909
2015    4        5     1   7    3.8963   657.0    2.606      62.864
2015    4        5     1  13    3.8947   656.9    2.606      62.820
2015    4        5     1  19    3.8930   656.7    2.605      62.776
2015    4        5     1  25    3.8914   656.5    2.605      62.731
2015    4        5     1  31    3.8897   656.4    2.604      62.687
2015    4        5     1  37    3.8881   656.2    2.604      62.644
2015    4        5     1  42    3.8864   656.1    2.603      62.600
2015    4        5     1  48    3.8848   655.9    2.603      62.558
2015    4        5     1  54    3.8831   655.7    2.603      62.515
2015    4        5     2   0    3.8815   655.6    2.602      62.473
2015    4        5     2   6    3.8798   655.4    2.602      62.432
2015    4        5     2  12    3.8782   655.2    2.602      62.392
2015    4        5     2  17    3.8766   655.1    2.602      62.352
2015    4        5     2  23    3.8750   654.9    2.602      62.313
2015    4        5     2  29    3.8734   654.7    2.602      62.275
2015    4        5     2  35    3.8718   654.6    2.602      62.237
2015    4        5     2  41    3.8702   654.4    2.602      62.200
2015    4        5     2  47    3.8686   654.2    2.602      62.164
2015    4        5     2  52    3.8671   654.1    2.602      62.128
2015    4        5     2  58    3.8655   653.9    2.602      62.093
2015    4        5     3   4    3.8639   653.7    2.603      62.058
2015    4        5     3  10    3.8623   653.5    2.603      62.024
2015    4        5     3  16    3.8608   653.4    2.603      61.990
2015    4        5     3  22    3.8592   653.2    2.603      61.957
2015    4        5     3  27    3.8576   653.0    2.604      61.924
2015    4        5     3  33    3.8561   652.8    2.604      61.891
2015    4        5     3  39    3.8545   652.7    2.604      61.858
2015    4        5     3  45    3.8529   652.5    2.604      61.825
2015    4        5     3  51    3.8514   652.3    2.605      61.791
2015    4        5     3  57    3.8498   652.1    2.605      61.757
2015    4        5     4   3    3.8482   652.0    2.605      61.723
2015    4        5     4   8    3.8466   651.8    2.605      61.689
2015    4        5     4  14    3.8450   651.6    2.606      61.655
2015    4        5     4  20    3.8434   651.4    2.606      61.619
2015    4        5     4  26    3.8419   651.3    2.606      61.584
2015    4        5     4  32    3.8403   651.1    2.606      61.548
2015    4        5     4  38    3.8387   650.9    2.606      61.512
2015    4        5     4  43    3.8370   650.7    2.606      61.475
2015    4        5     4  49    3.8354   650.6    2.607      61.438
2015    4        5     4  55    3.8338   650.4    2.607      61.400
2015    4        5     5   1    3.8322   650.2    2.607      61.363
2015    4        5     5   7    3.8305   650.0    2.607      61.325
2015    4        5     5  13    3.8289   649.8    2.607      61.287
2015    4        5     5  18    3.8272   649.7    2.608      61.249
2015    4        5     5  24    3.8256   649.5    2.608      61.211
2015    4        5     5  30    3.8240   649.3    2.608      61.173
2015    4        5     5  36    3.8223   649.1    2.608      61.135
2015    4        5     5  42    3.8207   648.9    2.609      61.098
2015    4        5     5  48    3.8190   648.8    2.609      61.061
2015    4        5     5  54    3.8174   648.6    2.610      61.024
2015    4        5     5  59    3.8158   648.4    2.610      60.988
2015    4        5     6   5    3.8141   648.2    2.611      60.952
2015    4        5     6  11    3.8125   648.0    2.611      60.916
2015    4        5     6  17    3.8109   647.8    2.612      60.881
2015    4        5     6  23    3.8093   647.7    2.612      60.846
2015    4        5     6  29    3.8076   647.5    2.613      60.812
2015    4        5     6  34    3.8060   647.3    2.614      60.777
2015    4        5     6  40    3.8044   647.1    2.614      60.742
2015    4        5     6  46    3.8028   646.9    2.615      60.708
2015    4        5     6  52    3.8012   646.7    2.616      60.674
2015    4        5     6  58    3.7997   646.5    2.617      60.640
2015    4        5     7   4    3.7981   646.3    2.617      60.606
2015    4        5     7   9    3.7966   646.1    2.618      60.573
2015    4        5     7  15    3.7950   645.9    2.619      60.540
2015    4        5     7  21    3.7935   645.8    2.620      60.508
2015    4        5     7  27    3.7920   645.6    2.621      60.476
2015    4        5     7  33    3.7905   645.4    2.621      60.443
2015    4        5     7  39    3.7889   645.2    2.622      60.411
2015    4        5     7  44    3.7874   645.0    2.622      60.377
2015    4        5     7  50    3.7858   644.9    2.623      60.342
2015    4        5     7  56    3.7843   644.7    2.623      60.306
2015    4        5     8   2    3.7827   644.5    2.623      60.268
2015    4        5     8   8    3.7811   644.3    2.624      60.229
2015    4        5     8  14    3.7795   644.2    2.624      60.190
2015    4        5     8  20    3.7779   644.0    2.624      60.149
2015    4        5     8  25    3.7763   643.8    2.624      60.107
2015    4        5     8  31    3.7747   643.6    2.624      60.064
2015    4        5     8  37    3.7731   643.4    2.624      60.021
2015    4        5     8  43    3.7714   643.3    2.624      59.977
2015    4        5     8  49    3.7698   643.1    2.623      59.932
2015    4        5     8  55    3.7682   642.9    2.623      59.887
2015    4        5     9   0    3.7666   642.7    2.623      59.841
2015    4        5     9   6    3.7650   642.5    2.623      59.794
2015    4        5     9  12    3.7633   642.4    2.623      59.747
2015    4        5     9  18    3.7617   642.2    2.622      59.700
2015    4        5     9  24    3.7601   642.0    2.622      59.653
2015    4        5     9  30    3.7585   641.8    2.622      59.605
2015    4        5     9  35    3.7568   641.6    2.622      59.557
2015    4        5     9  41    3.7552   641.4    2.621      59.510
2015    4        5     9  47    3.7536   641.2    2.621      59.462
2015    4        5     9  53    3.7520   641.1    2.621      59.414
2015    4        5     9  59    3.7504   640.9    2.621      59.367
2015    4        5    10   5    3.7488   640.7    2.621      59.319
2015    4        5    10  11    3.7472   640.5    2.621      59.272
2015    4        5    10  16    3.7456   640.3    2.620      59.225
2015    4        5    10  22    3.7440   640.1    2.620      59.178
2015    4        5    10  28    3.7425   639.9    2.620      59.132
2015    4        5    10  34    3.7409   639.7    2.620      59.086
2015    4        5    10  40    3.7393   639.5    2.620      59.040
2015    4        5    10  46    3.7378   639.3    2.620      58.995
2015    4        5    10  51    3.7362   639.1    2.620      58.951
2015    4        5    10  57    3.7347   638.9    2.620      58.906
2015    4        5    11   3    3.7331   638.7    2.621      58.863
2015    4        5    11   9    3.7316   638.5    2.621      58.819
2015    4        5    11  15    3.7301   638.3    2.621      58.776
2015    4        5    11  21    3.7285   638.1    2.621      58.734
2015    4        5    11  26    3.7270   637.9    2.621      58.692
2015    4        5    11  32    3.7255   637.7    2.621      58.650
2015    4        5    11  38    3.7240   637.5    2.622      58.608
2015    4        5    11  44    3.7224   637.3    2.622      58.566
2015    4        5    11  50    3.7209   637.1    2.622      58.524
2015    4        5    11  56    3.7194   636.9    2.622      58.482
2015    4        5    12   1    3.7178   636.7    2.623      58.440
2015    4        5    12   7    3.7162   636.5    2.623      58.398
2015    4        5    12  13    3.7147   636.3    2.623      58.355
2015    4        5    12  19    3.7131   636.1    2.623      58.312
2015    4        5    12  25    3.7115   635.8    2.624      58.269
2015    4        5    12  31    3.7099   635.6    2.624      58.225
2015    4        5    12  37    3.7083   635.4    2.624      58.181
2015    4        5    12  42    3.7066   635.2    2.624      58.136
2015    4        5    12  48    3.7050   635.0    2.624      58.091
2015    4        5    12  54    3.7033   634.8    2.624      58.046
2015    4        5    13   0    3.7017   634.5    2.624      58.001
2015    4        5    13   6    3.7000   634.3    2.625      57.955
2015    4        5    13  12    3.6984   634.1    2.625      57.909
2015    4        5    13  17    3.6967   633.9    2.625      57.863
2015    4        5    13  23    3.6951   633.7    2.625      57.817
2015    4        5    13  29    3.6934   633.4    2.625      57.772
2015    4        5    13  35    3.6918   633.2    2.626      57.726
2015    4        5    13  41    3.6901   633.0    2.626      57.680
2015    4        5    13  47    3.6885   632.7    2.626      57.635
2015    4        5    13  52    3.6869   632.5    2.627      57.591
2015    4        5    13  58    3.6853   632.3    2.627      57.547
2015    4        5    14   4    3.6837   632.1    2.628      57.504
2015    4        5    14  10    3.6821   631.8    2.629      57.462
2015    4        5    14  16    3.6805   631.6    2.630      57.421
2015    4        5    14  22    3.6790   631.4    2.631      57.381
2015    4        5    14  28    3.6774   631.1    2.631      57.342
2015    4        5    14  33    3.6759   630.9    2.632      57.305
2015    4        5    14  39    3.6744   630.7    2.634      57.268
2015    4        5    14  45    3.6729   630.4    2.635      57.233
2015    4        5    14  51    3.6714   630.2    2.636      57.198
2015    4        5    14  57    3.6699   630.0    2.637      57.164
2015    4        5    15   3    3.6684   629.8    2.638      57.129
2015    4        5    15   8    3.6668   629.5    2.639      57.093
2015    4        5    15  14    3.6653   629.3    2.640      57.057
2015    4        5    15  20    3.6638   629.1    2.641      57.021
2015    4        5    15  26    3.6622   628.9    2.642      56.985
2015    4        5    15  32    3.6607   628.7    2.643      56.948
2015    4        5    15  38    3.6591   628.4    2.644      56.911
2015    4        5    15  43    3.6576   628.2    2.645      56.874
2015    4        5    15  49    3.6561   628.0    2.646      56.837
2015    4        5    15  55    3.6545   627.8    2.647      56.800
2015    4        5    16   1    3.6530   627.5    2.648      56.763
2015    4        5    16   7    3.6515   627.3    2.649      56.727
2015    4        5    16  13    3.6500   627.1    2.650      56.690
2015    4        5    16  18    3.6485   626.8    2.651      56.653
2015    4        5    16  24    3.6470   626.6    2.653      56.617
2015    4        5    16  30    3.6455   626.4    2.654      56.581
2015    4        5    16  36    3.6441   626.2    2.655      56.545
2015    4        5    16  42    3.6426   626.0    2.656      56.509
2015    4        5    16  48    3.6412   625.7    2.657      56.474
2015    4        5    16  54    3.6397   625.5    2.658      56.438
2015    4        5    16  59    3.6383   625.3    2.659      56.401
2015    4        5    17   5    3.6368   625.1    2.659      56.363
2015    4        5    17  11    3.6353   624.9    2.660      56.323
2015    4        5    17  17    3.6338   624.7    2.661      56.283
2015    4        5    17  23    3.6324   624.5    2.661      56.243
2015    4        5    17  29    3.6309   624.3    2.662      56.201
2015    4        5    17  34    3.6294   624.0    2.662      56.159
2015    4        5    17  40    3.6279   623.8    2.663      56.116
2015    4        5    17  46    3.6264   623.6    2.663      56.072
2015    4        5    17  52    3.6249   623.4    2.663      56.028
2015    4        5    17  58    3.6234   623.2    2.664      55.984
2015    4        5    18   4    3.6219   623.0    2.664      55.939
2015    4        5    18   9    3.6204   622.8    2.664      55.894
2015    4        5    18  15    3.6189   622.6    2.665      55.849
2015    4        5    18  21    3.6174   622.4    2.665      55.803
2015    4        5    18  27    3.6159   622.2    2.665      55.758
2015    4        5    18  33    3.6144   622.0    2.665      55.713
2015    4        5    18  39    3.6129   621.7    2.666      55.667
2015    4        5    18  45    3.6114   621.5    2.666      55.622
2015    4        5    18  50    3.6099   621.3    2.666      55.576
2015    4        5    18  56    3.6084   621.1    2.667      55.531
2015    4        5    19   2    3.6069   620.9    2.667      55.485
2015    4        5    19   8    3.6054   620.7    2.667      55.440
2015    4        5    19  14    3.6039   620.5    2.667      55.394
2015    4        5    19  20    3.6023   620.3    2.667      55.349
2015    4        5    19  25    3.6008   620.1    2.668      55.303
2015    4        5    19  31    3.5993   619.8    2.668      55.257
2015    4        5    19  37    3.5977   619.6    2.668      55.211
2015    4        5    19  43    3.5962   619.4    2.668      55.164
2015    4        5    19  49    3.5947   619.2    2.668      55.117
2015    4        5    19  55    3.5931   619.0    2.668      55.070
2015    4        5    20   0    3.5915   618.7    2.669      55.022
2015    4        5    20   6    3.5900   618.5    2.669      54.974
2015    4        5    20  12    3.5884   618.3    2.669      54.926
2015    4        5    20  18    3.5868   618.1    2.669      54.877
2015    4        5    20  24    3.5853   617.8    2.669      54.828
2015    4        5    20  30    3.5837   617.6    2.669      54.779
2015    4        5    20  35    3.5821   617.4    2.669      54.729
2015    4        5    20  41    3.5805   617.1    2.669      54.680
2015    4        5    20  47    3.5790   616.9    2.669      54.630
2015    4        5    20  53    3.5774   616.7    2.669      54.580
2015    4        5    20  59    3.5759   616.4    2.669      54.530
2015    4        5    21   5    3.5743   616.2    2.669      54.480
2015    4        5    21  11    3.5727   615.9    2.669      54.430
2015    4        5    21  16    3.5712   615.7    2.669      54.380
2015    4        5    21  22    3.5696   615.5    2.669      54.331
2015    4        5    21  28    3.5681   615.2    2.669      54.281
2015    4        5    21  34    3.5665   615.0    2.669      54.232
2015    4        5    21  40    3.5650   614.7    2.670      54.183
2015    4        5    21  46    3.5635   614.5    2.670      54.134
2015    4        5    21  51    3.5619   614.2    2.670      54.086
2015    4        5    21  57    3.5604   614.0    2.670      54.037
2015    4        5    22   3    3.5588   613.7    2.671      53.990
2015    4        5    22   9    3.5573   613.5    2.671      53.942
2015    4        5    22  15    3.5557   613.2    2.672      53.895
2015    4        5    22  21    3.5542   612.9    2.672      53.849
2015    4        5    22  26    3.5527   612.7    2.673      53.803
2015    4        5    22  32    3.5512   612.4    2.673      53.757
2015    4        5    22  38    3.5496   612.2    2.674      53.711
2015    4        5    22  44    3.5481   611.9    2.675      53.666
2015    4        5    22  50    3.5466   611.6    2.675      53.621
2015    4        5    22  56    3.5451   611.4    2.676      53.577
2015    4        5    23   1    3.5436   611.1    2.677      53.533
2015    4        5    23   7    3.5421   610.8    2.678      53.490
2015    4        5    23  13    3.5406   610.6    2.679      53.448
2015    4        5    23  19    3.5392   610.3    2.680      53.406
2015    4        5    23  25    3.5377   610.0    2.681      53.365
2015    4        5    23  31    3.5363   609.7    2.683      53.325
2015    4        5    23  37    3.5349   609.5    2.684      53.286
2015    4        5    23  42    3.5335   609.2    2.686      53.248
2015    4        5    23  48    3.5322   608.9    2.687      53.211
2015    4        5    23  54    3.5308   608.7    2.689      53.175
2015    4        6     0   0    3.5295   608.4    2.690      53.140
2015    4        6     0   6    3.5281   608.1    2.692      53.105
2015    4        6     0  12    3.5267   607.9    2.693      53.070
2015    4        6     0  17    3.5254   607.6    2.695      53.035
2015    4        6     0  23    3.5240   607.4    2.696      52.999
2015    4        6     0  29    3.5227   607.1    2.698      52.964
2015    4        6     0  35    3.5213   606.9    2.699      52.928
2015    4        6     0  41    3.5199   606.6    2.701      52.892
2015    4        6     0  47    3.5185   606.4    2.702      52.856
2015    4        6     0  52    3.5171   606.1    2.704      52.820
2015    4        6     0  58    3.5157   605.9    2.705      52.783
2015    4        6     1   4    3.5143   605.6    2.707      52.747
2015    4        6     1  10    3.5129   605.4    2.708      52.710
2015    4        6     1  16    3.5114   605.1    2.709      52.672
2015    4        6     1  22    3.5100   604.9    2.711      52.635
2015    4        6     1  27    3.5085   604.6    2.712      52.597
2015    4        6     1  33    3.5070   604.4    2.714      52.559
2015    4        6     1  39    3.5055   604.1    2.715      52.520
2015    4        6     1  45    3.5040   603.9    2.716      52.481
2015    4        6     1  51    3.5025   603.6    2.718      52.442
2015    4        6     1  57    3.5010   603.4    2.719      52.402
2015    4        6     2   3    3.4995   603.1    2.720      52.362
2015    4        6     2   8    3.4980   602.9    2.721      52.322
2015    4        6     2  14    3.4965   602.6    2.722      52.282
2015    4        6     2  20    3.4950   602.4    2.724      52.241
2015    4        6     2  26    3.4935   602.1    2.725      52.201
2015    4        6     2  32    3.4920   601.9    2.726      52.160
2015    4        6     2  38    3.4904   601.6    2.727      52.119
2015    4        6     2  43    3.4890   601.4    2.728      52.078
2015    4        6     2  49    3.4875   601.1    2.729      52.037
2015    4        6     2  55    3.4860   600.9    2.730      51.996
2015    4        6     3   1    3.4845   600.6    2.731      51.955
2015    4        6     3   7    3.4830   600.4    2.732      51.914
2015    4        6     3  13    3.4815   600.1    2.732      51.873
2015    4        6     3  18    3.4800   599.9    2.733      51.832
2015    4        6     3  24    3.4786   599.6    2.734      51.791
2015    4        6     3  30    3.4771   599.4    2.735      51.749
2015    4        6     3  36    3.4756   599.1    2.736      51.707
2015    4        6     3  42    3.4741   598.9    2.736      51.665
2015    4        6     3  48    3.4727   598.6    2.737      51.622
2015    4        6     3  54    3.4712   598.4    2.738      51.580
2015    4        6     3  59    3.4697   598.1    2.739      51.538
2015    4        6     4   5    3.4683   597.9    2.739      51.496
2015    4        6     4  11    3.4668   597.6    2.740      51.454
2015    4        6     4  17    3.4654   597.4    2.741      51.412
2015    4        6     4  23    3.4639   597.2    2.742      51.370
2015    4        6     4  29    3.4625   596.9    2.742      51.328
2015    4        6     4  34    3.4611   596.7    2.743      51.286
2015    4        6     4  40    3.4596   596.4    2.744      51.244
2015    4        6     4  46    3.4582   596.2    2.744      51.203
2015    4        6     4  52    3.4567   595.9    2.745      51.161
2015    4        6     4  58    3.4553   595.7    2.745      51.119
2015    4        6     5   4    3.4538   595.4    2.746      51.076
2015    4        6     5   9    3.4524   595.2    2.746      51.034
2015    4        6     5  15    3.4509   594.9    2.747      50.991
2015    4        6     5  21    3.4494   594.7    2.747      50.948
2015    4        6     5  27    3.4480   594.4    2.748      50.905
2015    4        6     5  33    3.4465   594.2    2.748      50.861
2015    4        6     5  39    3.4450   593.9    2.749      50.817
2015    4        6     5  44    3.4435   593.7    2.749      50.772
2015    4        6     5  50    3.4420   593.4    2.749      50.727
2015    4        6     5  56    3.4405   593.2    2.749      50.681
2015    4        6     6   2    3.4390   592.9    2.750      50.635
2015    4        6     6   8    3.4375   592.7    2.750      50.588
2015    4        6     6  14    3.4360   592.4    2.750      50.541
2015    4        6     6  20    3.4345   592.2    2.750      50.494
2015    4        6     6  25    3.4330   591.9    2.750      50.446
2015    4        6     6  31    3.4314   591.6    2.750      50.397
2015    4        6     6  37    3.4299   591.4    2.751      50.349
2015    4        6     6  43    3.4284   591.1    2.751      50.300
2015    4        6     6  49    3.4269   590.8    2.751      50.250
2015    4        6     6  55    3.4253   590.6    2.751      50.201
2015    4        6     7   0    3.4238   590.3    2.751      50.152
2015    4        6     7   6    3.4223   590.0    2.751      50.102
2015    4        6     7  12    3.4208   589.7    2.752      50.053
2015    4        6     7  18    3.4192   589.5    2.752      50.003
2015    4        6     7  24    3.4177   589.2    2.752      49.954
2015    4        6     7  30    3.4162   588.9    2.753      49.906
2015    4        6     7  35    3.4147   588.6    2.753      49.857
2015    4        6     7  41    3.4132   588.4    2.754      49.809
2015    4        6     7  47    3.4117   588.1    2.754      49.762
2015    4        6     7  53    3.4103   587.8    2.755      49.715
2015    4        6     7  59    3.4088   587.5    2.756      49.668
2015    4        6     8   5    3.4073   587.2    2.756      49.622
2015    4        6     8  11    3.4058   586.9    2.757      49.577
2015    4        6     8  16    3.4044   586.7    2.758      49.531
2015    4        6     8  22    3.4029   586.4    2.759      49.487
2015    4        6     8  28    3.4015   586.1    2.760      49.442
2015    4        6     8  34    3.4000   585.8    2.761      49.399
2015    4        6     8  40    3.3986   585.5    2.762      49.356
2015    4        6     8  46    3.3971   585.2    2.763      49.314
2015    4        6     8  51    3.3957   584.9    2.765      49.272
2015    4        6     8  57    3.3943   584.6    2.766      49.231
2015    4        6     9   3    3.3929   584.3    2.767      49.192
2015    4        6     9   9    3.3915   584.0    2.769      49.153
2015    4        6     9  15    3.3902   583.7    2.770      49.116
2015    4        6     9  21    3.3889   583.4    2.772      49.079
2015    4        6     9  26    3.3876   583.2    2.774      49.044
2015    4        6     9  32    3.3863   582.9    2.775      49.008
2015    4        6     9  38    3.3851   582.6    2.777      48.973
2015    4        6     9  44    3.3838   582.3    2.779      48.939
2015    4        6     9  50    3.3826   582.0    2.781      48.905
2015    4        6     9  56    3.3814   581.7    2.783      48.871
2015    4        6    10   1    3.3802   581.5    2.785      48.837
2015    4        6    10   7    3.3790   581.2    2.787      48.804
2015    4        6    10  13    3.3778   580.9    2.789      48.770
2015    4        6    10  19    3.3766   580.6    2.791      48.736
2015    4        6    10  25    3.3753   580.3    2.793      48.702
2015    4        6    10  31    3.3740   580.1    2.795      48.668
2015    4        6    10  37    3.3727   579.8    2.797      48.633
2015    4        6    10  42    3.3714   579.5    2.799      48.599
2015    4        6    10  48    3.3701   579.2    2.801      48.564
2015    4        6    10  54    3.3688   579.0    2.802      48.529
2015    4        6    11   0    3.3675   578.7    2.804      48.494
2015    4        6    11   6    3.3661   578.4    2.806      48.458
2015    4        6    11  12    3.3648   578.1    2.807      48.422
2015    4        6    11  17    3.3634   577.9    2.809      48.385
2015    4        6    11  23    3.3621   577.6    2.810      48.349
2015    4        6    11  29    3.3607   577.3    2.812      48.311
2015    4        6    11  35    3.3593   577.0    2.813      48.274
2015    4        6    11  41    3.3580   576.8    2.814      48.236
2015    4        6    11  47    3.3566   576.5    2.816      48.198
2015    4        6    11  52    3.3553   576.2    2.817      48.159
2015    4        6    11  58    3.3539   576.0    2.818      48.120
2015    4        6    12   4    3.3525   575.7    2.819      48.081
2015    4        6    12  10    3.3512   575.4    2.820      48.042
2015    4        6    12  16    3.3498   575.1    2.821      48.002
2015    4        6    12  22    3.3484   574.9    2.822      47.961
2015    4        6    12  27    3.3471   574.6    2.823      47.920
2015    4        6    12  33    3.3457   574.3    2.824      47.879
2015    4        6    12  39    3.3443   574.0    2.825      47.838
2015    4        6    12  45    3.3429   573.8    2.826      47.796
2015    4        6    12  51    3.3416   573.5    2.827      47.754
2015    4        6    12  57    3.3402   573.2    2.828      47.711
2015    4        6    13   3    3.3388   572.9    2.829      47.669
2015    4        6    13   8    3.3374   572.6    2.830      47.626
2015    4        6    13  14    3.3361   572.4    2.831      47.583
2015    4        6    13  20    3.3347   572.1    2.831      47.540
2015    4        6    13  26    3.3333   571.8    2.832      47.496
2015    4        6    13  32    3.3320   571.5    2.833      47.453
2015    4        6    13  38    3.3306   571.3    2.834      47.409
2015    4        6    13  43    3.3292   571.0    2.835      47.366
2015    4        6    13  49    3.3279   570.7    2.836      47.322
2015    4        6    13  55    3.3265   570.4    2.836      47.279
2015    4        6    14   1    3.3252   570.1    2.837      47.235
2015    4        6    14   7    3.3238   569.9    2.838      47.191
2015    4        6    14  13    3.3224   569.6    2.839      47.147
2015    4        6    14  18    3.3211   569.3    2.839      47.103
2015    4        6    14  24    3.3197   569.0    2.840      47.059
2015    4        6    14  30    3.3183   568.7    2.841      47.014
2015    4        6    14  36    3.3170   568.5    2.842      46.969
2015    4        6    14  42    3.3156   568.2    2.842      46.924
2015    4        6    14  48    3.3142   567.9    2.843      46.878
2015    4        6    14  54    3.3128   567.6    2.844      46.832
2015    4        6    14  59    3.3114   567.3    2.844      46.785
2015    4        6    15   5    3.3100   567.0    2.845      46.738
2015    4        6    15  11    3.3085   566.7    2.845      46.690
2015    4        6    15  17    3.3071   566.4    2.846      46.642
2015    4        6    15  23    3.3057   566.1    2.846      46.593
2015    4        6    15  29    3.3043   565.8    2.847      46.543
2015    4        6    15  34    3.3029   565.5    2.847      46.493
2015    4        6    15  40    3.3014   565.2    2.848      46.443
2015    4        6    15  46    3.3000   564.9    2.849      46.393
2015    4        6    15  52    3.2986   564.6    2.849      46.342
2015    4        6    15  58    3.2972   564.3    2.850      46.291
2015    4        6    16   4    3.2958   564.0    2.850      46.241
2015    4        6    16   9    3.2944   563.7    2.851      46.190
2015    4        6    16  15    3.2931   563.4    2.852      46.139
2015    4        6    16  21    3.2917   563.1    2.853      46.088
2015    4        6    16  27    3.2904   562.8    2.853      46.038
2015    4        6    16  33    3.2890   562.5    2.854      45.988
2015    4        6    16  39    3.2877   562.2    2.855      45.939
2015    4        6    16  44    3.2865   561.8    2.857      45.890
2015    4        6    16  50    3.2852   561.5    2.858      45.841
2015    4        6    16  56    3.2840   561.2    2.859      45.794
2015    4        6    17   2    3.2828   560.9    2.860      45.747
2015    4        6    17   8    3.2816   560.6    2.862      45.701
2015    4        6    17  14    3.2804   560.3    2.863      45.656
2015    4        6    17  20    3.2793   560.0    2.865      45.611
2015    4        6    17  25    3.2782   559.6    2.867      45.568
2015    4        6    17  31    3.2771   559.3    2.869      45.526
2015    4        6    17  37    3.2760   559.0    2.871      45.484
2015    4        6    17  43    3.2749   558.7    2.873      45.443
2015    4        6    17  49    3.2739   558.4    2.875      45.403
2015    4        6    17  55    3.2728   558.1    2.877      45.364
2015    4        6    18   0    3.2718   557.8    2.879      45.325
2015    4        6    18   6    3.2708   557.5    2.881      45.287
2015    4        6    18  12    3.2698   557.2    2.884      45.250
2015    4        6    18  18    3.2688   556.9    2.886      45.212
2015    4        6    18  24    3.2678   556.6    2.888      45.175
2015    4        6    18  30    3.2668   556.3    2.891      45.139
2015    4        6    18  35    3.2658   556.0    2.893      45.102
2015    4        6    18  41    3.2647   555.7    2.896      45.066
2015    4        6    18  47    3.2637   555.4    2.898      45.030
2015    4        6    18  53    3.2627   555.1    2.900      44.994
2015    4        6    18  59    3.2617   554.7    2.903      44.958
2015    4        6    19   5    3.2607   554.4    2.905      44.922
2015    4        6    19  10    3.2597   554.1    2.908      44.886
2015    4        6    19  16    3.2587   553.8    2.910      44.851
2015    4        6    19  22    3.2577   553.5    2.912      44.815
2015    4        6    19  28    3.2567   553.2    2.915      44.780
2015    4        6    19  34    3.2557   552.9    2.917      44.746
2015    4        6    19  40    3.2547   552.6    2.919      44.711
2015    4        6    19  46    3.2538   552.3    2.922      44.677
2015    4        6    19  51    3.2528   551.9    2.924      44.643
2015    4        6    19  57    3.2519   551.6    2.927      44.609
2015    4        6    20   3    3.2510   551.3    2.929      44.575
2015    4        6    20   9    3.2500   551.0    2.931      44.542
2015    4        6    20  15    3.2491   550.7    2.934      44.509
2015    4        6    20  21    3.2482   550.4    2.936      44.476
2015    4        6    20  26    3.2473   550.1    2.938      44.443
2015    4        6    20  32    3.2464   549.8    2.941      44.410
2015    4        6    20  38    3.2455   549.5    2.943      44.377
2015    4        6    20  44    3.2446   549.2    2.945      44.344
2015    4        6    20  50    3.2437   548.9    2.948      44.311
2015    4        6    20  56    3.2428   548.6    2.950      44.278
2015    4        6    21   1    3.2419   548.3    2.952      44.245
2015    4        6    21   7    3.2410   548.0    2.954      44.212
2015    4        6    21  13    3.2401   547.7    2.957      44.179
2015    4        6    21  19    3.2392   547.4    2.959      44.145
2015    4        6    21  25    3.2383   547.1    2.961      44.112
2015    4        6    21  31    3.2374   546.8    2.963      44.078
2015    4        6    21  37    3.2364   546.5    2.965      44.044
2015    4        6    21  42    3.2355   546.2    2.967      44.010
2015    4        6    21  48    3.2346   545.9    2.969      43.976
2015    4        6    21  54    3.2336   545.6    2.971      43.941
2015    4        6    22   0    3.2327   545.3    2.973      43.906
2015    4        6    22   6    3.2318   545.1    2.975      43.870
2015    4        6    22  12    3.2308   544.8    2.977      43.834
2015    4        6    22  17    3.2299   544.5    2.979      43.798
2015    4        6    22  23    3.2289   544.2    2.981      43.760
2015    4        6    22  29    3.2280   543.9    2.983      43.723
2015    4        6    22  35    3.2271   543.6    2.985      43.684
2015    4        6    22  41    3.2261   543.3    2.987      43.646
2015    4        6    22  47    3.2252   543.0    2.988      43.606
2015    4        6    22  52    3.2242   542.7    2.990      43.566
2015    4        6    22  58    3.2233   542.4    2.992      43.526
2015    4        6    23   4    3.2224   542.1    2.993      43.485
2015    4        6    23  10    3.2214   541.8    2.995      43.444
2015    4        6    23  16    3.2205   541.5    2.997      43.402
2015    4        6    23  22    3.2196   541.2    2.998      43.359
2015    4        6    23  27    3.2187   540.9    3.000      43.316
2015    4        6    23  33    3.2177   540.6    3.002      43.273
2015    4        6    23  39    3.2168   540.3    3.003      43.229
2015    4        6    23  45    3.2159   540.0    3.005      43.185
2015    4        6    23  51    3.2150   539.7    3.007      43.141
2015    4        6    23  57    3.2141   539.4    3.008      43.096
2015    4        7     0   3    3.2132   539.1    3.010      43.051
2015    4        7     0   8    3.2123   538.8    3.012      43.006
2015    4        7     0  14    3.2114   538.5    3.014      42.960
2015    4        7     0  20    3.2105   538.2    3.016      42.914
2015    4        7     0  26    3.2096   537.9    3.017      42.869
2015    4        7     0  32    3.2087   537.6    3.019      42.823
2015    4        7     0  38    3.2079   537.2    3.021      42.777
2015    4        7     0  43    3.2070   536.9    3.023      42.731
2015    4        7     0  49    3.2062   536.6    3.025      42.685
2015    4        7     0  55    3.2053   536.3    3.027      42.638
2015    4        7     1   1    3.2045   536.0    3.029      42.592
2015    4        7     1   7    3.2037   535.7    3.031      42.546
2015    4        7     1  13    3.2029   535.4    3.034      42.500
2015    4        7     1  18    3.2021   535.0    3.036      42.454
2015    4        7     1  24    3.2013   534.7    3.038      42.408
2015    4        7     1  30    3.2005   534.4    3.040      42.362
2015    4        7     1  36    3.1998   534.1    3.043      42.316
2015    4        7     1  42    3.1990   533.7    3.045      42.270
2015    4        7     1  48    3.1983   533.4    3.047      42.225
2015    4        7     1  53    3.1975   533.1    3.050      42.179
2015    4        7     1  59    3.1968   532.8    3.052      42.134
2015    4        7     2   5    3.1961   532.4    3.055      42.088
2015    4        7     2  11    3.1954   532.1    3.057      42.043
2015    4        7     2  17    3.1948   531.8    3.060      41.998
2015    4        7     2  23    3.1941   531.5    3.062      41.954
2015    4        7     2  29    3.1934   531.1    3.065      41.909
2015    4        7     2  34    3.1928   530.8    3.068      41.865
2015    4        7     2  40    3.1922   530.5    3.070      41.821
2015    4        7     2  46    3.1916   530.2    3.073      41.778
2015    4        7     2  52    3.1910   529.8    3.076      41.735
2015    4        7     2  58    3.1905   529.5    3.079      41.692
2015    4        7     3   4    3.1899   529.2    3.081      41.649
2015    4        7     3   9    3.1894   528.8    3.084      41.607
2015    4        7     3  15    3.1888   528.5    3.087      41.565
2015    4        7     3  21    3.1883   528.2    3.090      41.524
2015    4        7     3  27    3.1879   527.9    3.093      41.483
2015    4        7     3  33    3.1874   527.5    3.096      41.442
2015    4        7     3  39    3.1869   527.2    3.100      41.402
2015    4        7     3  44    3.1865   526.9    3.103      41.362
2015    4        7     3  50    3.1861   526.5    3.106      41.323
2015    4        7     3  56    3.1856   526.2    3.109      41.284
2015    4        7     4   2    3.1852   525.9    3.112      41.245
2015    4        7     4   8    3.1848   525.6    3.116      41.207
2015    4        7     4  14    3.1844   525.3    3.119      41.169
2015    4        7     4  20    3.1841   524.9    3.123      41.131
2015    4        7     4  25    3.1837   524.6    3.126      41.093
2015    4        7     4  31    3.1833   524.3    3.129      41.056
2015    4        7     4  37    3.1829   524.0    3.133      41.018
2015    4        7     4  43    3.1826   523.6    3.136      40.981
2015    4        7     4  49    3.1822   523.3    3.140      40.944
2015    4        7     4  55    3.1819   523.0    3.143      40.907
2015    4        7     5   0    3.1815   522.7    3.147      40.871
2015    4        7     5   6    3.1811   522.4    3.150      40.834
2015    4        7     5  12    3.1808   522.0    3.154      40.797
2015    4        7     5  18    3.1804   521.7    3.157      40.760
2015    4        7     5  24    3.1801   521.4    3.161      40.723
2015    4        7     5  30    3.1797   521.1    3.164      40.686
2015    4        7     5  35    3.1794   520.8    3.168      40.649
2015    4        7     5  41    3.1790   520.4    3.172      40.612
2015    4        7     5  47    3.1787   520.1    3.175      40.575
2015    4        7     5  53    3.1784   519.8    3.179      40.538
2015    4        7     5  59    3.1780   519.5    3.182      40.501
2015    4        7     6   5    3.1777   519.2    3.186      40.464
2015    4        7     6  10    3.1774   518.9    3.189      40.426
2015    4        7     6  16    3.1771   518.5    3.193      40.389
2015    4        7     6  22    3.1768   518.2    3.196      40.352
2015    4        7     6  28    3.1765   517.9    3.200      40.314
2015    4        7     6  34    3.1762   517.6    3.203      40.277
2015    4        7     6  40    3.1760   517.3    3.207      40.240
2015    4        7     6  46    3.1757   516.9    3.210      40.203
2015    4        7     6  51    3.1755   516.6    3.214      40.165
2015    4        7     6  57    3.1752   516.3    3.217      40.128
2015    4        7     7   3    3.1750   516.0    3.221      40.091
2015    4        7     7   9    3.1748   515.7    3.224      40.054
2015    4        7     7  15    3.1746   515.4    3.228      40.018
2015    4        7     7  21    3.1744   515.1    3.232      39.981
2015    4        7     7  26    3.1742   514.7    3.235      39.945
2015    4        7     7  32    3.1740   514.4    3.239      39.908
2015    4        7     7  38    3.1738   514.1    3.242      39.872
2015    4        7     7  44    3.1737   513.8    3.246      39.836
2015    4        7     7  50    3.1735   513.5    3.250      39.800
2015    4        7     7  56    3.1734   513.2    3.253      39.764
2015    4        7     8   1    3.1732   512.9    3.257      39.728
2015    4        7     8   7    3.1731   512.6    3.261      39.692
2015    4        7     8  13    3.1729   512.3    3.265      39.656
2015    4        7     8  19    3.1728   511.9    3.268      39.621
2015    4        7     8  25    3.1727   511.6    3.272      39.585
2015    4        7     8  31    3.1726   511.3    3.276      39.549
2015    4        7     8  36    3.1725   511.0    3.280      39.513
2015    4        7     8  42    3.1724   510.7    3.283      39.477
2015    4        7     8  48    3.1723   510.4    3.287      39.441
2015    4        7     8  54    3.1722   510.1    3.291      39.405
2015    4        7     9   0    3.1721   509.8    3.295      39.368
2015    4        7     9   6    3.1720   509.5    3.299      39.331
2015    4        7     9  12    3.1719   509.2    3.302      39.295
2015    4        7     9  17    3.1718   508.9    3.306      39.258
2015    4        7     9  23    3.1717   508.6    3.310      39.220
2015    4        7     9  29    3.1716   508.2    3.314      39.183
2015    4        7     9  35    3.1715   507.9    3.317      39.145
2015    4        7     9  41    3.1714   507.6    3.321      39.107
2015    4        7     9  47    3.1713   507.3    3.325      39.069
2015    4        7     9  52    3.1712   507.0    3.329      39.031
2015    4        7     9  58    3.1711   506.7    3.333      38.993
2015    4        7    10   4    3.1711   506.4    3.336      38.954
2015    4        7    10  10    3.1710   506.1    3.340      38.916
2015    4        7    10  16    3.1710   505.8    3.344      38.877
2015    4        7    10  22    3.1709   505.5    3.348      38.838
2015    4        7    10  27    3.1709   505.1    3.351      38.800
2015    4        7    10  33    3.1708   504.8    3.355      38.761
2015    4        7    10  39    3.1708   504.5    3.359      38.722
2015    4        7    10  45    3.1708   504.2    3.363      38.683
2015    4        7    10  51    3.1708   503.9    3.367      38.644
2015    4        7    10  57    3.1708   503.6    3.371      38.605
2015    4        7    11   2    3.1709   503.3    3.375      38.566
2015    4        7    11   8    3.1709   503.0    3.379      38.528
2015    4        7    11  14    3.1710   502.6    3.383      38.489
2015    4        7    11  20    3.1710   502.3    3.386      38.451
2015    4        7    11  26    3.1711   502.0    3.391      38.413
2015    4        7    11  32    3.1712   501.7    3.395      38.374
2015    4        7    11  38    3.1713   501.4    3.399      38.336
2015    4        7    11  43    3.1715   501.1    3.403      38.298
2015    4        7    11  49    3.1716   500.8    3.407      38.261
2015    4        7    11  55    3.1718   500.5    3.411      38.223
2015    4        7    12   1    3.1719   500.2    3.415      38.186
2015    4        7    12   7    3.1721   499.9    3.419      38.148
2015    4        7    12  13    3.1723   499.5    3.424      38.111
2015    4        7    12  18    3.1725   499.2    3.428      38.074
2015    4        7    12  24    3.1728   498.9    3.432      38.037
2015    4        7    12  30    3.1730   498.6    3.437      38.001
2015    4        7    12  36    3.1732   498.3    3.441      37.964
2015    4        7    12  42    3.1735   498.0    3.445      37.928
2015    4        7    12  48    3.1738   497.7    3.450      37.891
2015    4        7    12  53    3.1741   497.4    3.454      37.855
2015    4        7    12  59    3.1744   497.1    3.459      37.819
2015    4        7    13   5    3.1747   496.8    3.463      37.783
2015    4        7    13  11    3.1750   496.5    3.468      37.747
2015    4        7    13  17    3.1753   496.2    3.472      37.711
2015    4        7    13  23    3.1757   495.9    3.477      37.675
2015    4        7    13  29    3.1760   495.6    3.481      37.639
2015    4        7    13  34    3.1764   495.3    3.486      37.603
2015    4        7    13  40    3.1767   495.0    3.490      37.568
2015    4        7    13  46    3.1771   494.7    3.495      37.532
2015    4        7    13  52    3.1775   494.4    3.500      37.496
2015    4        7    13  58    3.1779   494.1    3.504      37.461
2015    4        7    14   4    3.1783   493.7    3.509      37.425
2015    4        7    14   9    3.1788   493.4    3.514      37.390
2015    4        7    14  15    3.1792   493.1    3.518      37.355
2015    4        7    14  21    3.1797   492.9    3.523      37.319
2015    4        7    14  27    3.1801   492.6    3.528      37.284
2015    4        7    14  33    3.1806   492.3    3.532      37.248
2015    4        7    14  39    3.1811   492.0    3.537      37.213
2015    4        7    14  44    3.1816   491.7    3.542      37.178
2015    4        7    14  50    3.1821   491.4    3.547      37.143
2015    4        7    14  56    3.1826   491.1    3.551      37.107
2015    4        7    15   2    3.1831   490.8    3.556      37.072
2015    4        7    15   8    3.1836   490.5    3.561      37.037
2015    4        7    15  14    3.1842   490.2    3.566      37.001
2015    4        7    15  19    3.1847   489.9    3.570      36.966
2015    4        7    15  25    3.1853   489.6    3.575      36.931
2015    4        7    15  31    3.1859   489.3    3.580      36.896
2015    4        7    15  37    3.1864   489.0    3.585      36.860
2015    4        7    15  43    3.1870   488.7    3.590      36.825
2015    4        7    15  49    3.1876   488.4    3.594      36.790
2015    4        7    15  55    3.1882   488.1    3.599      36.754
2015    4        7    16   0    3.1888   487.8    3.604      36.719
2015    4        7    16   6    3.1895   487.6    3.609      36.684
2015    4        7    16  12    3.1901   487.3    3.614      36.648
2015    4        7    16  18    3.1907   487.0    3.619      36.613
2015    4        7    16  24    3.1914   486.7    3.623      36.578
2015    4        7    16  30    3.1920   486.4    3.628      36.542
2015    4        7    16  35    3.1927   486.1    3.633      36.507
2015    4        7    16  41    3.1934   485.8    3.638      36.472
2015    4        7    16  47    3.1941   485.5    3.643      36.436
2015    4        7    16  53    3.1948   485.2    3.648      36.401
2015    4        7    16  59    3.1955   485.0    3.652      36.366
2015    4        7    17   5    3.1962   484.7    3.657      36.331
2015    4        7    17  10    3.1969   484.4    3.662      36.296
2015    4        7    17  16    3.1977   484.1    3.667      36.261
2015    4        7    17  22    3.1984   483.8    3.672      36.226
2015    4        7    17  28    3.1992   483.5    3.677      36.191
2015    4        7    17  34    3.2000   483.2    3.682      36.156
2015    4        7    17  40    3.2008   483.0    3.687      36.121
2015    4        7    17  45    3.2016   482.7    3.692      36.086
2015    4        7    17  51    3.2024   482.4    3.696      36.052
2015    4        7    17  57    3.2032   482.1    3.701      36.017
2015    4        7    18   3    3.2041   481.8    3.706      35.983
2015    4        7    18   9    3.2049   481.5    3.711      35.948
2015    4        7    18  15    3.2058   481.3    3.716      35.914
2015    4        7    18  21    3.2067   481.0    3.721      35.880
2015    4        7    18  26    3.2076   480.7    3.727      35.846
2015    4        7    18  32    3.2085   480.4    3.732      35.812
2015    4        7    18  38    3.2094   480.1    3.737      35.779
2015    4        7    18  44    3.2103   479.9    3.742      35.745
2015    4        7    18  50    3.2113   479.6    3.747      35.711
2015    4        7    18  56    3.2122   479.3    3.752      35.678
2015    4        7    19   1    3.2132   479.0    3.757      35.645
2015    4        7    19   7    3.2142   478.7    3.763      35.612
2015    4        7    19  13    3.2152   478.5    3.768      35.579
2015    4        7    19  19    3.2162   478.2    3.773      35.546
2015    4        7    19  25    3.2172   477.9    3.778      35.514
2015    4        7    19  31    3.2183   477.6    3.784      35.481
2015    4        7    19  36    3.2193   477.3    3.789      35.449
2015    4        7    19  42    3.2204   477.1    3.794      35.417
2015    4        7    19  48    3.2215   476.8    3.800      35.385
2015    4        7    19  54    3.2225   476.5    3.805      35.353
2015    4        7    20   0    3.2236   476.2    3.811      35.321
2015    4        7    20   6    3.2247   476.0    3.816      35.290
2015    4        7    20  11    3.2259   475.7    3.822      35.258
2015    4        7    20  17    3.2270   475.4    3.827      35.227
2015    4        7    20  23    3.2281   475.2    3.833      35.196
2015    4        7    20  29    3.2293   474.9    3.838      35.165
2015    4        7    20  35    3.2305   474.6    3.844      35.134
2015    4        7    20  41    3.2317   474.3    3.850      35.104
2015    4        7    20  47    3.2329   474.1    3.855      35.073
2015    4        7    20  52    3.2341   473.8    3.861      35.043
2015    4        7    20  58    3.2353   473.5    3.867      35.013
2015    4        7    21   4    3.2365   473.3    3.873      34.983
2015    4        7    21  10    3.2378   473.0    3.878      34.953
2015    4        7    21  16    3.2391   472.7    3.884      34.924
2015    4        7    21  22    3.2403   472.4    3.890      34.894
2015    4        7    21  27    3.2416   472.2    3.896      34.865
2015    4        7    21  33    3.2430   471.9    3.902      34.836
2015    4        7    21  39    3.2443   471.6    3.908      34.807
2015    4        7    21  45    3.2456   471.4    3.914      34.778
2015    4        7    21  51    3.2470   471.1    3.920      34.750
2015    4        7    21  57    3.2484   470.9    3.926      34.721
2015    4        7    22   2    3.2498   470.6    3.932      34.693
2015    4        7    22   8    3.2512   470.3    3.938      34.666
2015    4        7    22  14    3.2526   470.1    3.945      34.638
2015    4        7    22  20    3.2541   469.8    3.951      34.610
2015    4        7    22  26    3.2555   469.5    3.957      34.583
2015    4        7    22  32    3.2570   469.3    3.963      34.556
2015    4        7    22  38    3.2585   469.0    3.970      34.529
2015    4        7    22  43    3.2601   468.8    3.976      34.503
2015    4        7    22  49    3.2616   468.5    3.983      34.477
2015    4        7    22  55    3.2632   468.2    3.989      34.451
2015    4        7    23   1    3.2648   468.0    3.996      34.425
2015    4        7    23   7    3.2664   467.7    4.002      34.399
2015    4        7    23  13    3.2680   467.5    4.009      34.374
2015    4        7    23  18    3.2696   467.2    4.015      34.349
2015    4        7    23  24    3.2713   466.9    4.022      34.324
2015    4        7    23  30    3.2730   466.7    4.029      34.299
2015    4        7    23  36    3.2747   466.4    4.035      34.275
2015    4        7    23  42    3.2764   466.2    4.042      34.251
2015    4        7    23  48    3.2782   465.9    4.049      34.227
2015    4        7    23  53    3.2800   465.7    4.056      34.204
2015    4        7    23  59    3.2818   465.4    4.063      34.180
2015    4        8     0   5    3.2836   465.2    4.069      34.157
2015    4        8     0  11    3.2854   464.9    4.076      34.134
2015    4        8     0  17    3.2873   464.7    4.083      34.111
2015    4        8     0  23    3.2891   464.4    4.090      34.089
2015    4        8     0  28    3.2910   464.2    4.097      34.066
2015    4        8     0  34    3.2929   463.9    4.104      34.044
2015    4        8     0  40    3.2949   463.7    4.111      34.022
2015    4        8     0  46    3.2968   463.4    4.118      34.000
2015    4        8     0  52    3.2988   463.2    4.125      33.978
2015    4        8     0  58    3.3008   463.0    4.132      33.957
2015    4        8     1   4    3.3028   462.7    4.139      33.935
2015    4        8     1   9    3.3048   462.5    4.146      33.914
2015    4        8     1  15    3.3068   462.2    4.153      33.893
2015    4        8     1  21    3.3089   462.0    4.159      33.872
2015    4        8     1  27    3.3110   461.8    4.166      33.851
2015    4        8     1  33    3.3131   461.5    4.173      33.830
2015    4        8     1  39    3.3152   461.3    4.180      33.809
2015    4        8     1  44    3.3173   461.0    4.187      33.788
2015    4        8     1  50    3.3194   460.8    4.194      33.767
2015    4        8     1  56    3.3216   460.6    4.201      33.747
2015    4        8     2   2    3.3238   460.3    4.208      33.726
2015    4        8     2   8    3.3260   460.1    4.215      33.706
2015    4        8     2  14    3.3282   459.9    4.222      33.685
2015    4        8     2  19    3.3304   459.6    4.228      33.665
2015    4        8     2  25    3.3327   459.4    4.235      33.645
2015    4        8     2  31    3.3349   459.2    4.242      33.625
2015    4        8     2  37    3.3372   459.0    4.249      33.605
2015    4        8     2  43    3.3395   458.7    4.256      33.585
2015    4        8     2  49    3.3418   458.5    4.263      33.565
2015    4        8     2  54    3.3441   458.3    4.270      33.546
2015    4        8     3   0    3.3465   458.0    4.277      33.526
2015    4        8     3   6    3.3488   457.8    4.283      33.507
2015    4        8     3  12    3.3512   457.6    4.290      33.488
2015    4        8     3  18    3.3536   457.4    4.297      33.469
2015    4        8     3  24    3.3560   457.2    4.304      33.450
2015    4        8     3  30    3.3584   456.9    4.311      33.431
2015    4        8     3  35    3.3609   456.7    4.318      33.413
2015    4        8     3  41    3.3633   456.5    4.325      33.394
2015    4        8     3  47    3.3658   456.3    4.332      33.376
2015    4        8     3  53    3.3683   456.1    4.340      33.358
2015    4        8     3  59    3.3708   455.9    4.347      33.341
2015    4        8     4   5    3.3733   455.6    4.354      33.323
2015    4        8     4  10    3.3758   455.4    4.361      33.306
2015    4        8     4  16    3.3783   455.2    4.368      33.289
2015    4        8     4  22    3.3809   455.0    4.376      33.273
2015    4        8     4  28    3.3834   454.8    4.383      33.256
2015    4        8     4  34    3.3860   454.6    4.390      33.240
2015    4        8     4  40    3.3886   454.4    4.398      33.224
2015    4        8     4  45    3.3912   454.2    4.405      33.209
2015    4        8     4  51    3.3938   454.0    4.413      33.193
2015    4        8     4  57    3.3965   453.8    4.420      33.178
2015    4        8     5   3    3.3991   453.6    4.428      33.163
2015    4        8     5   9    3.4018   453.4    4.435      33.149
2015    4        8     5  15    3.4045   453.2    4.443      33.135
2015    4        8     5  20    3.4071   453.0    4.451      33.121
2015    4        8     5  26    3.4098   452.8    4.459      33.107
2015    4        8     5  32    3.4126   452.6    4.466      33.094
2015    4        8     5  38    3.4153   452.4    4.474      33.081
2015    4        8     5  44    3.4180   452.2    4.482      33.068
2015    4        8     5  50    3.4208   452.0    4.490      33.055
2015    4        8     5  56    3.4235   451.8    4.498      33.043
2015    4        8     6   1    3.4263   451.6    4.506      33.031
2015    4        8     6   7    3.4291   451.4    4.514      33.019
2015    4        8     6  13    3.4319   451.2    4.522      33.008
2015    4        8     6  19    3.4347   451.0    4.530      32.996
2015    4        8     6  25    3.4375   450.8    4.538      32.985
2015    4        8     6  31    3.4404   450.6    4.546      32.974
2015    4        8     6  36    3.4432   450.4    4.554      32.964
2015    4        8     6  42    3.4461   450.2    4.562      32.953
2015    4        8     6  48    3.4490   450.0    4.570      32.943
2015    4        8     6  54    3.4519   449.9    4.579      32.933
2015    4        8     7   0    3.4548   449.7    4.587      32.924
2015    4        8     7   6    3.4577   449.5    4.595      32.914
2015    4        8     7  11    3.4607   449.3    4.603      32.905
2015    4        8     7  17    3.4636   449.1    4.612      32.896
2015    4        8     7  23    3.4666   448.9    4.620      32.887
2015    4        8     7  29    3.4696   448.8    4.628      32.878
2015    4        8     7  35    3.4726   448.6    4.636      32.870
2015    4        8     7  41    3.4756   448.4    4.645      32.861
2015    4        8     7  47    3.4787   448.2    4.653      32.853
2015    4        8     7  52    3.4817   448.0    4.661      32.845
2015    4        8     7  58    3.4848   447.9    4.670      32.838
2015    4        8     8   4    3.4879   447.7    4.678      32.830
2015    4        8     8  10    3.4910   447.5    4.687      32.823
2015    4        8     8  16    3.4941   447.3    4.695      32.816
2015    4        8     8  22    3.4973   447.1    4.703      32.809
2015    4        8     8  27    3.5004   447.0    4.712      32.802
2015    4        8     8  33    3.5036   446.8    4.720      32.796
2015    4        8     8  39    3.5068   446.6    4.729      32.790
2015    4        8     8  45    3.5100   446.5    4.737      32.783
2015    4        8     8  51    3.5132   446.3    4.746      32.778
2015    4        8     8  57    3.5165   446.1    4.754      32.772
2015    4        8     9   2    3.5197   446.0    4.763      32.766
2015    4        8     9   8    3.5230   445.8    4.771      32.761
2015    4        8     9  14    3.5263   445.6    4.779      32.756
2015    4        8     9  20    3.5296   445.5    4.788      32.751
2015    4        8     9  26    3.5329   445.3    4.796      32.746
2015    4        8     9  32    3.5362   445.1    4.805      32.741
2015    4        8     9  37    3.5395   445.0    4.813      32.736
2015    4        8     9  43    3.5428   444.8    4.822      32.732
2015    4        8     9  49    3.5462   444.6    4.830      32.728
2015    4        8     9  55    3.5495   444.5    4.838      32.723
2015    4        8    10   1    3.5529   444.3    4.847      32.719
2015    4        8    10   7    3.5563   444.2    4.855      32.716
2015    4        8    10  13    3.5596   444.0    4.864      32.712
2015    4        8    10  18    3.5630   443.8    4.872      32.708
2015    4        8    10  24    3.5664   443.7    4.880      32.705
2015    4        8    10  30    3.5698   443.5    4.889      32.702
2015    4        8    10  36    3.5732   443.4    4.897      32.698
2015    4        8    10  42    3.5766   443.2    4.905      32.695
2015    4        8    10  48    3.5800   443.1    4.914      32.693
2015    4        8    10  53    3.5834   442.9    4.922      32.690
2015    4        8    10  59    3.5869   442.8    4.930      32.688
2015    4        8    11   5    3.5903   442.6    4.938      32.685
2015    4        8    11  11    3.5937   442.5    4.947      32.683
2015    4        8    11  17    3.5971   442.3    4.955      32.681
2015    4        8    11  23    3.6006   442.2    4.963      32.680
2015    4        8    11  28    3.6040   442.0    4.972      32.678
2015    4        8    11  34    3.6075   441.9    4.980      32.677
2015    4        8    11  40    3.6109   441.7    4.988      32.676
2015    4        8    11  46    3.6144   441.6    4.996      32.676
2015    4        8    11  52    3.6178   441.4    5.005      32.675
2015    4        8    11  58    3.6213   441.3    5.013      32.675
2015    4        8    12   3    3.6248   441.1    5.021      32.675
2015    4        8    12   9    3.6283   441.0    5.030      32.676
2015    4        8    12  15    3.6317   440.9    5.038      32.676
2015    4        8    12  21    3.6352   440.7    5.046      32.677
2015    4        8    12  27    3.6387   440.6    5.055      32.678
2015    4        8    12  33    3.6422   440.4    5.063      32.680
2015    4        8    12  39    3.6457   440.3    5.071      32.681
2015    4        8    12  44    3.6492   440.2    5.080      32.683
2015    4        8    12  50    3.6527   440.0    5.088      32.685
2015    4        8    12  56    3.6562   439.9    5.097      32.688
2015    4        8    13   2    3.6597   439.8    5.105      32.690
2015    4        8    13   8    3.6632   439.6    5.113      32.693
2015    4        8    13  14    3.6668   439.5    5.122      32.696
2015    4        8    13  19    3.6703   439.4    5.130      32.700
2015    4        8    13  25    3.6738   439.3    5.139      32.703
2015    4        8    13  31    3.6773   439.1    5.147      32.707
2015    4        8    13  37    3.6808   439.0    5.155      32.711
2015    4        8    13  43    3.6843   438.9    5.163      32.715
2015    4        8    13  49    3.6878   438.8    5.172      32.719
2015    4        8    13  54    3.6914   438.6    5.180      32.723
2015    4        8    14   0    3.6949   438.5    5.188      32.728
2015    4        8    14   6    3.6984   438.4    5.196      32.732
2015    4        8    14  12    3.7019   438.3    5.204      32.737
2015    4        8    14  18    3.7054   438.1    5.212      32.741
2015    4        8    14  24    3.7089   438.0    5.220      32.746
2015    4        8    14  29    3.7124   437.9    5.228      32.750
2015    4        8    14  35    3.7159   437.8    5.236      32.755
2015    4        8    14  41    3.7194   437.7    5.244      32.759
2015    4        8    14  47    3.7229   437.6    5.252      32.763
2015    4        8    14  53    3.7264   437.4    5.260      32.768
2015    4        8    14  59    3.7299   437.3    5.268      32.772
2015    4        8    15   5    3.7334   437.2    5.276      32.776
2015    4        8    15  10    3.7369   437.1    5.283      32.780
2015    4        8    15  16    3.7404   437.0    5.291      32.784
2015    4        8    15  22    3.7439   436.9    5.299      32.788
2015    4        8    15  28    3.7473   436.8    5.306      32.792
2015    4        8    15  34    3.7508   436.7    5.314      32.796
2015    4        8    15  40    3.7543   436.5    5.321      32.799
2015    4        8    15  45    3.7578   436.4    5.329      32.803
2015    4        8    15  51    3.7613   436.3    5.336      32.807
2015    4        8    15  57    3.7648   436.2    5.344      32.810
2015    4        8    16   3    3.7682   436.1    5.351      32.814
2015    4        8    16   9    3.7717   436.0    5.359      32.817
2015    4        8    16  15    3.7752   435.9    5.366      32.821
2015    4        8    16  20    3.7787   435.8    5.373      32.824
2015    4        8    16  26    3.7822   435.7    5.381      32.828
2015    4        8    16  32    3.7857   435.6    5.388      32.832
2015    4        8    16  38    3.7893   435.5    5.395      32.835
2015    4        8    16  44    3.7928   435.3    5.403      32.839
2015    4        8    16  50    3.7963   435.2    5.410      32.843
2015    4        8    16  55    3.7999   435.1    5.417      32.847
2015    4        8    17   1    3.8034   435.0    5.424      32.851
2015    4        8    17   7    3.8070   434.9    5.432      32.855
2015    4        8    17  13    3.8105   434.8    5.439      32.859
2015    4        8    17  19    3.8141   434.7    5.446      32.864
2015    4        8    17  25    3.8177   434.6    5.454      32.868
2015    4        8    17  31    3.8213   434.5    5.461      32.873
2015    4        8    17  36    3.8249   434.4    5.468      32.878
2015    4        8    17  42    3.8285   434.3    5.476      32.883
2015    4        8    17  48    3.8321   434.2    5.483      32.888
2015    4        8    17  54    3.8357   434.1    5.491      32.893
2015    4        8    18   0    3.8394   434.0    5.498      32.898
2015    4        8    18   6    3.8430   433.9    5.505      32.904
2015    4        8    18  11    3.8467   433.8    5.513      32.910
2015    4        8    18  17    3.8504   433.7    5.520      32.916
2015    4        8    18  23    3.8541   433.6    5.528      32.922
2015    4        8    18  29    3.8578   433.6    5.535      32.928
2015    4        8    18  35    3.8615   433.5    5.543      32.935
2015    4        8    18  41    3.8652   433.4    5.550      32.941
2015    4        8    18  46    3.8689   433.3    5.558      32.948
2015    4        8    18  52    3.8726   433.2    5.565      32.955
2015    4        8    18  58    3.8763   433.1    5.573      32.962
2015    4        8    19   4    3.8801   433.0    5.580      32.969
2015    4        8    19  10    3.8838   432.9    5.587      32.976
2015    4        8    19  16    3.8875   432.8    5.595      32.983
2015    4        8    19  22    3.8912   432.7    5.602      32.991
2015    4        8    19  27    3.8950   432.7    5.610      32.998
2015    4        8    19  33    3.8987   432.6    5.617      33.006
2015    4        8    19  39    3.9024   432.5    5.625      33.014
2015    4        8    19  45    3.9061   432.4    5.632      33.022
2015    4        8    19  51    3.9098   432.3    5.639      33.030
2015    4        8    19  57    3.9135   432.2    5.647      33.038
2015    4        8    20   2    3.9171   432.2    5.654      33.046
2015    4        8    20   8    3.9208   432.1    5.661      33.054
2015    4        8    20  14    3.9245   432.0    5.668      33.063
2015    4        8    20  20    3.9281   431.9    5.675      33.071
2015    4        8    20  26    3.9318   431.8    5.683      33.080
2015    4        8    20  32    3.9354   431.7    5.690      33.089
2015    4        8    20  37    3.9390   431.7    5.696      33.098
2015    4        8    20  43    3.9426   431.6    5.703      33.107
2015    4        8    20  49    3.9462   431.5    5.710      33.116
2015    4        8    20  55    3.9498   431.4    5.717      33.125
2015    4        8    21   1    3.9534   431.4    5.723      33.134
2015    4        8    21   7    3.9569   431.3    5.730      33.143
2015    4        8    21  12    3.9605   431.2    5.737      33.153
2015    4        8    21  18    3.9640   431.1    5.743      33.162
2015    4        8    21  24    3.9676   431.1    5.749      33.171
2015    4        8    21  30    3.9711   431.0    5.756      33.180
2015    4        8    21  36    3.9746   430.9    5.762      33.189
2015    4        8    21  42    3.9781   430.8    5.768      33.199
2015    4        8    21  48    3.9816   430.8    5.774      33.208
2015    4        8    21  53    3.9851   430.7    5.781      33.217
2015    4        8    21  59    3.9886   430.6    5.787      33.226
2015    4        8    22   5    3.9921   430.6    5.793      33.235
2015    4        8    22  11    3.9955   430.5    5.799      33.243
2015    4        8    22  17    3.9990   430.4    5.805      33.252
2015    4        8    22  23    4.0024   430.3    5.810      33.261
2015    4        8    22  28    4.0059   430.3    5.816      33.270
2015    4        8    22  34    4.0093   430.2    5.822      33.279
2015    4        8    22  40    4.0127   430.1    5.828      33.287
2015    4        8    22  46    4.0162   430.1    5.833      33.296
2015    4        8    22  52    4.0196   430.0    5.839      33.304
2015    4        8    22  58    4.0230   429.9    5.845      33.313
2015    4        8    23   3    4.0264   429.9    5.850      33.322
2015    4        8    23   9    4.0298   429.8    5.856      33.330
2015    4        8    23  15    4.0331   429.7    5.862      33.339
2015    4        8    23  21    4.0365   429.7    5.867      33.347
2015    4        8    23  27    4.0399   429.6    5.873      33.356
2015    4        8    23  33    4.0432   429.6    5.878      33.364
2015    4        8    23  38    4.0466   429.5    5.884      33.373
2015    4        8    23  44    4.0500   429.4    5.889      33.381
2015    4        8    23  50    4.0533   429.4    5.895      33.390
2015    4        8    23  56    4.0567   429.3    5.900      33.398
2015    4        9     0   2    4.0600   429.2    5.906      33.407
2015    4        9     0   8    4.0634   429.2    5.911      33.416
2015    4        9     0  14    4.0667   429.1    5.917      33.424
2015    4        9     0  19    4.0701   429.1    5.922      33.433
2015    4        9     0  25    4.0734   429.0    5.928      33.442
2015    4        9     0  31    4.0767   429.0    5.933      33.450
2015    4        9     0  37    4.0801   428.9    5.939      33.459
2015    4        9     0  43    4.0834   428.8    5.944      33.468
2015    4        9     0  49    4.0868   428.8    5.950      33.477
2015    4        9     0  54    4.0901   428.7    5.955      33.486
2015    4        9     1   0    4.0935   428.7    5.961      33.495
2015    4        9     1   6    4.0968   428.6    5.967      33.504
2015    4        9     1  12    4.1002   428.6    5.973      33.513
2015    4        9     1  18    4.1036   428.5    5.978      33.522
2015    4        9     1  24    4.1069   428.5    5.984      33.531
2015    4        9     1  29    4.1103   428.4    5.990      33.540
2015    4        9     1  35    4.1137   428.3    5.996      33.549
2015    4        9     1  41    4.1171   428.3    6.002      33.559
2015    4        9     1  47    4.1205   428.2    6.008      33.568
2015    4        9     1  53    4.1239   428.2    6.014      33.577
2015    4        9     1  59    4.1273   428.1    6.020      33.587
2015    4        9     2   4    4.1307   428.1    6.026      33.597
2015    4        9     2  10    4.1342   428.1    6.032      33.607
2015    4        9     2  16    4.1376   428.0    6.038      33.617
2015    4        9     2  22    4.1411   428.0    6.045      33.627
2015    4        9     2  28    4.1446   427.9    6.051      33.637
2015    4        9     2  34    4.1480   427.9    6.057      33.648
2015    4        9     2  40    4.1515   427.8    6.064      33.659
2015    4        9     2  45    4.1550   427.8    6.070      33.670
2015    4        9     2  51    4.1584   427.7    6.076      33.682
2015    4        9     2  57    4.1619   427.7    6.083      33.694
2015    4        9     3   3    4.1653   427.7    6.089      33.707
2015    4        9     3   9    4.1687   427.6    6.095      33.721
2015    4        9     3  15    4.1721   427.6    6.101      33.735
2015    4        9     3  20    4.1755   427.6    6.107      33.750
2015    4        9     3  26    4.1788   427.5    6.112      33.765
2015    4        9     3  32    4.1821   427.5    6.118      33.780
2015    4        9     3  38    4.1854   427.5    6.124      33.796
2015    4        9     3  44    4.1887   427.4    6.129      33.812
2015    4        9     3  50    4.1919   427.4    6.134      33.828
2015    4        9     3  55    4.1952   427.4    6.140      33.845
2015    4        9     4   1    4.1984   427.3    6.145      33.861
2015    4        9     4   7    4.2016   427.3    6.150      33.877
2015    4        9     4  13    4.2047   427.3    6.155      33.893
2015    4        9     4  19    4.2079   427.2    6.159      33.909
2015    4        9     4  25    4.2110   427.2    6.164      33.924
2015    4        9     4  30    4.2141   427.2    6.169      33.940
2015    4        9     4  36    4.2172   427.1    6.173      33.955
2015    4        9     4  42    4.2203   427.1    6.178      33.970
2015    4        9     4  48    4.2233   427.1    6.182      33.985
2015    4        9     4  54    4.2264   427.0    6.186      34.000
2015    4        9     5   0    4.2294   427.0    6.191      34.014
2015    4        9     5   6    4.2324   427.0    6.195      34.029
2015    4        9     5  11    4.2354   426.9    6.199      34.043
2015    4        9     5  17    4.2384   426.9    6.203      34.056
2015    4        9     5  23    4.2413   426.9    6.207      34.070
2015    4        9     5  29    4.2443   426.8    6.211      34.084
2015    4        9     5  35    4.2472   426.8    6.215      34.097
2015    4        9     5  41    4.2501   426.8    6.218      34.110
2015    4        9     5  46    4.2531   426.8    6.222      34.123
2015    4        9     5  52    4.2560   426.7    6.226      34.136
2015    4        9     5  58    4.2588   426.7    6.229      34.148
2015    4        9     6   4    4.2617   426.7    6.233      34.161
2015    4        9     6  10    4.2646   426.6    6.237      34.173
2015    4        9     6  16    4.2674   426.6    6.240      34.185
2015    4        9     6  21    4.2703   426.6    6.244      34.197
2015    4        9     6  27    4.2731   426.5    6.247      34.209
2015    4        9     6  33    4.2760   426.5    6.250      34.220
2015    4        9     6  39    4.2788   426.5    6.254      34.232
2015    4        9     6  45    4.2816   426.5    6.257      34.243
2015    4        9     6  51    4.2844   426.4    6.261      34.254
2015    4        9     6  56    4.2872   426.4    6.264      34.265
2015    4        9     7   2    4.2900   426.4    6.267      34.276
2015    4        9     7   8    4.2928   426.3    6.271      34.286
2015    4        9     7  14    4.2956   426.3    6.274      34.297
2015    4        9     7  20    4.2983   426.3    6.277      34.307
2015    4        9     7  26    4.3011   426.3    6.280      34.318
2015    4        9     7  32    4.3039   426.2    6.284      34.328
2015    4        9     7  37    4.3066   426.2    6.287      34.338
2015    4        9     7  43    4.3094   426.2    6.290      34.347
2015    4        9     7  49    4.3121   426.1    6.294      34.357
2015    4        9     7  55    4.3149   426.1    6.297      34.367
2015    4        9     8   1    4.3176   426.1    6.300      34.376
2015    4        9     8   7    4.3203   426.1    6.304      34.386
2015    4        9     8  12    4.3231   426.0    6.307      34.395
2015    4        9     8  18    4.3258   426.0    6.311      34.404
2015    4        9     8  24    4.3286   426.0    6.314      34.414
2015    4        9     8  30    4.3313   426.0    6.318      34.423
2015    4        9     8  36    4.3340   425.9    6.321      34.432
2015    4        9     8  42    4.3368   425.9    6.325      34.441
2015    4        9     8  47    4.3395   425.9    6.329      34.450
2015    4        9     8  53    4.3423   425.9    6.332      34.460
2015    4        9     8  59    4.3450   425.9    6.336      34.469
2015    4        9     9   5    4.3478   425.8    6.340      34.478
2015    4        9     9  11    4.3506   425.8    6.344      34.487
2015    4        9     9  17    4.3534   425.8    6.349      34.497
2015    4        9     9  22    4.3562   425.8    6.353      34.507
2015    4        9     9  28    4.3590   425.7    6.357      34.517
2015    4        9     9  34    4.3618   425.7    6.362      34.527
2015    4        9     9  40    4.3647   425.7    6.366      34.537
2015    4        9     9  46    4.3675   425.7    6.371      34.548
2015    4        9     9  52    4.3704   425.7    6.375      34.560
2015    4        9     9  58    4.3733   425.7    6.380      34.571
2015    4        9    10   3    4.3762   425.6    6.385      34.584
2015    4        9    10   9    4.3790   425.6    6.390      34.597
2015    4        9    10  15    4.3819   425.6    6.395      34.611
2015    4        9    10  21    4.3848   425.6    6.399      34.625
2015    4        9    10  27    4.3876   425.6    6.404      34.641
2015    4        9    10  33    4.3905   425.6    6.409      34.657
2015    4        9    10  38    4.3933   425.6    6.413      34.674
2015    4        9    10  44    4.3961   425.6    6.418      34.691
2015    4        9    10  50    4.3989   425.6    6.423      34.710
2015    4        9    10  56    4.4017   425.6    6.427      34.728
2015    4        9    11   2    4.4044   425.6    6.432      34.748
2015    4        9    11   8    4.4071   425.6    6.436      34.768
2015    4        9    11  13    4.4098   425.6    6.440      34.788
2015    4        9    11  19    4.4125   425.6    6.444      34.808
2015    4        9    11  25    4.4151   425.6    6.448      34.830
2015    4        9    11  31    4.4176   425.6    6.452      34.851
2015    4        9    11  37    4.4202   425.6    6.456      34.873
2015    4        9    11  43    4.4227   425.6    6.460      34.895
2015    4        9    11  48    4.4252   425.6    6.463      34.917
2015    4        9    11  54    4.4276   425.5    6.466      34.939
2015    4        9    12   0    4.4301   425.5    6.469      34.961
2015    4        9    12   6    4.4325   425.5    6.472      34.982
2015    4        9    12  12    4.4348   425.5    6.475      35.003
2015    4        9    12  18    4.4372   425.5    6.478      35.024
2015    4        9    12  24    4.4395   425.5    6.481      35.044
2015    4        9    12  29    4.4418   425.5    6.483      35.063
2015    4        9    12  35    4.4441   425.5    6.486      35.082
2015    4        9    12  41    4.4464   425.5    6.488      35.101
2015    4        9    12  47    4.4486   425.5    6.491      35.119
2015    4        9    12  53    4.4509   425.5    6.493      35.137
2015    4        9    12  59    4.4531   425.5    6.495      35.154
2015    4        9    13   4    4.4553   425.5    6.497      35.171
2015    4        9    13  10    4.4575   425.5    6.499      35.187
2015    4        9    13  16    4.4596   425.5    6.501      35.203
2015    4        9    13  22    4.4618   425.5    6.503      35.219
2015    4        9    13  28    4.4640   425.5    6.505      35.234
2015    4        9    13  34    4.4661   425.5    6.507      35.250
2015    4        9    13  39    4.4682   425.5    6.508      35.264
2015    4        9    13  45    4.4703   425.5    6.510      35.279
2015    4        9    13  51    4.4725   425.5    6.512      35.293
2015    4        9    13  57    4.4746   425.5    6.513      35.306
2015    4        9    14   3    4.4767   425.5    6.515      35.320
2015    4        9    14   9    4.4787   425.5    6.516      35.333
2015    4        9    14  15    4.4808   425.5    6.518      35.346
2015    4        9    14  20    4.4829   425.5    6.519      35.358
2015    4        9    14  26    4.4850   425.4    6.520      35.370
2015    4        9    14  32    4.4870   425.4    6.522      35.382
2015    4        9    14  38    4.4891   425.4    6.523      35.394
2015    4        9    14  44    4.4911   425.4    6.524      35.406
2015    4        9    14  50    4.4931   425.4    6.526      35.417
2015    4        9    14  55    4.4952   425.4    6.527      35.428
2015    4        9    15   1    4.4972   425.4    6.528      35.439
2015    4        9    15   7    4.4992   425.4    6.529      35.449
2015    4        9    15  13    4.5012   425.4    6.531      35.460
2015    4        9    15  19    4.5032   425.4    6.532      35.470
2015    4        9    15  25    4.5052   425.4    6.533      35.480
2015    4        9    15  30    4.5072   425.4    6.534      35.490
2015    4        9    15  36    4.5092   425.4    6.535      35.500
2015    4        9    15  42    4.5112   425.4    6.537      35.510
2015    4        9    15  48    4.5132   425.4    6.538      35.519
2015    4        9    15  54    4.5152   425.4    6.539      35.529
2015    4        9    16   0    4.5172   425.4    6.540      35.538
2015    4        9    16   5    4.5192   425.4    6.542      35.548
2015    4        9    16  11    4.5211   425.3    6.543      35.557
2015    4        9    16  17    4.5231   425.3    6.544      35.567
2015    4        9    16  23    4.5251   425.3    6.546      35.576
2015    4        9    16  29    4.5271   425.3    6.547      35.586
2015    4        9    16  35    4.5291   425.3    6.549      35.595
2015    4        9    16  41    4.5310   425.3    6.550      35.605
2015    4        9    16  46    4.5330   425.3    6.552      35.615
2015    4        9    16  52    4.5350   425.3    6.554      35.625
2015    4        9    16  58    4.5370   425.3    6.555      35.635
2015    4        9    17   4    4.5390   425.3    6.557      35.645
2015    4        9    17  10    4.5410   425.3    6.559      35.655
2015    4        9    17  16    4.5430   425.3    6.561      35.666
2015    4        9    17  21    4.5450   425.3    6.563      35.677
2015    4        9    17  27    4.5470   425.3    6.566      35.688
2015    4        9    17  33    4.5490   425.3    6.568      35.700
2015    4        9    17  39    4.5511   425.3    6.570      35.711
2015    4        9    17  45    4.5531   425.3    6.573      35.724
2015    4        9    17  51    4.5551   425.3    6.575      35.736
2015    4        9    17  56    4.5572   425.3    6.578      35.750
2015    4        9    18   2    4.5592   425.3    6.581      35.763
2015    4        9    18   8    4.5613   425.3    6.583      35.777
2015    4        9    18  14    4.5633   425.3    6.586      35.792
2015    4        9    18  20    4.5653   425.3    6.589      35.808
2015    4        9    18  26    4.5673   425.3    6.592      35.824
2015    4        9    18  31    4.5693   425.3    6.595      35.840
2015    4        9    18  37    4.5713   425.3    6.597      35.858
2015    4        9    18  43    4.5732   425.3    6.600      35.876
2015    4        9    18  49    4.5752   425.3    6.603      35.895
2015    4        9    18  55    4.5771   425.3    6.606      35.915
2015    4        9    19   1    4.5790   425.3    6.608      35.935
2015    4        9    19   7    4.5808   425.3    6.611      35.955
2015    4        9    19  12    4.5827   425.4    6.613      35.976
2015    4        9    19  18    4.5845   425.4    6.616      35.996
2015    4        9    19  24    4.5864   425.4    6.618      36.017
2015    4        9    19  30    4.5882   425.4    6.620      36.038
2015    4        9    19  36    4.5899   425.4    6.623      36.058
2015    4        9    19  42    4.5917   425.4    6.625      36.079
2015    4        9    19  47    4.5935   425.4    6.627      36.099
2015    4        9    19  53    4.5952   425.4    6.630      36.120
2015    4        9    19  59    4.5969   425.4    6.632      36.140
2015    4        9    20   5    4.5986   425.4    6.634      36.161
2015    4        9    20  11    4.6003   425.4    6.636      36.181
2015    4        9    20  17    4.6019   425.5    6.638      36.201
2015    4        9    20  22    4.6036   425.5    6.639      36.222
2015    4        9    20  28    4.6052   425.5    6.641      36.242
2015    4        9    20  34    4.6068   425.5    6.643      36.262
2015    4        9    20  40    4.6084   425.5    6.644      36.283
2015    4        9    20  46    4.6099   425.5    6.646      36.303
2015    4        9    20  52    4.6115   425.5    6.647      36.323
2015    4        9    20  57    4.6130   425.5    6.649      36.343
2015    4        9    21   3    4.6146   425.5    6.650      36.362
2015    4        9    21   9    4.6161   425.6    6.651      36.381
2015    4        9    21  15    4.6176   425.6    6.652      36.399
2015    4        9    21  21    4.6191   425.6    6.653      36.417
2015    4        9    21  27    4.6206   425.6    6.654      36.435
2015    4        9    21  33    4.6221   425.6    6.655      36.452
2015    4        9    21  38    4.6236   425.6    6.656      36.469
2015    4        9    21  44    4.6251   425.6    6.657      36.486
2015    4        9    21  50    4.6266   425.6    6.658      36.503
2015    4        9    21  56    4.6280   425.6    6.659      36.519
2015    4        9    22   2    4.6295   425.6    6.660      36.535
2015    4        9    22   8    4.6310   425.6    6.660      36.550
2015    4        9    22  13    4.6324   425.7    6.661      36.566
2015    4        9    22  19    4.6339   425.7    6.662      36.581
2015    4        9    22  25    4.6354   425.7    6.662      36.596
2015    4        9    22  31    4.6368   425.7    6.663      36.610
2015    4        9    22  37    4.6383   425.7    6.664      36.625
2015    4        9    22  43    4.6397   425.7    6.664      36.639
2015    4        9    22  48    4.6412   425.7    6.665      36.653
2015    4        9    22  54    4.6427   425.7    6.665      36.667
2015    4        9    23   0    4.6441   425.7    6.666      36.680
2015    4        9    23   6    4.6456   425.7    6.666      36.694
2015    4        9    23  12    4.6471   425.8    6.667      36.707
2015    4        9    23  18    4.6485   425.8    6.667      36.721
2015    4        9    23  23    4.6500   425.8    6.668      36.734
2015    4        9    23  29    4.6515   425.8    6.668      36.747
2015    4        9    23  35    4.6529   425.8    6.669      36.760
2015    4        9    23  41    4.6544   425.8    6.669      36.773
2015    4        9    23  47    4.6558   425.8    6.670      36.787
2015    4        9    23  53    4.6573   425.8    6.670      36.800
2015    4        9    23  59    4.6587   425.8    6.671      36.813
2015    4       10     0   4    4.6601   425.8    6.671      36.826
2015    4       10     0  10    4.6616   425.8    6.672      36.839
2015    4       10     0  16    4.6630   425.9    6.672      36.853
2015    4       10     0  22    4.6644   425.9    6.673      36.866
2015    4       10     0  28    4.6658   425.9    6.673      36.879
2015    4       10     0  34    4.6672   425.9    6.674      36.893
2015    4       10     0  39    4.6686   425.9    6.675      36.907
2015    4       10     0  45    4.6700   425.9    6.675      36.920
2015    4       10     0  51    4.6713   425.9    6.676      36.934
2015    4       10     0  57    4.6727   425.9    6.676      36.948
2015    4       10     1   3    4.6740   426.0    6.677      36.962
2015    4       10     1   9    4.6754   426.0    6.678      36.976
2015    4       10     1  14    4.6767   426.0    6.679      36.990
2015    4       10     1  20    4.6781   426.0    6.679      37.004
2015    4       10     1  26    4.6794   426.0    6.680      37.019
2015    4       10     1  32    4.6807   426.0    6.681      37.033
2015    4       10     1  38    4.6820   426.0    6.682      37.048
2015    4       10     1  44    4.6833   426.0    6.682      37.062
2015    4       10     1  49    4.6846   426.1    6.683      37.077
2015    4       10     1  55    4.6859   426.1    6.684      37.092
2015    4       10     2   1    4.6871   426.1    6.685      37.106
2015    4       10     2   7    4.6884   426.1    6.686      37.121
2015    4       10     2  13    4.6897   426.1    6.687      37.136
2015    4       10     2  19    4.6909   426.1    6.687      37.151
2015    4       10     2  25    4.6922   426.1    6.688      37.166
2015    4       10     2  30    4.6934   426.1    6.689      37.181
2015    4       10     2  36    4.6947   426.2    6.690      37.196
2015    4       10     2  42    4.6959   426.2    6.691      37.211
2015    4       10     2  48    4.6971   426.2    6.692      37.226
2015    4       10     2  54    4.6983   426.2    6.693      37.241
2015    4       10     3   0    4.6995   426.2    6.694      37.257
2015    4       10     3   5    4.7007   426.2    6.695      37.272
2015    4       10     3  11    4.7018   426.2    6.696      37.288
2015    4       10     3  17    4.7030   426.3    6.696      37.304
2015    4       10     3  23    4.7041   426.3    6.697      37.320
2015    4       10     3  29    4.7052   426.3    6.698      37.336
2015    4       10     3  35    4.7063   426.3    6.699      37.353
2015    4       10     3  40    4.7074   426.3    6.700      37.370
2015    4       10     3  46    4.7085   426.3    6.700      37.387
2015    4       10     3  52    4.7096   426.4    6.701      37.404
2015    4       10     3  58    4.7106   426.4    6.701      37.421
2015    4       10     4   4    4.7117   426.4    6.702      37.438
2015    4       10     4  10    4.7127   426.4    6.702      37.455
2015    4       10     4  15    4.7138   426.4    6.703      37.472
2015    4       10     4  21    4.7148   426.4    6.703      37.489
2015    4       10     4  27    4.7158   426.5    6.704      37.505
2015    4       10     4  33    4.7168   426.5    6.704      37.522
2015    4       10     4  39    4.7178   426.5    6.705      37.538
2015    4       10     4  45    4.7189   426.5    6.705      37.554
2015    4       10     4  51    4.7199   426.5    6.705      37.570
2015    4       10     4  56    4.7209   426.5    6.706      37.586
2015    4       10     5   2    4.7219   426.6    6.706      37.602
2015    4       10     5   8    4.7229   426.6    6.706      37.618
2015    4       10     5  14    4.7240   426.6    6.707      37.634
2015    4       10     5  20    4.7250   426.6    6.707      37.650
2015    4       10     5  26    4.7260   426.6    6.708      37.665
2015    4       10     5  31    4.7271   426.6    6.708      37.681
2015    4       10     5  37    4.7281   426.7    6.709      37.697
2015    4       10     5  43    4.7292   426.7    6.709      37.713
2015    4       10     5  49    4.7302   426.7    6.710      37.728
2015    4       10     5  55    4.7313   426.7    6.710      37.744
2015    4       10     6   1    4.7323   426.7    6.711      37.760
2015    4       10     6   6    4.7334   426.8    6.711      37.775
2015    4       10     6  12    4.7344   426.8    6.712      37.791
2015    4       10     6  18    4.7355   426.8    6.712      37.806
2015    4       10     6  24    4.7365   426.8    6.713      37.822
2015    4       10     6  30    4.7376   426.8    6.713      37.837
2015    4       10     6  36    4.7386   426.9    6.714      37.853
2015    4       10     6  42    4.7397   426.9    6.714      37.868
2015    4       10     6  47    4.7407   426.9    6.715      37.884
2015    4       10     6  53    4.7417   426.9    6.715      37.899
2015    4       10     6  59    4.7427   427.0    6.716      37.915
2015    4       10     7   5    4.7437   427.0    6.716      37.930
2015    4       10     7  11    4.7446   427.0    6.717      37.945
2015    4       10     7  17    4.7456   427.0    6.717      37.960
2015    4       10     7  22    4.7465   427.1    6.717      37.975
2015    4       10     7  28    4.7475   427.1    6.718      37.991
2015    4       10     7  34    4.7484   427.1    6.718      38.006
2015    4       10     7  40    4.7493   427.1    6.718      38.021
2015    4       10     7  46    4.7503   427.1    6.719      38.035
2015    4       10     7  52    4.7512   427.2    6.719      38.050
2015    4       10     7  57    4.7521   427.2    6.719      38.065
2015    4       10     8   3    4.7530   427.2    6.719      38.079
2015    4       10     8   9    4.7539   427.2    6.719      38.093
2015    4       10     8  15    4.7547   427.3    6.720      38.107
2015    4       10     8  21    4.7556   427.3    6.720      38.121
2015    4       10     8  27    4.7565   427.3    6.720      38.135
2015    4       10     8  32    4.7573   427.3    6.720      38.149
2015    4       10     8  38    4.7582   427.4    6.720      38.162
2015    4       10     8  44    4.7590   427.4    6.720      38.175
2015    4       10     8  50    4.7599   427.4    6.720      38.189
2015    4       10     8  56    4.7607   427.4    6.720      38.202
2015    4       10     9   2    4.7615   427.5    6.719      38.215
2015    4       10     9   8    4.7624   427.5    6.719      38.227
2015    4       10     9  13    4.7632   427.5    6.719      38.240
2015    4       10     9  19    4.7640   427.5    6.719      38.253
2015    4       10     9  25    4.7648   427.5    6.719      38.265
2015    4       10     9  31    4.7656   427.6    6.719      38.278
2015    4       10     9  37    4.7663   427.6    6.719      38.290
2015    4       10     9  43    4.7671   427.6    6.718      38.302
2015    4       10     9  48    4.7678   427.6    6.718      38.314
2015    4       10     9  54    4.7686   427.7    6.718      38.326
2015    4       10    10   0    4.7693   427.7    6.718      38.339
2015    4       10    10   6    4.7700   427.7    6.717      38.351
2015    4       10    10  12    4.7707   427.7    6.717      38.363
2015    4       10    10  18    4.7714   427.7    6.717      38.375
2015    4       10    10  23    4.7721   427.8    6.716      38.387
2015    4       10    10  29    4.7728   427.8    6.716      38.399
2015    4       10    10  35    4.7734   427.8    6.716      38.411
2015    4       10    10  41    4.7741   427.8    6.715      38.423
2015    4       10    10  47    4.7747   427.9    6.715      38.435
2015    4       10    10  53    4.7753   427.9    6.715      38.447
2015    4       10    10  58    4.7759   427.9    6.714      38.459
2015    4       10    11   4    4.7765   427.9    6.714      38.470
2015    4       10    11  10    4.7771   428.0    6.714      38.482
2015    4       10    11  16    4.7777   428.0    6.713      38.494
2015    4       10    11  22    4.7783   428.0    6.713      38.506
2015    4       10    11  28    4.7788   428.0    6.712      38.518
2015    4       10    11  34    4.7794   428.0    6.712      38.530
2015    4       10    11  39    4.7799   428.1    6.711      38.542
2015    4       10    11  45    4.7805   428.1    6.711      38.554
2015    4       10    11  51    4.7810   428.1    6.710      38.566
2015    4       10    11  57    4.7816   428.1    6.710      38.577
2015    4       10    12   3    4.7821   428.2    6.709      38.589
2015    4       10    12   9    4.7827   428.2    6.709      38.601
2015    4       10    12  14    4.7832   428.2    6.708      38.612
2015    4       10    12  20    4.7837   428.2    6.707      38.624
2015    4       10    12  26    4.7843   428.2    6.707      38.636
2015    4       10    12  32    4.7848   428.3    6.706      38.647
2015    4       10    12  38    4.7853   428.3    6.706      38.659
2015    4       10    12  44    4.7859   428.3    6.705      38.670
2015    4       10    12  49    4.7864   428.3    6.705      38.682
2015    4       10    12  55    4.7869   428.4    6.705      38.694
2015    4       10    13   1    4.7875   428.4    6.704      38.705
2015    4       10    13   7    4.7880   428.4    6.704      38.717
2015    4       10    13  13    4.7886   428.4    6.703      38.728
2015    4       10    13  19    4.7891   428.5    6.703      38.740
2015    4       10    13  24    4.7897   428.5    6.702      38.751
2015    4       10    13  30    4.7902   428.5    6.702      38.763
2015    4       10    13  36    4.7908   428.5    6.702      38.775
2015    4       10    13  42    4.7913   428.6    6.702      38.786
2015    4       10    13  48    4.7919   428.6    6.701      38.798
2015    4       10    13  54    4.7924   428.6    6.701      38.810
2015    4       10    14   0    4.7930   428.6    6.701      38.822
2015    4       10    14   5    4.7936   428.7    6.701      38.833
2015    4       10    14  11    4.7941   428.7    6.700      38.845
2015    4       10    14  17    4.7947   428.7    6.700      38.857
2015    4       10    14  23    4.7952   428.7    6.700      38.869
2015    4       10    14  29    4.7958   428.8    6.700      38.881
2015    4       10    14  35    4.7964   428.8    6.700      38.893
2015    4       10    14  40    4.7969   428.8    6.700      38.905
2015    4       10    14  46    4.7975   428.8    6.700      38.917
2015    4       10    14  52    4.7981   428.9    6.700      38.929
2015    4       10    14  58    4.7987   428.9    6.700      38.941
2015    4       10    15   4    4.7992   428.9    6.700      38.953
2015    4       10    15  10    4.7998   429.0    6.701      38.965
2015    4       10    15  15    4.8004   429.0    6.701      38.977
2015    4       10    15  21    4.8010   429.0    6.701      38.989
2015    4       10    15  27    4.8016   429.1    6.701      39.001
2015    4       10    15  33    4.8022   429.1    6.702      39.013
2015    4       10    15  39    4.8028   429.1    6.702      39.025
2015    4       10    15  45    4.8034   429.1    6.702      39.037
2015    4       10    15  50    4.8040   429.2    6.703      39.049
2015    4       10    15  56    4.8046   429.2    6.703      39.061
2015    4       10    16   2    4.8051   429.2    6.703      39.073
2015    4       10    16   8    4.8057   429.3    6.704      39.085
2015    4       10    16  14    4.8062   429.3    6.704      39.097
2015    4       10    16  20    4.8068   429.3    6.705      39.109
2015    4       10    16  26    4.8073   429.4    6.705      39.121
2015    4       10    16  31    4.8078   429.4    6.706      39.133
2015    4       10    16  37    4.8083   429.4    6.706      39.145
2015    4       10    16  43    4.8088   429.5    6.707      39.157
2015    4       10    16  49    4.8093   429.5    6.707      39.170
2015    4       10    16  55    4.8097   429.5    6.708      39.182
2015    4       10    17   1    4.8102   429.6    6.708      39.195
2015    4       10    17   6    4.8106   429.6    6.709      39.208
2015    4       10    17  12    4.8110   429.7    6.709      39.221
2015    4       10    17  18    4.8114   429.7    6.709      39.234
2015    4       10    17  24    4.8118   429.7    6.709      39.246
2015    4       10    17  30    4.8122   429.8    6.709      39.259
2015    4       10    17  36    4.8125   429.8    6.709      39.271
2015    4       10    17  41    4.8129   429.8    6.709      39.284
2015    4       10    17  47    4.8132   429.9    6.709      39.296
2015    4       10    17  53    4.8135   429.9    6.709      39.307
2015    4       10    17  59    4.8139   430.0    6.709      39.319
2015    4       10    18   5    4.8142   430.0    6.709      39.330
2015    4       10    18  11    4.8144   430.0    6.708      39.342
2015    4       10    18  16    4.8147   430.1    6.708      39.353
2015    4       10    18  22    4.8150   430.1    6.708      39.364
2015    4       10    18  28    4.8153   430.1    6.707      39.375
2015    4       10    18  34    4.8155   430.2    6.707      39.385
2015    4       10    18  40    4.8158   430.2    6.706      39.395
2015    4       10    18  46    4.8160   430.2    6.706      39.406
2015    4       10    18  52    4.8162   430.3    6.705      39.416
2015    4       10    18  57    4.8165   430.3    6.705      39.426
2015    4       10    19   3    4.8167   430.4    6.704      39.435
2015    4       10    19   9    4.8169   430.4    6.703      39.445
2015    4       10    19  15    4.8171   430.4    6.702      39.454
2015    4       10    19  21    4.8173   430.5    6.702      39.463
2015    4       10    19  27    4.8175   430.5    6.701      39.472
2015    4       10    19  32    4.8177   430.5    6.700      39.481
2015    4       10    19  38    4.8179   430.6    6.699      39.490
2015    4       10    19  44    4.8181   430.6    6.698      39.499
2015    4       10    19  50    4.8183   430.6    6.697      39.507
2015    4       10    19  56    4.8184   430.7    6.696      39.516
2015    4       10    20   2    4.8186   430.7    6.695      39.524
2015    4       10    20   7    4.8188   430.7    6.694      39.532
2015    4       10    20  13    4.8190   430.8    6.693      39.541
2015    4       10    20  19    4.8192   430.8    6.692      39.549
2015    4       10    20  25    4.8193   430.8    6.691      39.557
2015    4       10    20  31    4.8195   430.9    6.690      39.565
2015    4       10    20  37    4.8197   430.9    6.689      39.573
2015    4       10    20  42    4.8199   430.9    6.688      39.582
2015    4       10    20  48    4.8200   431.0    6.687      39.590
2015    4       10    20  54    4.8202   431.0    6.686      39.598
2015    4       10    21   0    4.8204   431.0    6.685      39.606
2015    4       10    21   6    4.8206   431.1    6.684      39.615
2015    4       10    21  12    4.8208   431.1    6.683      39.623
2015    4       10    21  18    4.8210   431.1    6.682      39.632
2015    4       10    21  23    4.8212   431.2    6.681      39.640
2015    4       10    21  29    4.8214   431.2    6.680      39.649
2015    4       10    21  35    4.8216   431.2    6.680      39.658
2015    4       10    21  41    4.8219   431.3    6.679      39.666
2015    4       10    21  47    4.8221   431.3    6.678      39.675
2015    4       10    21  53    4.8223   431.3    6.677      39.684
2015    4       10    21  58    4.8226   431.4    6.677      39.693
2015    4       10    22   4    4.8228   431.4    6.676      39.702
2015    4       10    22  10    4.8231   431.5    6.676      39.712
2015    4       10    22  16    4.8233   431.5    6.675      39.721
2015    4       10    22  22    4.8236   431.5    6.675      39.730
2015    4       10    22  28    4.8238   431.6    6.675      39.740
2015    4       10    22  33    4.8241   431.6    6.674      39.749
2015    4       10    22  39    4.8243   431.6    6.674      39.759
2015    4       10    22  45    4.8246   431.7    6.674      39.768
2015    4       10    22  51    4.8248   431.7    6.674      39.778
2015    4       10    22  57    4.8250   431.8    6.674      39.787
2015    4       10    23   3    4.8252   431.8    6.674      39.796
2015    4       10    23   8    4.8254   431.8    6.674      39.806
2015    4       10    23  14    4.8256   431.9    6.674      39.815
2015    4       10    23  20    4.8258   431.9    6.674      39.824
2015    4       10    23  26    4.8260   432.0    6.674      39.834
2015    4       10    23  32    4.8261   432.0    6.674      39.843
2015    4       10    23  38    4.8263   432.1    6.674      39.852
2015    4       10    23  44    4.8264   432.1    6.675      39.861
2015    4       10    23  49    4.8266   432.1    6.675      39.870
2015    4       10    23  55    4.8267   432.2    6.675      39.879
2015    4       11     0   1    4.8268   432.2    6.675      39.888
2015    4       11     0   7    4.8269   432.3    6.675      39.897
2015    4       11     0  13    4.8270   432.3    6.676      39.906
2015    4       11     0  19    4.8271   432.4    6.676      39.915
2015    4       11     0  24    4.8272   432.4    6.676      39.924
2015    4       11     0  30    4.8273   432.4    6.676      39.932
2015    4       11     0  36    4.8274   432.5    6.676      39.941
2015    4       11     0  42    4.8275   432.5    6.676      39.949
2015    4       11     0  48    4.8276   432.6    6.676      39.957
2015    4       11     0  54    4.8277   432.6    6.676      39.965
2015    4       11     0  59    4.8279   432.7    6.677      39.973
2015    4       11     1   5    4.8280   432.7    6.677      39.981
2015    4       11     1  11    4.8281   432.7    6.677      39.989
2015    4       11     1  17    4.8282   432.8    6.677      39.996
2015    4       11     1  23    4.8284   432.8    6.677      40.004
2015    4       11     1  29    4.8285   432.9    6.677      40.012
2015    4       11     1  34    4.8287   432.9    6.678      40.020
2015    4       11     1  40    4.8289   433.0    6.678      40.028
2015    4       11     1  46    4.8290   433.0    6.678      40.036
2015    4       11     1  52    4.8292   433.0    6.679      40.044
2015    4       11     1  58    4.8293   433.1    6.679      40.052
2015    4       11     2   4    4.8295   433.1    6.679      40.061
2015    4       11     2  10    4.8296   433.2    6.679      40.069
2015    4       11     2  15    4.8298   433.2    6.680      40.078
2015    4       11     2  21    4.8299   433.3    6.680      40.087
2015    4       11     2  27    4.8300   433.3    6.680      40.097
2015    4       11     2  33    4.8301   433.4    6.680      40.107
2015    4       11     2  39    4.8301   433.4    6.680      40.118
2015    4       11     2  45    4.8302   433.5    6.680      40.128
2015    4       11     2  50    4.8302   433.5    6.680      40.140
2015    4       11     2  56    4.8302   433.6    6.680      40.151
2015    4       11     3   2    4.8302   433.6    6.680      40.162
2015    4       11     3   8    4.8302   433.7    6.679      40.173
2015    4       11     3  14    4.8302   433.7    6.679      40.184
2015    4       11     3  20    4.8301   433.8    6.678      40.195
2015    4       11     3  25    4.8301   433.8    6.678      40.205
2015    4       11     3  31    4.8300   433.8    6.677      40.215
2015    4       11     3  37    4.8299   433.9    6.676      40.225
2015    4       11     3  43    4.8299   433.9    6.675      40.235
2015    4       11     3  49    4.8298   434.0    6.675      40.245
2015    4       11     3  55    4.8297   434.0    6.674      40.254
2015    4       11     4   0    4.8295   434.1    6.673      40.264
2015    4       11     4   6    4.8294   434.1    6.672      40.273
2015    4       11     4  12    4.8293   434.2    6.671      40.282
2015    4       11     4  18    4.8292   434.2    6.670      40.291
2015    4       11     4  24    4.8290   434.2    6.669      40.299
2015    4       11     4  30    4.8289   434.3    6.668      40.308
2015    4       11     4  36    4.8287   434.3    6.667      40.316
2015    4       11     4  41    4.8286   434.4    6.666      40.325
2015    4       11     4  47    4.8284   434.4    6.665      40.333
2015    4       11     4  53    4.8282   434.5    6.664      40.341
2015    4       11     4  59    4.8281   434.5    6.662      40.349
2015    4       11     5   5    4.8279   434.6    6.661      40.356
2015    4       11     5  11    4.8277   434.6    6.660      40.364
2015    4       11     5  16    4.8275   434.6    6.659      40.371
2015    4       11     5  22    4.8273   434.7    6.658      40.378
2015    4       11     5  28    4.8271   434.7    6.656      40.386
2015    4       11     5  34    4.8269   434.8    6.655      40.392
2015    4       11     5  40    4.8267   434.8    6.654      40.399
2015    4       11     5  46    4.8265   434.9    6.653      40.406
2015    4       11     5  51    4.8263   434.9    6.652      40.412
2015    4       11     5  57    4.8260   434.9    6.650      40.418
2015    4       11     6   3    4.8258   435.0    6.649      40.424
2015    4       11     6   9    4.8256   435.0    6.648      40.430
2015    4       11     6  15    4.8253   435.1    6.647      40.436
2015    4       11     6  21    4.8251   435.1    6.646      40.441
2015    4       11     6  26    4.8249   435.2    6.644      40.446
2015    4       11     6  32    4.8246   435.2    6.643      40.451
2015    4       11     6  38    4.8244   435.2    6.642      40.456
2015    4       11     6  44    4.8241   435.3    6.641      40.461
2015    4       11     6  50    4.8238   435.3    6.640      40.465
2015    4       11     6  56    4.8236   435.4    6.638      40.470
2015    4       11     7   2    4.8233   435.4    6.637      40.474
2015    4       11     7   7    4.8231   435.5    6.636      40.478
2015    4       11     7  13    4.8228   435.5    6.635      40.481
2015    4       11     7  19    4.8226   435.5    6.634      40.485
2015    4       11     7  25    4.8223   435.6    6.633      40.489
2015    4       11     7  31    4.8221   435.6    6.632      40.492
2015    4       11     7  37    4.8219   435.7    6.631      40.495
2015    4       11     7  42    4.8217   435.7    6.630      40.499
2015    4       11     7  48    4.8214   435.7    6.630      40.502
2015    4       11     7  54    4.8212   435.8    6.629      40.505
2015    4       11     8   0    4.8210   435.8    6.628      40.508
2015    4       11     8   6    4.8209   435.9    6.627      40.511
2015    4       11     8  12    4.8207   435.9    6.627      40.514
2015    4       11     8  17    4.8205   435.9    6.626      40.517
2015    4       11     8  23    4.8204   436.0    6.626      40.520
2015    4       11     8  29    4.8202   436.0    6.625      40.524
2015    4       11     8  35    4.8201   436.1    6.625      40.527
2015    4       11     8  41    4.8200   436.1    6.625      40.530
2015    4       11     8  47    4.8198   436.2    6.624      40.533
2015    4       11     8  52    4.8197   436.2    6.624      40.536
2015    4       11     8  58    4.8196   436.2    6.624      40.539
2015    4       11     9   4    4.8195   436.3    6.624      40.543
2015    4       11     9  10    4.8194   436.3    6.624      40.546
2015    4       11     9  16    4.8193   436.4    6.624      40.550
2015    4       11     9  22    4.8191   436.4    6.624      40.554
2015    4       11     9  28    4.8190   436.4    6.624      40.558
2015    4       11     9  33    4.8188   436.5    6.623      40.563
2015    4       11     9  39    4.8186   436.5    6.623      40.567
2015    4       11     9  45    4.8184   436.6    6.623      40.573
2015    4       11     9  51    4.8182   436.6    6.623      40.578
2015    4       11     9  57    4.8180   436.7    6.623      40.584
2015    4       11    10   3    4.8177   436.7    6.623      40.591
2015    4       11    10   8    4.8174   436.8    6.622      40.597
2015    4       11    10  14    4.8171   436.8    6.622      40.604
2015    4       11    10  20    4.8168   436.9    6.621      40.611
2015    4       11    10  26    4.8165   436.9    6.621      40.617
2015    4       11    10  32    4.8161   436.9    6.620      40.624
2015    4       11    10  38    4.8158   437.0    6.619      40.630
2015    4       11    10  43    4.8154   437.0    6.618      40.636
2015    4       11    10  49    4.8150   437.1    6.618      40.641
2015    4       11    10  55    4.8146   437.1    6.617      40.647
2015    4       11    11   1    4.8142   437.2    6.616      40.652
2015    4       11    11   7    4.8138   437.2    6.615      40.657
2015    4       11    11  13    4.8134   437.2    6.614      40.663
2015    4       11    11  18    4.8129   437.3    6.613      40.668
2015    4       11    11  24    4.8125   437.3    6.612      40.672
2015    4       11    11  30    4.8121   437.4    6.611      40.677
2015    4       11    11  36    4.8116   437.4    6.610      40.682
2015    4       11    11  42    4.8112   437.4    6.609      40.686
2015    4       11    11  48    4.8108   437.5    6.607      40.691
2015    4       11    11  54    4.8103   437.5    6.606      40.695
2015    4       11    11  59    4.8099   437.6    6.605      40.699
2015    4       11    12   5    4.8094   437.6    6.604      40.704
2015    4       11    12  11    4.8090   437.6    6.603      40.708
2015    4       11    12  17    4.8085   437.7    6.601      40.712
2015    4       11    12  23    4.8081   437.7    6.600      40.716
2015    4       11    12  29    4.8076   437.8    6.599      40.720
2015    4       11    12  34    4.8072   437.8    6.598      40.724
2015    4       11    12  40    4.8067   437.8    6.596      40.728
2015    4       11    12  46    4.8063   437.9    6.595      40.731
2015    4       11    12  52    4.8058   437.9    6.594      40.735
2015    4       11    12  58    4.8054   437.9    6.592      40.739
2015    4       11    13   4    4.8049   438.0    6.591      40.742
2015    4       11    13   9    4.8045   438.0    6.590      40.746
2015    4       11    13  15    4.8040   438.1    6.588      40.749
2015    4       11    13  21    4.8036   438.1    6.587      40.753
2015    4       11    13  27    4.8031   438.1    6.586      40.756
2015    4       11    13  33    4.8027   438.2    6.584      40.759
2015    4       11    13  39    4.8022   438.2    6.583      40.762
2015    4       11    13  44    4.8018   438.3    6.582      40.765
2015    4       11    13  50    4.8013   438.3    6.580      40.768
2015    4       11    13  56    4.8009   438.3    6.579      40.771
2015    4       11    14   2    4.8005   438.4    6.578      40.774
2015    4       11    14   8    4.8000   438.4    6.576      40.777
2015    4       11    14  14    4.7996   438.4    6.575      40.779
2015    4       11    14  20    4.7991   438.5    6.573      40.782
2015    4       11    14  25    4.7987   438.5    6.572      40.784
2015    4       11    14  31    4.7982   438.5    6.571      40.786
2015    4       11    14  37    4.7978   438.6    6.569      40.789
2015    4       11    14  43    4.7974   438.6    6.568      40.791
2015    4       11    14  49    4.7969   438.7    6.566      40.793
2015    4       11    14  55    4.7965   438.7    6.565      40.795
2015    4       11    15   0    4.7961   438.7    6.564      40.796
2015    4       11    15   6    4.7956   438.8    6.562      40.798
2015    4       11    15  12    4.7952   438.8    6.561      40.799
2015    4       11    15  18    4.7948   438.8    6.559      40.801
2015    4       11    15  24    4.7943   438.9    6.558      40.802
2015    4       11    15  30    4.7939   438.9    6.557      40.803
2015    4       11    15  35    4.7935   438.9    6.555      40.804
2015    4       11    15  41    4.7930   439.0    6.554      40.805
2015    4       11    15  47    4.7926   439.0    6.552      40.805
2015    4       11    15  53    4.7922   439.0    6.551      40.806
2015    4       11    15  59    4.7918   439.1    6.549      40.806
2015    4       11    16   5    4.7913   439.1    6.548      40.806
2015    4       11    16  10    4.7909   439.1    6.547      40.806
2015    4       11    16  16    4.7905   439.2    6.545      40.806
2015    4       11    16  22    4.7901   439.2    6.544      40.806
2015    4       11    16  28    4.7896   439.2    6.542      40.805
2015    4       11    16  34    4.7892   439.3    6.541      40.804
2015    4       11    16  40    4.7888   439.3    6.539      40.804
2015    4       11    16  46    4.7883   439.3    6.538      40.803
2015    4       11    16  51    4.7879   439.4    6.536      40.801
2015    4       11    16  57    4.7875   439.4    6.535      40.800
2015    4       11    17   3    4.7871   439.4    6.533      40.799
2015    4       11    17   9    4.7866   439.4    6.532      40.797
2015    4       11    17  15    4.7862   439.5    6.530      40.796
2015    4       11    17  21    4.7858   439.5    6.529      40.794
2015    4       11    17  26    4.7854   439.5    6.528      40.792
2015    4       11    17  32    4.7850   439.6    6.526      40.791
2015    4       11    17  38    4.7846   439.6    6.525      40.789
2015    4       11    17  44    4.7841   439.6    6.523      40.787
2015    4       11    17  50    4.7837   439.6    6.522      40.785
2015    4       11    17  56    4.7834   439.7    6.520      40.783
2015    4       11    18   1    4.7830   439.7    6.519      40.781
2015    4       11    18   7    4.7826   439.7    6.518      40.780
2015    4       11    18  13    4.7822   439.7    6.516      40.778
2015    4       11    18  19    4.7818   439.8    6.515      40.776
2015    4       11    18  25    4.7815   439.8    6.514      40.774
2015    4       11    18  31    4.7811   439.8    6.512      40.772
2015    4       11    18  36    4.7808   439.9    6.511      40.771
2015    4       11    18  42    4.7804   439.9    6.510      40.769
2015    4       11    18  48    4.7801   439.9    6.509      40.768
2015    4       11    18  54    4.7798   439.9    6.508      40.767
2015    4       11    19   0    4.7795   440.0    6.507      40.765
2015    4       11    19   6    4.7792   440.0    6.505      40.764
2015    4       11    19  12    4.7789   440.0    6.504      40.763
2015    4       11    19  17    4.7786   440.0    6.503      40.763
2015    4       11    19  23    4.7783   440.1    6.502      40.762
2015    4       11    19  29    4.7780   440.1    6.502      40.761
2015    4       11    19  35    4.7777   440.1    6.501      40.761
2015    4       11    19  41    4.7774   440.1    6.500      40.761
2015    4       11    19  47    4.7772   440.1    6.499      40.761
2015    4       11    19  52    4.7769   440.2    6.498      40.761
2015    4       11    19  58    4.7767   440.2    6.497      40.761
2015    4       11    20   4    4.7764   440.2    6.497      40.761
2015    4       11    20  10    4.7762   440.2    6.496      40.761
2015    4       11    20  16    4.7759   440.3    6.495      40.762
2015    4       11    20  22    4.7757   440.3    6.495      40.763
2015    4       11    20  27    4.7755   440.3    6.494      40.763
2015    4       11    20  33    4.7753   440.3    6.494      40.764
2015    4       11    20  39    4.7750   440.4    6.493      40.765
2015    4       11    20  45    4.7748   440.4    6.492      40.767
2015    4       11    20  51    4.7746   440.4    6.492      40.768
2015    4       11    20  57    4.7744   440.4    6.491      40.769
2015    4       11    21   2    4.7742   440.5    6.491      40.771
2015    4       11    21   8    4.7739   440.5    6.490      40.772
2015    4       11    21  14    4.7737   440.5    6.490      40.774
2015    4       11    21  20    4.7735   440.5    6.490      40.775
2015    4       11    21  26    4.7733   440.5    6.489      40.777
2015    4       11    21  32    4.7731   440.6    6.489      40.779
2015    4       11    21  38    4.7729   440.6    6.488      40.780
2015    4       11    21  43    4.7726   440.6    6.488      40.782
2015    4       11    21  49    4.7724   440.6    6.487      40.784
2015    4       11    21  55    4.7722   440.7    6.487      40.786
2015    4       11    22   1    4.7720   440.7    6.486      40.788
2015    4       11    22   7    4.7718   440.7    6.486      40.789
2015    4       11    22  13    4.7716   440.7    6.486      40.791
2015    4       11    22  18    4.7714   440.7    6.485      40.793
2015    4       11    22  24    4.7713   440.8    6.485      40.794
2015    4       11    22  30    4.7711   440.8    6.484      40.796
2015    4       11    22  36    4.7709   440.8    6.483      40.797
2015    4       11    22  42    4.7707   440.8    6.483      40.799
2015    4       11    22  48    4.7706   440.8    6.482      40.800
2015    4       11    22  53    4.7704   440.9    6.482      40.802
2015    4       11    22  59    4.7703   440.9    6.481      40.803
2015    4       11    23   5    4.7702   440.9    6.481      40.804
2015    4       11    23  11    4.7701   440.9    6.480      40.805
2015    4       11    23  17    4.7700   440.9    6.479      40.806
2015    4       11    23  23    4.7699   441.0    6.479      40.807
2015    4       11    23  28    4.7698   441.0    6.478      40.808
2015    4       11    23  34    4.7697   441.0    6.477      40.808
2015    4       11    23  40    4.7697   441.0    6.477      40.809
2015    4       11    23  46    4.7696   441.0    6.476      40.810
2015    4       11    23  52    4.7696   441.0    6.475      40.810
2015    4       11    23  58    4.7696   441.1    6.475      40.810
2015    4       12     0   4    4.7696   441.1    6.474      40.811
