year    month   day   hour  minute  B_enl V_enl   n_enl       T_enl
[year] [month] [day] [hour][minute] [nT]  [km/s]  [cm-3]      [kK]
2015    4       27     0   2    4.9385   374.7    8.754      33.571
2015    4       27     0   8    4.9393   374.8    8.754      33.570
2015    4       27     0  14    4.9402   374.8    8.754      33.570
2015    4       27     0  19    4.9410   374.8    8.754      33.569
2015    4       27     0  25    4.9419   374.8    8.754      33.569
2015    4       27     0  31    4.9428   374.8    8.754      33.569
2015    4       27     0  37    4.9436   374.9    8.754      33.568
2015    4       27     0  43    4.9445   374.9    8.755      33.568
2015    4       27     0  49    4.9454   374.9    8.755      33.567
2015    4       27     0  54    4.9463   374.9    8.755      33.566
2015    4       27     1   0    4.9471   374.9    8.755      33.566
2015    4       27     1   6    4.9480   375.0    8.755      33.565
2015    4       27     1  12    4.9489   375.0    8.756      33.565
2015    4       27     1  18    4.9498   375.0    8.756      33.564
2015    4       27     1  24    4.9507   375.0    8.756      33.563
2015    4       27     1  29    4.9516   375.1    8.756      33.563
2015    4       27     1  35    4.9525   375.1    8.757      33.562
2015    4       27     1  41    4.9534   375.1    8.757      33.562
2015    4       27     1  47    4.9543   375.1    8.757      33.561
2015    4       27     1  53    4.9552   375.1    8.758      33.560
2015    4       27     1  59    4.9561   375.2    8.758      33.560
2015    4       27     2   4    4.9570   375.2    8.759      33.559
2015    4       27     2  10    4.9580   375.2    8.759      33.559
2015    4       27     2  16    4.9589   375.2    8.760      33.558
2015    4       27     2  22    4.9599   375.2    8.760      33.558
2015    4       27     2  28    4.9608   375.3    8.761      33.558
2015    4       27     2  34    4.9618   375.3    8.761      33.557
2015    4       27     2  39    4.9628   375.3    8.762      33.557
2015    4       27     2  45    4.9638   375.3    8.762      33.557
2015    4       27     2  51    4.9648   375.4    8.763      33.557
2015    4       27     2  57    4.9658   375.4    8.764      33.557
2015    4       27     3   3    4.9669   375.4    8.764      33.557
2015    4       27     3   9    4.9679   375.4    8.765      33.557
2015    4       27     3  14    4.9690   375.4    8.766      33.558
2015    4       27     3  20    4.9700   375.5    8.767      33.558
2015    4       27     3  26    4.9711   375.5    8.767      33.559
2015    4       27     3  32    4.9722   375.5    8.768      33.559
2015    4       27     3  38    4.9733   375.5    8.769      33.560
2015    4       27     3  44    4.9744   375.6    8.769      33.560
2015    4       27     3  49    4.9755   375.6    8.770      33.561
2015    4       27     3  55    4.9766   375.6    8.771      33.562
2015    4       27     4   1    4.9778   375.6    8.772      33.563
2015    4       27     4   7    4.9789   375.6    8.772      33.564
2015    4       27     4  13    4.9801   375.7    8.773      33.565
2015    4       27     4  18    4.9812   375.7    8.774      33.566
2015    4       27     4  24    4.9824   375.7    8.775      33.567
2015    4       27     4  30    4.9836   375.7    8.775      33.568
2015    4       27     4  36    4.9848   375.8    8.776      33.569
2015    4       27     4  42    4.9860   375.8    8.777      33.569
2015    4       27     4  48    4.9873   375.8    8.778      33.570
2015    4       27     4  53    4.9885   375.8    8.778      33.571
2015    4       27     4  59    4.9898   375.9    8.779      33.572
2015    4       27     5   5    4.9911   375.9    8.780      33.573
2015    4       27     5  11    4.9924   375.9    8.781      33.574
2015    4       27     5  17    4.9937   375.9    8.782      33.575
2015    4       27     5  23    4.9950   375.9    8.782      33.576
2015    4       27     5  28    4.9963   376.0    8.783      33.577
2015    4       27     5  34    4.9977   376.0    8.784      33.578
2015    4       27     5  40    4.9991   376.0    8.785      33.579
2015    4       27     5  46    5.0004   376.0    8.786      33.580
2015    4       27     5  52    5.0019   376.1    8.787      33.581
2015    4       27     5  58    5.0033   376.1    8.788      33.582
2015    4       27     6   3    5.0047   376.1    8.789      33.583
2015    4       27     6   9    5.0062   376.1    8.791      33.584
2015    4       27     6  15    5.0077   376.1    8.792      33.585
2015    4       27     6  21    5.0091   376.2    8.793      33.586
2015    4       27     6  27    5.0107   376.2    8.795      33.587
2015    4       27     6  33    5.0122   376.2    8.796      33.589
2015    4       27     6  38    5.0138   376.2    8.798      33.590
2015    4       27     6  44    5.0154   376.3    8.799      33.592
2015    4       27     6  50    5.0170   376.3    8.801      33.593
2015    4       27     6  56    5.0186   376.3    8.803      33.595
2015    4       27     7   2    5.0203   376.3    8.805      33.597
2015    4       27     7   8    5.0220   376.4    8.807      33.599
2015    4       27     7  13    5.0236   376.4    8.809      33.601
2015    4       27     7  19    5.0253   376.4    8.811      33.603
2015    4       27     7  25    5.0270   376.4    8.813      33.606
2015    4       27     7  31    5.0287   376.5    8.816      33.609
2015    4       27     7  37    5.0305   376.5    8.818      33.612
2015    4       27     7  43    5.0322   376.5    8.821      33.615
2015    4       27     7  48    5.0339   376.5    8.823      33.619
2015    4       27     7  54    5.0356   376.6    8.826      33.623
2015    4       27     8   0    5.0374   376.6    8.828      33.627
2015    4       27     8   6    5.0391   376.6    8.831      33.630
2015    4       27     8  12    5.0409   376.7    8.833      33.635
2015    4       27     8  17    5.0426   376.7    8.836      33.639
2015    4       27     8  23    5.0444   376.7    8.839      33.643
2015    4       27     8  29    5.0461   376.7    8.842      33.647
2015    4       27     8  35    5.0479   376.8    8.845      33.651
2015    4       27     8  41    5.0497   376.8    8.847      33.655
2015    4       27     8  47    5.0515   376.8    8.850      33.659
2015    4       27     8  52    5.0532   376.9    8.853      33.663
2015    4       27     8  58    5.0550   376.9    8.856      33.668
2015    4       27     9   4    5.0568   376.9    8.859      33.672
2015    4       27     9  10    5.0587   377.0    8.863      33.676
2015    4       27     9  16    5.0605   377.0    8.866      33.681
2015    4       27     9  22    5.0624   377.0    8.869      33.685
2015    4       27     9  27    5.0642   377.0    8.873      33.690
2015    4       27     9  33    5.0661   377.1    8.876      33.695
2015    4       27     9  39    5.0680   377.1    8.879      33.700
2015    4       27     9  45    5.0699   377.1    8.883      33.706
2015    4       27     9  51    5.0718   377.2    8.886      33.711
2015    4       27     9  57    5.0738   377.2    8.890      33.717
2015    4       27    10   2    5.0757   377.3    8.893      33.723
2015    4       27    10   8    5.0777   377.3    8.897      33.730
2015    4       27    10  14    5.0796   377.3    8.900      33.736
2015    4       27    10  20    5.0816   377.4    8.904      33.742
2015    4       27    10  26    5.0835   377.4    8.907      33.749
2015    4       27    10  32    5.0855   377.4    8.911      33.755
2015    4       27    10  37    5.0875   377.5    8.914      33.762
2015    4       27    10  43    5.0895   377.5    8.917      33.769
2015    4       27    10  49    5.0915   377.5    8.921      33.775
2015    4       27    10  55    5.0935   377.6    8.924      33.782
2015    4       27    11   1    5.0956   377.6    8.928      33.789
2015    4       27    11   7    5.0976   377.6    8.931      33.795
2015    4       27    11  12    5.0996   377.7    8.934      33.802
2015    4       27    11  18    5.1017   377.7    8.937      33.809
2015    4       27    11  24    5.1038   377.8    8.941      33.816
2015    4       27    11  30    5.1059   377.8    8.944      33.823
2015    4       27    11  36    5.1080   377.8    8.947      33.830
2015    4       27    11  41    5.1101   377.9    8.950      33.837
2015    4       27    11  47    5.1122   377.9    8.954      33.844
2015    4       27    11  53    5.1144   377.9    8.957      33.851
2015    4       27    11  59    5.1165   378.0    8.960      33.858
2015    4       27    12   5    5.1187   378.0    8.963      33.865
2015    4       27    12  11    5.1209   378.1    8.966      33.872
2015    4       27    12  16    5.1232   378.1    8.970      33.879
2015    4       27    12  22    5.1254   378.1    8.973      33.887
2015    4       27    12  28    5.1277   378.2    8.976      33.894
2015    4       27    12  34    5.1300   378.2    8.980      33.901
2015    4       27    12  40    5.1324   378.3    8.983      33.909
2015    4       27    12  46    5.1347   378.3    8.986      33.916
2015    4       27    12  51    5.1371   378.3    8.990      33.924
2015    4       27    12  57    5.1396   378.4    8.993      33.932
2015    4       27    13   3    5.1420   378.4    8.997      33.940
2015    4       27    13   9    5.1445   378.4    9.001      33.948
2015    4       27    13  15    5.1471   378.5    9.005      33.956
2015    4       27    13  21    5.1497   378.5    9.009      33.965
2015    4       27    13  26    5.1523   378.6    9.013      33.974
2015    4       27    13  32    5.1550   378.6    9.017      33.983
2015    4       27    13  38    5.1577   378.6    9.021      33.992
2015    4       27    13  44    5.1604   378.7    9.026      34.002
2015    4       27    13  50    5.1633   378.7    9.031      34.011
2015    4       27    13  56    5.1662   378.8    9.036      34.021
2015    4       27    14   1    5.1691   378.8    9.041      34.032
2015    4       27    14   7    5.1720   378.9    9.046      34.043
2015    4       27    14  13    5.1750   378.9    9.052      34.055
2015    4       27    14  19    5.1780   379.0    9.057      34.067
2015    4       27    14  25    5.1811   379.0    9.063      34.080
2015    4       27    14  31    5.1842   379.1    9.068      34.093
2015    4       27    14  36    5.1872   379.1    9.074      34.107
2015    4       27    14  42    5.1903   379.2    9.080      34.122
2015    4       27    14  48    5.1934   379.2    9.086      34.137
2015    4       27    14  54    5.1965   379.3    9.091      34.151
2015    4       27    15   0    5.1996   379.3    9.097      34.167
2015    4       27    15   6    5.2027   379.4    9.103      34.182
2015    4       27    15  11    5.2058   379.5    9.108      34.197
2015    4       27    15  17    5.2088   379.5    9.114      34.212
2015    4       27    15  23    5.2119   379.6    9.120      34.227
2015    4       27    15  29    5.2150   379.6    9.125      34.242
2015    4       27    15  35    5.2180   379.7    9.131      34.257
2015    4       27    15  40    5.2210   379.8    9.136      34.271
2015    4       27    15  46    5.2240   379.8    9.141      34.286
2015    4       27    15  52    5.2270   379.9    9.147      34.302
2015    4       27    15  58    5.2300   379.9    9.152      34.317
2015    4       27    16   4    5.2329   380.0    9.157      34.332
2015    4       27    16  10    5.2359   380.1    9.162      34.348
2015    4       27    16  15    5.2388   380.1    9.167      34.364
2015    4       27    16  21    5.2417   380.2    9.171      34.380
2015    4       27    16  27    5.2446   380.3    9.176      34.395
2015    4       27    16  33    5.2475   380.3    9.180      34.410
2015    4       27    16  39    5.2504   380.4    9.185      34.425
2015    4       27    16  45    5.2533   380.5    9.189      34.440
2015    4       27    16  50    5.2562   380.6    9.193      34.455
2015    4       27    16  56    5.2591   380.6    9.197      34.470
2015    4       27    17   2    5.2619   380.7    9.201      34.484
2015    4       27    17   8    5.2648   380.8    9.205      34.499
2015    4       27    17  14    5.2676   380.8    9.209      34.514
2015    4       27    17  20    5.2704   380.9    9.212      34.529
2015    4       27    17  25    5.2733   381.0    9.216      34.543
2015    4       27    17  31    5.2761   381.0    9.219      34.558
2015    4       27    17  37    5.2789   381.1    9.222      34.572
2015    4       27    17  43    5.2817   381.2    9.225      34.587
2015    4       27    17  49    5.2845   381.3    9.228      34.601
2015    4       27    17  55    5.2873   381.3    9.231      34.615
2015    4       27    18   0    5.2901   381.4    9.234      34.629
2015    4       27    18   6    5.2929   381.5    9.237      34.642
2015    4       27    18  12    5.2957   381.6    9.239      34.656
2015    4       27    18  18    5.2985   381.6    9.242      34.669
2015    4       27    18  24    5.3012   381.7    9.244      34.682
2015    4       27    18  30    5.3041   381.8    9.247      34.695
2015    4       27    18  35    5.3068   381.9    9.249      34.708
2015    4       27    18  41    5.3097   381.9    9.251      34.721
2015    4       27    18  47    5.3125   382.0    9.253      34.733
2015    4       27    18  53    5.3153   382.1    9.255      34.746
2015    4       27    18  59    5.3181   382.1    9.258      34.758
2015    4       27    19   4    5.3209   382.2    9.260      34.771
2015    4       27    19  10    5.3238   382.3    9.262      34.783
2015    4       27    19  16    5.3266   382.4    9.264      34.795
2015    4       27    19  22    5.3295   382.4    9.266      34.808
2015    4       27    19  28    5.3324   382.5    9.268      34.820
2015    4       27    19  34    5.3353   382.6    9.270      34.832
2015    4       27    19  39    5.3382   382.7    9.272      34.844
2015    4       27    19  45    5.3411   382.7    9.274      34.856
2015    4       27    19  51    5.3441   382.8    9.276      34.868
2015    4       27    19  57    5.3470   382.9    9.278      34.880
2015    4       27    20   3    5.3500   383.0    9.281      34.892
2015    4       27    20   9    5.3530   383.0    9.283      34.904
2015    4       27    20  14    5.3561   383.1    9.285      34.917
2015    4       27    20  20    5.3591   383.2    9.287      34.929
2015    4       27    20  26    5.3622   383.3    9.290      34.942
2015    4       27    20  32    5.3654   383.3    9.292      34.955
2015    4       27    20  38    5.3685   383.4    9.295      34.968
2015    4       27    20  44    5.3717   383.5    9.298      34.981
2015    4       27    20  49    5.3749   383.6    9.301      34.994
2015    4       27    20  55    5.3782   383.6    9.304      35.008
2015    4       27    21   1    5.3815   383.7    9.307      35.022
2015    4       27    21   7    5.3849   383.8    9.310      35.035
2015    4       27    21  13    5.3883   383.9    9.314      35.050
2015    4       27    21  19    5.3917   383.9    9.318      35.065
2015    4       27    21  24    5.3952   384.0    9.322      35.081
2015    4       27    21  30    5.3988   384.1    9.326      35.097
2015    4       27    21  36    5.4023   384.2    9.330      35.114
2015    4       27    21  42    5.4059   384.3    9.334      35.131
2015    4       27    21  48    5.4096   384.4    9.339      35.149
2015    4       27    21  54    5.4132   384.4    9.344      35.167
2015    4       27    21  59    5.4169   384.5    9.348      35.186
2015    4       27    22   5    5.4206   384.6    9.353      35.205
2015    4       27    22  11    5.4243   384.7    9.358      35.224
2015    4       27    22  17    5.4280   384.8    9.363      35.244
2015    4       27    22  23    5.4317   384.9    9.368      35.264
2015    4       27    22  28    5.4354   385.0    9.373      35.284
2015    4       27    22  34    5.4391   385.1    9.378      35.305
2015    4       27    22  40    5.4428   385.2    9.384      35.326
2015    4       27    22  46    5.4464   385.2    9.389      35.348
2015    4       27    22  52    5.4501   385.3    9.394      35.370
2015    4       27    22  58    5.4538   385.4    9.399      35.393
2015    4       27    23   3    5.4575   385.5    9.405      35.417
2015    4       27    23   9    5.4611   385.6    9.410      35.441
2015    4       27    23  15    5.4648   385.7    9.415      35.465
2015    4       27    23  21    5.4684   385.8    9.421      35.491
2015    4       27    23  27    5.4720   385.9    9.426      35.518
2015    4       27    23  33    5.4756   386.0    9.431      35.545
2015    4       27    23  38    5.4791   386.1    9.436      35.573
2015    4       27    23  44    5.4826   386.2    9.440      35.601
2015    4       27    23  50    5.4861   386.3    9.445      35.630
2015    4       27    23  56    5.4896   386.4    9.449      35.658
2015    4       28     0   2    5.4930   386.5    9.453      35.688
2015    4       28     0   8    5.4964   386.6    9.457      35.716
2015    4       28     0  13    5.4998   386.7    9.460      35.745
2015    4       28     0  19    5.5031   386.8    9.463      35.773
2015    4       28     0  25    5.5064   386.9    9.467      35.800
2015    4       28     0  31    5.5097   387.0    9.469      35.827
2015    4       28     0  37    5.5130   387.1    9.472      35.854
2015    4       28     0  43    5.5162   387.2    9.475      35.881
2015    4       28     0  48    5.5194   387.3    9.477      35.907
2015    4       28     0  54    5.5226   387.4    9.479      35.933
2015    4       28     1   0    5.5258   387.5    9.481      35.959
2015    4       28     1   6    5.5290   387.7    9.483      35.984
2015    4       28     1  12    5.5321   387.8    9.484      36.008
2015    4       28     1  18    5.5353   387.9    9.486      36.033
2015    4       28     1  23    5.5384   388.0    9.487      36.057
2015    4       28     1  29    5.5415   388.1    9.488      36.080
2015    4       28     1  35    5.5446   388.2    9.489      36.104
2015    4       28     1  41    5.5477   388.3    9.490      36.127
2015    4       28     1  47    5.5508   388.4    9.491      36.150
2015    4       28     1  53    5.5539   388.5    9.491      36.172
2015    4       28     1  58    5.5570   388.6    9.492      36.195
2015    4       28     2   4    5.5600   388.7    9.492      36.217
2015    4       28     2  10    5.5631   388.8    9.493      36.239
2015    4       28     2  16    5.5662   388.9    9.493      36.261
2015    4       28     2  22    5.5693   389.0    9.493      36.282
2015    4       28     2  27    5.5723   389.1    9.493      36.304
2015    4       28     2  33    5.5754   389.2    9.493      36.325
2015    4       28     2  39    5.5785   389.3    9.493      36.346
2015    4       28     2  45    5.5816   389.4    9.493      36.367
2015    4       28     2  51    5.5846   389.5    9.493      36.388
2015    4       28     2  57    5.5877   389.6    9.493      36.409
2015    4       28     3   2    5.5908   389.8    9.493      36.429
2015    4       28     3   8    5.5939   389.9    9.493      36.450
2015    4       28     3  14    5.5970   390.0    9.492      36.470
2015    4       28     3  20    5.6001   390.1    9.492      36.491
2015    4       28     3  26    5.6032   390.2    9.492      36.511
2015    4       28     3  32    5.6063   390.3    9.492      36.532
2015    4       28     3  37    5.6094   390.4    9.491      36.552
2015    4       28     3  43    5.6125   390.5    9.491      36.572
2015    4       28     3  49    5.6157   390.6    9.491      36.593
2015    4       28     3  55    5.6188   390.7    9.490      36.613
2015    4       28     4   1    5.6220   390.8    9.490      36.633
2015    4       28     4   7    5.6251   390.9    9.490      36.654
2015    4       28     4  12    5.6283   391.0    9.490      36.674
2015    4       28     4  18    5.6315   391.1    9.490      36.695
2015    4       28     4  24    5.6346   391.2    9.490      36.715
2015    4       28     4  30    5.6379   391.3    9.490      36.736
2015    4       28     4  36    5.6411   391.4    9.490      36.757
2015    4       28     4  42    5.6443   391.6    9.490      36.778
2015    4       28     4  47    5.6476   391.7    9.491      36.799
2015    4       28     4  53    5.6509   391.8    9.491      36.821
2015    4       28     4  59    5.6542   391.9    9.492      36.843
2015    4       28     5   5    5.6576   392.0    9.492      36.865
2015    4       28     5  11    5.6609   392.1    9.493      36.887
2015    4       28     5  17    5.6643   392.2    9.494      36.910
2015    4       28     5  22    5.6677   392.3    9.495      36.933
2015    4       28     5  28    5.6711   392.4    9.496      36.957
2015    4       28     5  34    5.6745   392.5    9.498      36.981
2015    4       28     5  40    5.6779   392.6    9.499      37.005
2015    4       28     5  46    5.6813   392.8    9.501      37.031
2015    4       28     5  51    5.6848   392.9    9.502      37.056
2015    4       28     5  57    5.6882   393.0    9.504      37.083
2015    4       28     6   3    5.6917   393.1    9.506      37.111
2015    4       28     6   9    5.6952   393.2    9.508      37.139
2015    4       28     6  15    5.6987   393.3    9.510      37.169
2015    4       28     6  21    5.7021   393.5    9.512      37.200
2015    4       28     6  26    5.7056   393.6    9.514      37.231
2015    4       28     6  32    5.7091   393.7    9.516      37.264
2015    4       28     6  38    5.7125   393.8    9.518      37.298
2015    4       28     6  44    5.7159   393.9    9.520      37.332
2015    4       28     6  50    5.7193   394.1    9.522      37.368
2015    4       28     6  56    5.7227   394.2    9.524      37.403
2015    4       28     7   1    5.7260   394.3    9.525      37.439
2015    4       28     7   7    5.7293   394.4    9.527      37.476
2015    4       28     7  13    5.7325   394.6    9.528      37.512
2015    4       28     7  19    5.7357   394.7    9.529      37.549
2015    4       28     7  25    5.7389   394.8    9.530      37.586
2015    4       28     7  31    5.7420   394.9    9.530      37.622
2015    4       28     7  36    5.7451   395.1    9.531      37.658
2015    4       28     7  42    5.7482   395.2    9.531      37.693
2015    4       28     7  48    5.7512   395.3    9.531      37.728
2015    4       28     7  54    5.7542   395.4    9.531      37.763
2015    4       28     8   0    5.7572   395.6    9.531      37.797
2015    4       28     8   6    5.7602   395.7    9.531      37.832
2015    4       28     8  11    5.7632   395.8    9.530      37.865
2015    4       28     8  17    5.7661   395.9    9.530      37.899
2015    4       28     8  23    5.7690   396.1    9.529      37.932
2015    4       28     8  29    5.7719   396.2    9.528      37.965
2015    4       28     8  35    5.7748   396.3    9.527      37.997
2015    4       28     8  41    5.7777   396.4    9.526      38.029
2015    4       28     8  46    5.7805   396.6    9.525      38.061
2015    4       28     8  52    5.7834   396.7    9.524      38.093
2015    4       28     8  58    5.7862   396.8    9.522      38.124
2015    4       28     9   4    5.7891   397.0    9.521      38.155
2015    4       28     9  10    5.7919   397.1    9.520      38.186
2015    4       28     9  15    5.7947   397.2    9.518      38.217
2015    4       28     9  21    5.7976   397.4    9.517      38.248
2015    4       28     9  27    5.8004   397.5    9.515      38.278
2015    4       28     9  33    5.8032   397.6    9.514      38.308
2015    4       28     9  39    5.8060   397.8    9.512      38.339
2015    4       28     9  45    5.8088   397.9    9.511      38.369
2015    4       28     9  50    5.8115   398.0    9.509      38.401
2015    4       28     9  56    5.8142   398.2    9.507      38.432
2015    4       28    10   2    5.8169   398.3    9.505      38.464
2015    4       28    10   8    5.8196   398.5    9.503      38.496
2015    4       28    10  14    5.8223   398.6    9.501      38.529
2015    4       28    10  20    5.8249   398.7    9.499      38.561
2015    4       28    10  25    5.8275   398.9    9.497      38.594
2015    4       28    10  31    5.8301   399.0    9.494      38.626
2015    4       28    10  37    5.8326   399.2    9.492      38.658
2015    4       28    10  43    5.8351   399.3    9.489      38.690
2015    4       28    10  49    5.8376   399.5    9.486      38.722
2015    4       28    10  55    5.8401   399.6    9.483      38.754
2015    4       28    11   0    5.8425   399.7    9.480      38.785
2015    4       28    11   6    5.8449   399.9    9.477      38.816
2015    4       28    11  12    5.8473   400.0    9.474      38.847
2015    4       28    11  18    5.8497   400.2    9.470      38.878
2015    4       28    11  24    5.8520   400.3    9.467      38.908
2015    4       28    11  30    5.8544   400.5    9.464      38.939
2015    4       28    11  35    5.8567   400.6    9.460      38.969
2015    4       28    11  41    5.8590   400.7    9.456      38.999
2015    4       28    11  47    5.8614   400.9    9.453      39.029
2015    4       28    11  53    5.8637   401.0    9.449      39.059
2015    4       28    11  59    5.8660   401.2    9.445      39.089
2015    4       28    12   5    5.8682   401.3    9.442      39.118
2015    4       28    12  10    5.8705   401.5    9.438      39.148
2015    4       28    12  16    5.8728   401.6    9.434      39.178
2015    4       28    12  22    5.8751   401.7    9.430      39.208
2015    4       28    12  28    5.8774   401.9    9.426      39.237
2015    4       28    12  34    5.8796   402.0    9.422      39.267
2015    4       28    12  40    5.8819   402.2    9.418      39.297
2015    4       28    12  45    5.8841   402.3    9.414      39.326
2015    4       28    12  51    5.8864   402.5    9.410      39.356
2015    4       28    12  57    5.8886   402.6    9.406      39.385
2015    4       28    13   3    5.8909   402.8    9.402      39.414
2015    4       28    13   9    5.8931   402.9    9.397      39.444
2015    4       28    13  14    5.8954   403.1    9.393      39.473
2015    4       28    13  20    5.8976   403.2    9.389      39.502
2015    4       28    13  26    5.8999   403.4    9.385      39.532
2015    4       28    13  32    5.9021   403.5    9.381      39.563
2015    4       28    13  38    5.9043   403.7    9.376      39.593
2015    4       28    13  44    5.9065   403.8    9.372      39.625
2015    4       28    13  49    5.9086   404.0    9.367      39.656
2015    4       28    13  55    5.9107   404.1    9.363      39.688
2015    4       28    14   1    5.9128   404.3    9.358      39.720
2015    4       28    14   7    5.9148   404.5    9.353      39.752
2015    4       28    14  13    5.9168   404.6    9.348      39.783
2015    4       28    14  19    5.9188   404.8    9.343      39.815
2015    4       28    14  24    5.9207   404.9    9.338      39.846
2015    4       28    14  30    5.9226   405.1    9.332      39.876
2015    4       28    14  36    5.9245   405.2    9.327      39.907
2015    4       28    14  42    5.9264   405.4    9.321      39.937
2015    4       28    14  48    5.9282   405.6    9.316      39.967
2015    4       28    14  54    5.9299   405.7    9.310      39.997
2015    4       28    14  59    5.9317   405.9    9.304      40.026
2015    4       28    15   5    5.9334   406.0    9.298      40.055
2015    4       28    15  11    5.9351   406.2    9.292      40.084
2015    4       28    15  17    5.9368   406.3    9.286      40.113
2015    4       28    15  23    5.9384   406.5    9.280      40.142
2015    4       28    15  29    5.9400   406.7    9.274      40.170
2015    4       28    15  34    5.9416   406.8    9.268      40.198
2015    4       28    15  40    5.9432   407.0    9.262      40.226
2015    4       28    15  46    5.9447   407.1    9.256      40.253
2015    4       28    15  52    5.9463   407.3    9.249      40.281
2015    4       28    15  58    5.9478   407.5    9.243      40.308
2015    4       28    16   4    5.9493   407.6    9.237      40.335
2015    4       28    16   9    5.9507   407.8    9.230      40.362
2015    4       28    16  15    5.9521   408.0    9.224      40.389
2015    4       28    16  21    5.9536   408.1    9.218      40.416
2015    4       28    16  27    5.9550   408.3    9.211      40.442
2015    4       28    16  33    5.9563   408.4    9.205      40.468
2015    4       28    16  38    5.9576   408.6    9.198      40.495
2015    4       28    16  44    5.9589   408.8    9.192      40.521
2015    4       28    16  50    5.9602   409.0    9.186      40.547
2015    4       28    16  56    5.9614   409.1    9.179      40.573
2015    4       28    17   2    5.9626   409.3    9.173      40.600
2015    4       28    17   8    5.9637   409.5    9.166      40.627
2015    4       28    17  13    5.9648   409.6    9.160      40.654
2015    4       28    17  19    5.9658   409.8    9.153      40.681
2015    4       28    17  25    5.9668   410.0    9.146      40.709
2015    4       28    17  31    5.9678   410.1    9.140      40.737
2015    4       28    17  37    5.9687   410.3    9.133      40.765
2015    4       28    17  43    5.9696   410.5    9.126      40.793
2015    4       28    17  48    5.9704   410.6    9.119      40.821
2015    4       28    17  54    5.9712   410.8    9.112      40.849
2015    4       28    18   0    5.9720   411.0    9.104      40.877
2015    4       28    18   6    5.9728   411.1    9.097      40.906
2015    4       28    18  12    5.9735   411.3    9.089      40.935
2015    4       28    18  18    5.9742   411.5    9.082      40.964
2015    4       28    18  23    5.9748   411.7    9.074      40.993
2015    4       28    18  29    5.9755   411.8    9.066      41.022
2015    4       28    18  35    5.9761   412.0    9.059      41.051
2015    4       28    18  41    5.9767   412.2    9.051      41.080
2015    4       28    18  47    5.9772   412.4    9.043      41.108
2015    4       28    18  53    5.9777   412.6    9.034      41.136
2015    4       28    18  58    5.9781   412.7    9.026      41.164
2015    4       28    19   4    5.9785   412.9    9.018      41.191
2015    4       28    19  10    5.9789   413.1    9.009      41.218
2015    4       28    19  16    5.9793   413.3    9.001      41.245
2015    4       28    19  22    5.9796   413.4    8.992      41.271
2015    4       28    19  28    5.9799   413.6    8.983      41.297
2015    4       28    19  33    5.9802   413.8    8.974      41.322
2015    4       28    19  39    5.9804   414.0    8.965      41.348
2015    4       28    19  45    5.9806   414.1    8.956      41.373
2015    4       28    19  51    5.9807   414.3    8.947      41.398
2015    4       28    19  57    5.9809   414.5    8.938      41.423
2015    4       28    20   2    5.9810   414.7    8.929      41.447
2015    4       28    20   8    5.9810   414.9    8.919      41.471
2015    4       28    20  14    5.9811   415.0    8.910      41.494
2015    4       28    20  20    5.9811   415.2    8.900      41.517
2015    4       28    20  26    5.9810   415.4    8.891      41.540
2015    4       28    20  32    5.9810   415.6    8.881      41.563
2015    4       28    20  37    5.9809   415.7    8.871      41.585
2015    4       28    20  43    5.9808   415.9    8.862      41.607
2015    4       28    20  49    5.9806   416.1    8.852      41.628
2015    4       28    20  55    5.9805   416.3    8.842      41.649
2015    4       28    21   1    5.9803   416.4    8.832      41.670
2015    4       28    21   7    5.9801   416.6    8.823      41.691
2015    4       28    21  12    5.9799   416.8    8.813      41.711
2015    4       28    21  18    5.9796   416.9    8.803      41.732
2015    4       28    21  24    5.9793   417.1    8.793      41.752
2015    4       28    21  30    5.9790   417.3    8.783      41.772
2015    4       28    21  36    5.9787   417.5    8.773      41.792
2015    4       28    21  42    5.9783   417.6    8.763      41.812
2015    4       28    21  47    5.9779   417.8    8.753      41.831
2015    4       28    21  53    5.9775   418.0    8.743      41.851
2015    4       28    21  59    5.9771   418.2    8.733      41.870
2015    4       28    22   5    5.9766   418.3    8.723      41.889
2015    4       28    22  11    5.9762   418.5    8.713      41.908
2015    4       28    22  17    5.9757   418.7    8.703      41.926
2015    4       28    22  22    5.9752   418.9    8.693      41.944
2015    4       28    22  28    5.9746   419.0    8.683      41.962
2015    4       28    22  34    5.9740   419.2    8.673      41.979
2015    4       28    22  40    5.9733   419.4    8.663      41.996
2015    4       28    22  46    5.9726   419.6    8.653      42.013
2015    4       28    22  52    5.9719   419.7    8.643      42.029
2015    4       28    22  57    5.9712   419.9    8.633      42.046
2015    4       28    23   3    5.9704   420.1    8.623      42.062
2015    4       28    23   9    5.9695   420.3    8.613      42.077
2015    4       28    23  15    5.9687   420.4    8.603      42.093
2015    4       28    23  21    5.9678   420.6    8.593      42.108
2015    4       28    23  26    5.9669   420.8    8.582      42.123
2015    4       28    23  32    5.9659   421.0    8.572      42.137
2015    4       28    23  38    5.9649   421.2    8.562      42.152
2015    4       28    23  44    5.9639   421.3    8.552      42.166
2015    4       28    23  50    5.9628   421.5    8.541      42.180
2015    4       28    23  56    5.9618   421.7    8.531      42.194
2015    4       29     0   1    5.9606   421.8    8.521      42.208
2015    4       29     0   7    5.9595   422.0    8.511      42.221
2015    4       29     0  13    5.9583   422.2    8.501      42.235
2015    4       29     0  19    5.9571   422.4    8.490      42.248
2015    4       29     0  25    5.9558   422.5    8.480      42.260
2015    4       29     0  31    5.9546   422.7    8.470      42.273
2015    4       29     0  36    5.9533   422.9    8.460      42.286
2015    4       29     0  42    5.9520   423.0    8.450      42.298
2015    4       29     0  48    5.9507   423.2    8.440      42.311
2015    4       29     0  54    5.9493   423.3    8.430      42.324
2015    4       29     1   0    5.9480   423.5    8.420      42.337
2015    4       29     1   6    5.9466   423.7    8.411      42.350
2015    4       29     1  11    5.9453   423.8    8.401      42.363
2015    4       29     1  17    5.9439   424.0    8.391      42.377
2015    4       29     1  23    5.9425   424.1    8.382      42.392
2015    4       29     1  29    5.9411   424.3    8.372      42.406
2015    4       29     1  35    5.9397   424.5    8.362      42.421
2015    4       29     1  41    5.9383   424.6    8.353      42.437
2015    4       29     1  46    5.9368   424.8    8.343      42.452
2015    4       29     1  52    5.9353   425.0    8.334      42.468
2015    4       29     1  58    5.9338   425.1    8.324      42.484
2015    4       29     2   4    5.9323   425.3    8.315      42.499
2015    4       29     2  10    5.9307   425.5    8.305      42.514
2015    4       29     2  16    5.9291   425.6    8.296      42.529
2015    4       29     2  21    5.9275   425.8    8.286      42.543
2015    4       29     2  27    5.9259   426.0    8.276      42.558
2015    4       29     2  33    5.9242   426.1    8.267      42.572
2015    4       29     2  39    5.9225   426.3    8.257      42.586
2015    4       29     2  45    5.9208   426.5    8.247      42.600
2015    4       29     2  50    5.9190   426.6    8.237      42.613
2015    4       29     2  56    5.9173   426.8    8.227      42.626
2015    4       29     3   2    5.9155   427.0    8.217      42.639
2015    4       29     3   8    5.9136   427.1    8.207      42.652
2015    4       29     3  14    5.9118   427.3    8.197      42.664
2015    4       29     3  20    5.9099   427.4    8.187      42.676
2015    4       29     3  25    5.9080   427.6    8.177      42.688
2015    4       29     3  31    5.9061   427.8    8.167      42.700
2015    4       29     3  37    5.9042   427.9    8.157      42.711
2015    4       29     3  43    5.9022   428.1    8.147      42.722
2015    4       29     3  49    5.9002   428.2    8.136      42.732
2015    4       29     3  55    5.8982   428.4    8.126      42.743
2015    4       29     4   0    5.8962   428.5    8.116      42.753
2015    4       29     4   6    5.8942   428.7    8.106      42.763
2015    4       29     4  12    5.8922   428.8    8.096      42.772
2015    4       29     4  18    5.8901   429.0    8.086      42.782
2015    4       29     4  24    5.8881   429.1    8.077      42.791
2015    4       29     4  30    5.8860   429.3    8.067      42.800
2015    4       29     4  35    5.8839   429.4    8.057      42.810
2015    4       29     4  41    5.8818   429.6    8.047      42.819
2015    4       29     4  47    5.8798   429.7    8.037      42.828
2015    4       29     4  53    5.8777   429.9    8.028      42.838
2015    4       29     4  59    5.8756   430.0    8.018      42.847
2015    4       29     5   5    5.8734   430.2    8.008      42.856
2015    4       29     5  10    5.8713   430.3    7.999      42.866
2015    4       29     5  16    5.8692   430.5    7.990      42.875
2015    4       29     5  22    5.8671   430.7    7.980      42.884
2015    4       29     5  28    5.8650   430.8    7.971      42.893
2015    4       29     5  34    5.8628   431.0    7.962      42.902
2015    4       29     5  40    5.8607   431.1    7.953      42.911
2015    4       29     5  45    5.8585   431.3    7.944      42.919
2015    4       29     5  51    5.8563   431.4    7.935      42.928
2015    4       29     5  57    5.8541   431.6    7.926      42.936
2015    4       29     6   3    5.8519   431.7    7.917      42.945
2015    4       29     6   9    5.8496   431.8    7.908      42.953
2015    4       29     6  14    5.8474   432.0    7.899      42.961
2015    4       29     6  20    5.8452   432.1    7.891      42.969
2015    4       29     6  26    5.8429   432.3    7.882      42.977
2015    4       29     6  32    5.8406   432.4    7.874      42.985
2015    4       29     6  38    5.8384   432.6    7.865      42.993
2015    4       29     6  44    5.8361   432.7    7.857      43.001
2015    4       29     6  49    5.8338   432.9    7.849      43.009
2015    4       29     6  55    5.8315   433.0    7.840      43.017
2015    4       29     7   1    5.8292   433.2    7.832      43.025
2015    4       29     7   7    5.8270   433.3    7.824      43.033
2015    4       29     7  13    5.8247   433.4    7.816      43.041
2015    4       29     7  19    5.8224   433.6    7.808      43.049
2015    4       29     7  24    5.8201   433.7    7.800      43.057
2015    4       29     7  30    5.8177   433.9    7.793      43.064
2015    4       29     7  36    5.8154   434.0    7.785      43.072
2015    4       29     7  42    5.8131   434.1    7.777      43.080
2015    4       29     7  48    5.8108   434.3    7.769      43.087
2015    4       29     7  54    5.8085   434.4    7.761      43.095
2015    4       29     7  59    5.8061   434.5    7.754      43.102
2015    4       29     8   5    5.8038   434.7    7.746      43.109
2015    4       29     8  11    5.8014   434.8    7.738      43.116
2015    4       29     8  17    5.7991   435.0    7.730      43.123
2015    4       29     8  23    5.7967   435.1    7.723      43.130
2015    4       29     8  29    5.7943   435.2    7.715      43.137
2015    4       29     8  34    5.7919   435.4    7.707      43.143
2015    4       29     8  40    5.7896   435.5    7.699      43.149
2015    4       29     8  46    5.7872   435.6    7.692      43.155
2015    4       29     8  52    5.7848   435.7    7.684      43.162
2015    4       29     8  58    5.7824   435.9    7.677      43.168
2015    4       29     9   4    5.7800   436.0    7.669      43.174
2015    4       29     9   9    5.7776   436.1    7.661      43.180
2015    4       29     9  15    5.7752   436.3    7.654      43.186
2015    4       29     9  21    5.7728   436.4    7.646      43.192
2015    4       29     9  27    5.7704   436.5    7.639      43.198
2015    4       29     9  33    5.7680   436.7    7.631      43.204
2015    4       29     9  38    5.7656   436.8    7.623      43.210
2015    4       29     9  44    5.7632   436.9    7.616      43.216
2015    4       29     9  50    5.7608   437.0    7.608      43.222
2015    4       29     9  56    5.7584   437.2    7.600      43.227
2015    4       29    10   2    5.7560   437.3    7.593      43.233
2015    4       29    10   8    5.7537   437.4    7.585      43.238
2015    4       29    10  13    5.7513   437.6    7.577      43.243
2015    4       29    10  19    5.7489   437.7    7.570      43.249
2015    4       29    10  25    5.7466   437.8    7.562      43.254
2015    4       29    10  31    5.7443   437.9    7.554      43.258
2015    4       29    10  37    5.7419   438.1    7.547      43.263
2015    4       29    10  43    5.7396   438.2    7.539      43.268
2015    4       29    10  48    5.7373   438.3    7.531      43.273
2015    4       29    10  54    5.7349   438.5    7.524      43.278
2015    4       29    11   0    5.7326   438.6    7.516      43.282
2015    4       29    11   6    5.7302   438.7    7.509      43.286
2015    4       29    11  12    5.7279   438.8    7.501      43.291
2015    4       29    11  18    5.7256   439.0    7.493      43.295
2015    4       29    11  23    5.7232   439.1    7.486      43.299
2015    4       29    11  29    5.7209   439.2    7.478      43.303
2015    4       29    11  35    5.7185   439.3    7.471      43.307
2015    4       29    11  41    5.7161   439.5    7.463      43.311
2015    4       29    11  47    5.7138   439.6    7.456      43.315
2015    4       29    11  53    5.7114   439.7    7.448      43.319
2015    4       29    11  58    5.7091   439.8    7.441      43.322
2015    4       29    12   4    5.7068   440.0    7.434      43.326
2015    4       29    12  10    5.7044   440.1    7.426      43.329
2015    4       29    12  16    5.7021   440.2    7.419      43.332
2015    4       29    12  22    5.6997   440.3    7.412      43.336
2015    4       29    12  28    5.6974   440.4    7.404      43.339
2015    4       29    12  33    5.6950   440.6    7.397      43.342
2015    4       29    12  39    5.6927   440.7    7.390      43.345
2015    4       29    12  45    5.6904   440.8    7.383      43.348
2015    4       29    12  51    5.6881   440.9    7.376      43.352
2015    4       29    12  57    5.6857   441.0    7.369      43.355
2015    4       29    13   3    5.6834   441.2    7.362      43.358
2015    4       29    13   8    5.6811   441.3    7.356      43.361
2015    4       29    13  14    5.6788   441.4    7.349      43.364
2015    4       29    13  20    5.6765   441.5    7.342      43.367
2015    4       29    13  26    5.6742   441.6    7.336      43.371
2015    4       29    13  32    5.6719   441.7    7.329      43.374
2015    4       29    13  37    5.6696   441.9    7.323      43.377
2015    4       29    13  43    5.6673   442.0    7.316      43.381
2015    4       29    13  49    5.6650   442.1    7.310      43.384
2015    4       29    13  55    5.6628   442.2    7.304      43.388
2015    4       29    14   1    5.6605   442.3    7.298      43.391
2015    4       29    14   7    5.6582   442.4    7.292      43.394
2015    4       29    14  12    5.6560   442.5    7.286      43.398
2015    4       29    14  18    5.6537   442.7    7.280      43.402
2015    4       29    14  24    5.6515   442.8    7.274      43.405
2015    4       29    14  30    5.6493   442.9    7.268      43.409
2015    4       29    14  36    5.6470   443.0    7.262      43.413
2015    4       29    14  42    5.6448   443.1    7.256      43.416
2015    4       29    14  47    5.6426   443.2    7.250      43.420
2015    4       29    14  53    5.6403   443.3    7.245      43.424
2015    4       29    14  59    5.6381   443.4    7.239      43.427
2015    4       29    15   5    5.6359   443.5    7.233      43.430
2015    4       29    15  11    5.6337   443.7    7.227      43.433
2015    4       29    15  17    5.6315   443.8    7.222      43.436
2015    4       29    15  22    5.6293   443.9    7.216      43.439
2015    4       29    15  28    5.6270   444.0    7.210      43.441
2015    4       29    15  34    5.6248   444.1    7.204      43.444
2015    4       29    15  40    5.6226   444.2    7.199      43.446
2015    4       29    15  46    5.6204   444.3    7.193      43.449
2015    4       29    15  51    5.6183   444.4    7.187      43.451
2015    4       29    15  57    5.6161   444.5    7.182      43.454
2015    4       29    16   3    5.6139   444.6    7.176      43.456
2015    4       29    16   9    5.6118   444.7    7.171      43.459
2015    4       29    16  15    5.6096   444.8    7.165      43.461
2015    4       29    16  21    5.6075   444.9    7.160      43.464
2015    4       29    16  26    5.6054   445.1    7.154      43.466
2015    4       29    16  32    5.6033   445.2    7.149      43.469
2015    4       29    16  38    5.6013   445.3    7.144      43.473
2015    4       29    16  44    5.5992   445.4    7.139      43.476
2015    4       29    16  50    5.5972   445.5    7.133      43.480
2015    4       29    16  55    5.5952   445.6    7.128      43.485
2015    4       29    17   1    5.5933   445.7    7.123      43.489
2015    4       29    17   7    5.5913   445.8    7.118      43.494
2015    4       29    17  13    5.5894   445.9    7.113      43.499
2015    4       29    17  19    5.5874   446.0    7.108      43.504
2015    4       29    17  24    5.5855   446.1    7.103      43.510
2015    4       29    17  30    5.5836   446.2    7.098      43.515
2015    4       29    17  36    5.5818   446.3    7.093      43.521
2015    4       29    17  42    5.5799   446.4    7.088      43.527
2015    4       29    17  48    5.5780   446.6    7.083      43.533
2015    4       29    17  53    5.5762   446.7    7.078      43.539
2015    4       29    17  59    5.5743   446.8    7.073      43.546
2015    4       29    18   5    5.5725   446.9    7.068      43.552
2015    4       29    18  11    5.5706   447.0    7.063      43.558
2015    4       29    18  17    5.5687   447.1    7.058      43.564
2015    4       29    18  22    5.5669   447.2    7.052      43.570
2015    4       29    18  28    5.5650   447.3    7.047      43.575
2015    4       29    18  34    5.5631   447.4    7.042      43.580
2015    4       29    18  40    5.5612   447.5    7.037      43.585
2015    4       29    18  46    5.5593   447.6    7.031      43.590
2015    4       29    18  51    5.5574   447.7    7.026      43.594
2015    4       29    18  57    5.5555   447.8    7.020      43.598
2015    4       29    19   3    5.5536   447.9    7.015      43.601
2015    4       29    19   9    5.5516   448.0    7.009      43.604
2015    4       29    19  15    5.5497   448.1    7.004      43.607
2015    4       29    19  20    5.5477   448.3    6.998      43.610
2015    4       29    19  26    5.5458   448.4    6.992      43.612
2015    4       29    19  32    5.5439   448.5    6.987      43.614
2015    4       29    19  38    5.5419   448.6    6.981      43.616
2015    4       29    19  44    5.5400   448.7    6.975      43.618
2015    4       29    19  49    5.5380   448.8    6.970      43.619
2015    4       29    19  55    5.5361   448.9    6.964      43.620
2015    4       29    20   1    5.5341   449.0    6.958      43.621
2015    4       29    20   7    5.5321   449.1    6.953      43.621
2015    4       29    20  13    5.5301   449.2    6.947      43.622
2015    4       29    20  18    5.5282   449.3    6.941      43.622
2015    4       29    20  24    5.5262   449.4    6.936      43.622
2015    4       29    20  30    5.5242   449.5    6.930      43.622
2015    4       29    20  36    5.5222   449.6    6.924      43.622
2015    4       29    20  42    5.5202   449.7    6.918      43.621
2015    4       29    20  47    5.5183   449.8    6.913      43.620
2015    4       29    20  53    5.5163   449.9    6.907      43.620
2015    4       29    20  59    5.5143   450.0    6.901      43.618
2015    4       29    21   5    5.5123   450.1    6.896      43.617
2015    4       29    21  11    5.5103   450.2    6.890      43.616
2015    4       29    21  16    5.5083   450.3    6.884      43.614
2015    4       29    21  22    5.5063   450.4    6.879      43.613
2015    4       29    21  28    5.5043   450.5    6.873      43.611
2015    4       29    21  34    5.5023   450.6    6.867      43.609
2015    4       29    21  40    5.5004   450.7    6.862      43.607
2015    4       29    21  45    5.4984   450.8    6.856      43.605
2015    4       29    21  51    5.4964   450.9    6.851      43.603
2015    4       29    21  57    5.4944   451.0    6.845      43.601
2015    4       29    22   3    5.4924   451.1    6.840      43.599
2015    4       29    22   9    5.4904   451.1    6.835      43.596
2015    4       29    22  14    5.4885   451.2    6.829      43.594
2015    4       29    22  20    5.4865   451.3    6.824      43.592
2015    4       29    22  26    5.4845   451.4    6.819      43.590
2015    4       29    22  32    5.4825   451.5    6.814      43.587
2015    4       29    22  38    5.4806   451.6    6.809      43.585
2015    4       29    22  43    5.4787   451.7    6.803      43.583
2015    4       29    22  49    5.4767   451.8    6.799      43.582
2015    4       29    22  55    5.4748   451.9    6.794      43.580
2015    4       29    23   1    5.4729   452.0    6.789      43.579
2015    4       29    23   7    5.4710   452.1    6.784      43.578
2015    4       29    23  12    5.4692   452.2    6.780      43.577
2015    4       29    23  18    5.4673   452.2    6.775      43.577
2015    4       29    23  24    5.4655   452.3    6.771      43.577
2015    4       29    23  30    5.4637   452.4    6.767      43.577
2015    4       29    23  36    5.4619   452.5    6.763      43.578
2015    4       29    23  41    5.4602   452.6    6.759      43.580
2015    4       29    23  47    5.4585   452.7    6.755      43.581
2015    4       29    23  53    5.4568   452.8    6.751      43.584
2015    4       29    23  59    5.4551   452.9    6.747      43.587
2015    4       30     0   5    5.4534   452.9    6.744      43.591
2015    4       30     0  10    5.4518   453.0    6.740      43.596
2015    4       30     0  16    5.4502   453.1    6.737      43.602
2015    4       30     0  22    5.4487   453.2    6.733      43.608
2015    4       30     0  28    5.4471   453.3    6.730      43.615
2015    4       30     0  34    5.4456   453.4    6.726      43.623
2015    4       30     0  39    5.4441   453.5    6.723      43.631
2015    4       30     0  45    5.4426   453.6    6.719      43.639
2015    4       30     0  51    5.4412   453.7    6.716      43.647
2015    4       30     0  57    5.4397   453.8    6.712      43.656
2015    4       30     1   3    5.4382   453.9    6.709      43.664
2015    4       30     1   9    5.4368   453.9    6.705      43.673
2015    4       30     1  14    5.4353   454.0    6.701      43.681
2015    4       30     1  20    5.4338   454.1    6.698      43.690
2015    4       30     1  26    5.4324   454.2    6.694      43.697
2015    4       30     1  32    5.4309   454.3    6.690      43.705
2015    4       30     1  38    5.4294   454.4    6.686      43.712
2015    4       30     1  43    5.4279   454.5    6.682      43.719
2015    4       30     1  49    5.4265   454.6    6.678      43.726
2015    4       30     1  55    5.4250   454.7    6.674      43.732
2015    4       30     2   1    5.4235   454.8    6.670      43.738
2015    4       30     2   7    5.4220   454.9    6.666      43.744
2015    4       30     2  13    5.4205   454.9    6.662      43.749
2015    4       30     2  18    5.4190   455.0    6.658      43.754
2015    4       30     2  24    5.4175   455.1    6.654      43.759
2015    4       30     2  30    5.4160   455.2    6.650      43.763
2015    4       30     2  36    5.4145   455.3    6.646      43.767
2015    4       30     2  42    5.4130   455.4    6.641      43.771
2015    4       30     2  47    5.4115   455.5    6.637      43.774
2015    4       30     2  53    5.4100   455.6    6.633      43.777
2015    4       30     2  59    5.4084   455.7    6.628      43.780
2015    4       30     3   5    5.4069   455.8    6.624      43.783
2015    4       30     3  11    5.4053   455.8    6.620      43.785
2015    4       30     3  17    5.4038   455.9    6.615      43.787
2015    4       30     3  22    5.4022   456.0    6.611      43.789
2015    4       30     3  28    5.4006   456.1    6.606      43.790
2015    4       30     3  34    5.3991   456.2    6.602      43.791
2015    4       30     3  40    5.3975   456.3    6.598      43.793
2015    4       30     3  46    5.3959   456.4    6.593      43.794
2015    4       30     3  52    5.3944   456.5    6.589      43.794
2015    4       30     3  57    5.3928   456.6    6.584      43.795
2015    4       30     4   3    5.3912   456.7    6.580      43.795
2015    4       30     4   9    5.3896   456.7    6.575      43.795
2015    4       30     4  15    5.3880   456.8    6.571      43.795
2015    4       30     4  21    5.3864   456.9    6.567      43.795
2015    4       30     4  27    5.3847   457.0    6.562      43.795
2015    4       30     4  32    5.3831   457.1    6.558      43.795
2015    4       30     4  38    5.3815   457.2    6.553      43.795
2015    4       30     4  44    5.3799   457.3    6.549      43.794
2015    4       30     4  50    5.3782   457.4    6.544      43.793
2015    4       30     4  56    5.3766   457.5    6.540      43.792
2015    4       30     5   2    5.3749   457.6    6.535      43.791
2015    4       30     5   7    5.3733   457.6    6.531      43.790
2015    4       30     5  13    5.3716   457.7    6.526      43.789
2015    4       30     5  19    5.3700   457.8    6.522      43.788
2015    4       30     5  25    5.3683   457.9    6.517      43.786
2015    4       30     5  31    5.3667   458.0    6.513      43.785
2015    4       30     5  37    5.3650   458.1    6.508      43.784
2015    4       30     5  42    5.3634   458.2    6.504      43.782
2015    4       30     5  48    5.3617   458.3    6.499      43.781
2015    4       30     5  54    5.3601   458.3    6.495      43.779
2015    4       30     6   0    5.3584   458.4    6.491      43.778
2015    4       30     6   6    5.3568   458.5    6.486      43.777
2015    4       30     6  11    5.3551   458.6    6.482      43.776
2015    4       30     6  17    5.3535   458.7    6.478      43.775
2015    4       30     6  23    5.3519   458.8    6.473      43.774
2015    4       30     6  29    5.3503   458.9    6.469      43.773
2015    4       30     6  35    5.3487   458.9    6.465      43.773
2015    4       30     6  41    5.3471   459.0    6.461      43.772
2015    4       30     6  46    5.3455   459.1    6.457      43.773
2015    4       30     6  52    5.3439   459.2    6.453      43.773
2015    4       30     6  58    5.3423   459.3    6.449      43.773
2015    4       30     7   4    5.3408   459.4    6.445      43.774
2015    4       30     7  10    5.3392   459.4    6.442      43.776
2015    4       30     7  16    5.3377   459.5    6.438      43.777
2015    4       30     7  21    5.3362   459.6    6.434      43.780
2015    4       30     7  27    5.3347   459.7    6.430      43.782
2015    4       30     7  33    5.3333   459.8    6.427      43.786
2015    4       30     7  39    5.3318   459.8    6.423      43.789
2015    4       30     7  45    5.3304   459.9    6.419      43.794
2015    4       30     7  51    5.3289   460.0    6.416      43.798
2015    4       30     7  56    5.3275   460.1    6.412      43.803
2015    4       30     8   2    5.3262   460.2    6.409      43.808
2015    4       30     8   8    5.3248   460.3    6.405      43.813
2015    4       30     8  14    5.3234   460.3    6.401      43.818
2015    4       30     8  20    5.3221   460.4    6.398      43.824
2015    4       30     8  26    5.3207   460.5    6.394      43.829
2015    4       30     8  31    5.3194   460.6    6.391      43.835
2015    4       30     8  37    5.3181   460.7    6.387      43.841
2015    4       30     8  43    5.3168   460.7    6.384      43.847
2015    4       30     8  49    5.3155   460.8    6.381      43.853
2015    4       30     8  55    5.3143   460.9    6.377      43.859
2015    4       30     9   0    5.3130   461.0    6.374      43.865
2015    4       30     9   6    5.3118   461.1    6.370      43.871
2015    4       30     9  12    5.3106   461.1    6.367      43.878
2015    4       30     9  18    5.3094   461.2    6.364      43.884
2015    4       30     9  24    5.3082   461.3    6.360      43.891
2015    4       30     9  30    5.3070   461.4    6.357      43.897
2015    4       30     9  35    5.3058   461.5    6.354      43.904
2015    4       30     9  41    5.3046   461.5    6.351      43.910
2015    4       30     9  47    5.3035   461.6    6.347      43.917
2015    4       30     9  53    5.3023   461.7    6.344      43.923
2015    4       30     9  59    5.3011   461.8    6.341      43.929
2015    4       30    10   5    5.2999   461.9    6.338      43.935
2015    4       30    10  10    5.2987   461.9    6.334      43.941
2015    4       30    10  16    5.2975   462.0    6.331      43.946
2015    4       30    10  22    5.2963   462.1    6.328      43.952
2015    4       30    10  28    5.2951   462.2    6.324      43.957
2015    4       30    10  34    5.2939   462.3    6.321      43.962
2015    4       30    10  40    5.2927   462.3    6.318      43.967
2015    4       30    10  45    5.2914   462.4    6.314      43.972
2015    4       30    10  51    5.2902   462.5    6.311      43.976
2015    4       30    10  57    5.2889   462.6    6.307      43.981
2015    4       30    11   3    5.2876   462.6    6.304      43.985
2015    4       30    11   9    5.2864   462.7    6.301      43.989
2015    4       30    11  15    5.2851   462.8    6.297      43.993
2015    4       30    11  20    5.2838   462.9    6.294      43.997
2015    4       30    11  26    5.2825   463.0    6.290      44.000
2015    4       30    11  32    5.2812   463.1    6.287      44.004
2015    4       30    11  38    5.2799   463.1    6.284      44.008
2015    4       30    11  44    5.2786   463.2    6.280      44.011
2015    4       30    11  49    5.2772   463.3    6.277      44.015
2015    4       30    11  55    5.2759   463.4    6.274      44.018
2015    4       30    12   1    5.2745   463.5    6.270      44.022
2015    4       30    12   7    5.2732   463.5    6.267      44.025
2015    4       30    12  13    5.2718   463.6    6.263      44.028
2015    4       30    12  19    5.2705   463.7    6.260      44.032
2015    4       30    12  24    5.2691   463.8    6.256      44.035
2015    4       30    12  30    5.2678   463.9    6.253      44.038
2015    4       30    12  36    5.2664   463.9    6.250      44.041
2015    4       30    12  42    5.2650   464.0    6.246      44.044
2015    4       30    12  48    5.2637   464.1    6.243      44.047
2015    4       30    12  54    5.2623   464.2    6.239      44.051
2015    4       30    12  59    5.2609   464.3    6.236      44.054
2015    4       30    13   5    5.2595   464.4    6.232      44.057
2015    4       30    13  11    5.2581   464.4    6.228      44.061
2015    4       30    13  17    5.2567   464.5    6.225      44.064
2015    4       30    13  23    5.2553   464.6    6.221      44.067
2015    4       30    13  29    5.2539   464.7    6.218      44.070
2015    4       30    13  34    5.2525   464.8    6.214      44.073
2015    4       30    13  40    5.2511   464.8    6.210      44.076
2015    4       30    13  46    5.2497   464.9    6.207      44.079
2015    4       30    13  52    5.2482   465.0    6.203      44.082
2015    4       30    13  58    5.2468   465.1    6.199      44.084
2015    4       30    14   3    5.2454   465.2    6.196      44.087
2015    4       30    14   9    5.2440   465.3    6.192      44.090
2015    4       30    14  15    5.2426   465.3    6.188      44.092
2015    4       30    14  21    5.2412   465.4    6.184      44.095
2015    4       30    14  27    5.2398   465.5    6.181      44.097
2015    4       30    14  33    5.2384   465.6    6.177      44.100
2015    4       30    14  38    5.2370   465.6    6.173      44.102
2015    4       30    14  44    5.2356   465.7    6.169      44.105
2015    4       30    14  50    5.2342   465.8    6.166      44.108
2015    4       30    14  56    5.2328   465.9    6.162      44.111
2015    4       30    15   2    5.2314   466.0    6.158      44.114
2015    4       30    15   8    5.2300   466.0    6.154      44.117
2015    4       30    15  13    5.2287   466.1    6.151      44.120
2015    4       30    15  19    5.2274   466.2    6.147      44.123
2015    4       30    15  25    5.2260   466.3    6.143      44.126
2015    4       30    15  31    5.2247   466.4    6.140      44.130
2015    4       30    15  37    5.2234   466.4    6.136      44.133
2015    4       30    15  43    5.2221   466.5    6.132      44.137
2015    4       30    15  48    5.2208   466.6    6.129      44.141
2015    4       30    15  54    5.2196   466.7    6.125      44.145
2015    4       30    16   0    5.2183   466.7    6.122      44.149
2015    4       30    16   6    5.2171   466.8    6.118      44.153
2015    4       30    16  12    5.2159   466.9    6.115      44.157
2015    4       30    16  17    5.2147   467.0    6.111      44.162
2015    4       30    16  23    5.2135   467.0    6.108      44.167
2015    4       30    16  29    5.2123   467.1    6.105      44.172
2015    4       30    16  35    5.2112   467.2    6.101      44.177
2015    4       30    16  41    5.2100   467.3    6.098      44.182
2015    4       30    16  47    5.2089   467.4    6.094      44.187
2015    4       30    16  52    5.2077   467.4    6.091      44.192
2015    4       30    16  58    5.2066   467.5    6.088      44.198
2015    4       30    17   4    5.2054   467.6    6.085      44.203
2015    4       30    17  10    5.2043   467.7    6.081      44.209
2015    4       30    17  16    5.2031   467.7    6.078      44.214
2015    4       30    17  22    5.2020   467.8    6.075      44.220
2015    4       30    17  27    5.2008   467.9    6.071      44.225
2015    4       30    17  33    5.1996   468.0    6.068      44.230
2015    4       30    17  39    5.1984   468.1    6.065      44.236
2015    4       30    17  45    5.1971   468.1    6.061      44.241
2015    4       30    17  51    5.1959   468.2    6.058      44.246
2015    4       30    17  57    5.1947   468.3    6.055      44.251
2015    4       30    18   2    5.1934   468.4    6.052      44.256
2015    4       30    18   8    5.1922   468.4    6.048      44.261
2015    4       30    18  14    5.1909   468.5    6.045      44.266
2015    4       30    18  20    5.1896   468.6    6.042      44.270
2015    4       30    18  26    5.1883   468.7    6.038      44.275
2015    4       30    18  31    5.1870   468.8    6.035      44.279
2015    4       30    18  37    5.1857   468.8    6.032      44.283
2015    4       30    18  43    5.1844   468.9    6.028      44.287
2015    4       30    18  49    5.1830   469.0    6.025      44.291
2015    4       30    18  55    5.1817   469.1    6.022      44.295
2015    4       30    19   1    5.1804   469.1    6.018      44.299
2015    4       30    19   6    5.1790   469.2    6.015      44.303
2015    4       30    19  12    5.1777   469.3    6.012      44.307
2015    4       30    19  18    5.1763   469.4    6.008      44.310
2015    4       30    19  24    5.1749   469.4    6.005      44.314
2015    4       30    19  30    5.1736   469.5    6.002      44.318
2015    4       30    19  36    5.1722   469.6    5.999      44.321
2015    4       30    19  41    5.1708   469.7    5.995      44.325
2015    4       30    19  47    5.1694   469.8    5.992      44.328
2015    4       30    19  53    5.1680   469.8    5.989      44.332
2015    4       30    19  59    5.1666   469.9    5.986      44.336
2015    4       30    20   5    5.1653   470.0    5.983      44.340
2015    4       30    20  10    5.1639   470.1    5.979      44.343
2015    4       30    20  16    5.1625   470.1    5.976      44.347
2015    4       30    20  22    5.1611   470.2    5.973      44.351
2015    4       30    20  28    5.1597   470.3    5.970      44.355
2015    4       30    20  34    5.1582   470.4    5.966      44.359
2015    4       30    20  40    5.1568   470.4    5.963      44.363
2015    4       30    20  45    5.1554   470.5    5.960      44.366
2015    4       30    20  51    5.1540   470.6    5.957      44.370
2015    4       30    20  57    5.1526   470.7    5.953      44.373
2015    4       30    21   3    5.1512   470.8    5.950      44.376
2015    4       30    21   9    5.1497   470.8    5.947      44.379
2015    4       30    21  15    5.1483   470.9    5.944      44.383
2015    4       30    21  20    5.1469   471.0    5.940      44.386
2015    4       30    21  26    5.1454   471.1    5.937      44.389
2015    4       30    21  32    5.1440   471.1    5.934      44.392
2015    4       30    21  38    5.1426   471.2    5.930      44.395
2015    4       30    21  44    5.1411   471.3    5.927      44.398
2015    4       30    21  49    5.1397   471.4    5.923      44.400
2015    4       30    21  55    5.1383   471.4    5.920      44.403
2015    4       30    22   1    5.1368   471.5    5.916      44.406
2015    4       30    22   7    5.1354   471.6    5.913      44.409
2015    4       30    22  13    5.1339   471.7    5.909      44.411
2015    4       30    22  19    5.1325   471.7    5.906      44.414
2015    4       30    22  24    5.1311   471.8    5.902      44.416
2015    4       30    22  30    5.1296   471.9    5.899      44.419
2015    4       30    22  36    5.1282   472.0    5.895      44.421
2015    4       30    22  42    5.1268   472.0    5.891      44.424
2015    4       30    22  48    5.1254   472.1    5.888      44.426
2015    4       30    22  54    5.1240   472.2    5.884      44.428
2015    4       30    22  59    5.1226   472.3    5.881      44.431
2015    4       30    23   5    5.1212   472.3    5.877      44.433
2015    4       30    23  11    5.1198   472.4    5.873      44.435
2015    4       30    23  17    5.1184   472.5    5.870      44.437
2015    4       30    23  23    5.1171   472.6    5.866      44.439
2015    4       30    23  29    5.1157   472.6    5.863      44.442
2015    4       30    23  34    5.1143   472.7    5.859      44.444
2015    4       30    23  40    5.1130   472.8    5.855      44.446
2015    4       30    23  46    5.1116   472.9    5.852      44.448
2015    4       30    23  52    5.1102   473.0    5.848      44.451
2015    4       30    23  58    5.1089   473.0    5.845      44.453
2015    5        1     0   3    5.1075   473.1    5.841      44.455
2015    5        1     0   9    5.1061   473.2    5.838      44.458
2015    5        1     0  15    5.1047   473.3    5.834      44.460
2015    5        1     0  21    5.1033   473.3    5.830      44.463
2015    5        1     0  27    5.1019   473.4    5.827      44.465
2015    5        1     0  33    5.1004   473.5    5.823      44.468
2015    5        1     0  38    5.0990   473.6    5.820      44.470
2015    5        1     0  44    5.0975   473.6    5.816      44.472
2015    5        1     0  50    5.0960   473.7    5.813      44.475
2015    5        1     0  56    5.0945   473.8    5.809      44.477
2015    5        1     1   2    5.0930   473.9    5.806      44.479
2015    5        1     1   8    5.0915   473.9    5.802      44.481
2015    5        1     1  13    5.0899   474.0    5.799      44.484
2015    5        1     1  19    5.0884   474.1    5.795      44.486
2015    5        1     1  25    5.0869   474.2    5.792      44.488
2015    5        1     1  31    5.0853   474.2    5.788      44.490
2015    5        1     1  37    5.0837   474.3    5.785      44.491
2015    5        1     1  42    5.0821   474.4    5.781      44.493
2015    5        1     1  48    5.0805   474.5    5.778      44.495
2015    5        1     1  54    5.0789   474.5    5.774      44.496
2015    5        1     2   0    5.0773   474.6    5.771      44.497
2015    5        1     2   6    5.0757   474.7    5.767      44.498
2015    5        1     2  12    5.0740   474.8    5.764      44.499
2015    5        1     2  17    5.0724   474.8    5.760      44.500
2015    5        1     2  23    5.0708   474.9    5.757      44.500
2015    5        1     2  29    5.0691   475.0    5.754      44.501
2015    5        1     2  35    5.0675   475.0    5.750      44.501
2015    5        1     2  41    5.0658   475.1    5.747      44.502
2015    5        1     2  47    5.0642   475.2    5.743      44.502
2015    5        1     2  52    5.0625   475.3    5.740      44.502
2015    5        1     2  58    5.0609   475.3    5.736      44.501
2015    5        1     3   4    5.0592   475.4    5.733      44.501
2015    5        1     3  10    5.0575   475.5    5.730      44.501
2015    5        1     3  16    5.0559   475.5    5.726      44.500
2015    5        1     3  22    5.0542   475.6    5.723      44.500
2015    5        1     3  27    5.0526   475.7    5.720      44.499
2015    5        1     3  33    5.0509   475.7    5.716      44.499
2015    5        1     3  39    5.0493   475.8    5.713      44.498
2015    5        1     3  45    5.0476   475.9    5.710      44.497
2015    5        1     3  51    5.0460   476.0    5.707      44.496
2015    5        1     3  56    5.0443   476.0    5.703      44.495
2015    5        1     4   2    5.0427   476.1    5.700      44.495
2015    5        1     4   8    5.0410   476.2    5.697      44.494
2015    5        1     4  14    5.0393   476.2    5.694      44.493
2015    5        1     4  20    5.0377   476.3    5.690      44.492
2015    5        1     4  26    5.0360   476.4    5.687      44.490
2015    5        1     4  31    5.0343   476.4    5.684      44.489
2015    5        1     4  37    5.0326   476.5    5.681      44.488
2015    5        1     4  43    5.0309   476.6    5.677      44.487
2015    5        1     4  49    5.0292   476.6    5.674      44.486
2015    5        1     4  55    5.0275   476.7    5.671      44.485
2015    5        1     5   1    5.0258   476.8    5.668      44.484
2015    5        1     5   6    5.0241   476.8    5.664      44.483
2015    5        1     5  12    5.0224   476.9    5.661      44.482
2015    5        1     5  18    5.0207   477.0    5.658      44.481
2015    5        1     5  24    5.0190   477.0    5.654      44.480
2015    5        1     5  30    5.0173   477.1    5.651      44.479
2015    5        1     5  35    5.0155   477.2    5.647      44.478
2015    5        1     5  41    5.0138   477.2    5.644      44.477
2015    5        1     5  47    5.0121   477.3    5.641      44.476
2015    5        1     5  53    5.0104   477.4    5.637      44.475
2015    5        1     5  59    5.0086   477.4    5.634      44.474
2015    5        1     6   5    5.0069   477.5    5.630      44.473
2015    5        1     6  10    5.0052   477.6    5.627      44.472
2015    5        1     6  16    5.0035   477.6    5.623      44.471
2015    5        1     6  22    5.0017   477.7    5.620      44.470
2015    5        1     6  28    5.0000   477.8    5.616      44.469
2015    5        1     6  34    4.9983   477.8    5.613      44.468
2015    5        1     6  40    4.9966   477.9    5.609      44.467
2015    5        1     6  45    4.9949   477.9    5.606      44.467
2015    5        1     6  51    4.9932   478.0    5.602      44.466
2015    5        1     6  57    4.9915   478.1    5.599      44.465
2015    5        1     7   3    4.9898   478.1    5.596      44.464
2015    5        1     7   9    4.9881   478.2    5.592      44.464
2015    5        1     7  14    4.9864   478.2    5.589      44.463
2015    5        1     7  20    4.9847   478.3    5.586      44.463
2015    5        1     7  26    4.9830   478.4    5.582      44.462
2015    5        1     7  32    4.9813   478.4    5.579      44.462
2015    5        1     7  38    4.9796   478.5    5.576      44.462
2015    5        1     7  44    4.9779   478.6    5.572      44.461
2015    5        1     7  49    4.9762   478.6    5.569      44.461
2015    5        1     7  55    4.9745   478.7    5.566      44.461
2015    5        1     8   1    4.9727   478.7    5.563      44.461
2015    5        1     8   7    4.9710   478.8    5.560      44.460
2015    5        1     8  13    4.9692   478.9    5.556      44.460
2015    5        1     8  19    4.9675   478.9    5.553      44.460
2015    5        1     8  24    4.9657   479.0    5.550      44.459
2015    5        1     8  30    4.9639   479.0    5.547      44.459
2015    5        1     8  36    4.9622   479.1    5.544      44.459
2015    5        1     8  42    4.9604   479.2    5.541      44.458
2015    5        1     8  48    4.9586   479.2    5.538      44.457
2015    5        1     8  54    4.9568   479.3    5.535      44.456
2015    5        1     8  59    4.9549   479.3    5.532      44.455
2015    5        1     9   5    4.9531   479.4    5.529      44.454
2015    5        1     9  11    4.9512   479.5    5.526      44.453
2015    5        1     9  17    4.9494   479.5    5.523      44.451
2015    5        1     9  23    4.9475   479.6    5.520      44.450
2015    5        1     9  28    4.9457   479.6    5.517      44.448
2015    5        1     9  34    4.9438   479.7    5.514      44.446
2015    5        1     9  40    4.9419   479.8    5.511      44.443
2015    5        1     9  46    4.9400   479.8    5.508      44.441
2015    5        1     9  52    4.9382   479.9    5.505      44.438
2015    5        1     9  58    4.9363   479.9    5.502      44.434
2015    5        1    10   3    4.9344   480.0    5.499      44.431
2015    5        1    10   9    4.9325   480.0    5.496      44.428
2015    5        1    10  15    4.9306   480.1    5.493      44.424
2015    5        1    10  21    4.9287   480.1    5.490      44.420
2015    5        1    10  27    4.9268   480.2    5.487      44.416
2015    5        1    10  33    4.9249   480.3    5.484      44.412
2015    5        1    10  38    4.9230   480.3    5.481      44.407
2015    5        1    10  44    4.9211   480.4    5.478      44.403
2015    5        1    10  50    4.9192   480.4    5.475      44.398
2015    5        1    10  56    4.9173   480.5    5.471      44.393
2015    5        1    11   2    4.9154   480.5    5.468      44.388
2015    5        1    11   7    4.9135   480.6    5.465      44.383
2015    5        1    11  13    4.9116   480.6    5.462      44.378
2015    5        1    11  19    4.9097   480.7    5.459      44.373
2015    5        1    11  25    4.9078   480.7    5.456      44.367
2015    5        1    11  31    4.9059   480.8    5.453      44.362
2015    5        1    11  37    4.9040   480.8    5.450      44.356
2015    5        1    11  42    4.9021   480.9    5.446      44.351
2015    5        1    11  48    4.9003   480.9    5.443      44.345
2015    5        1    11  54    4.8984   481.0    5.440      44.340
2015    5        1    12   0    4.8966   481.0    5.437      44.334
2015    5        1    12   6    4.8947   481.1    5.434      44.329
2015    5        1    12  12    4.8929   481.1    5.431      44.324
2015    5        1    12  17    4.8911   481.2    5.428      44.319
2015    5        1    12  23    4.8893   481.2    5.425      44.314
2015    5        1    12  29    4.8876   481.3    5.422      44.309
2015    5        1    12  35    4.8858   481.3    5.419      44.305
2015    5        1    12  41    4.8841   481.4    5.416      44.301
2015    5        1    12  46    4.8825   481.4    5.413      44.297
2015    5        1    12  52    4.8809   481.5    5.410      44.294
2015    5        1    12  58    4.8793   481.5    5.407      44.291
2015    5        1    13   4    4.8778   481.6    5.404      44.289
2015    5        1    13  10    4.8764   481.6    5.401      44.287
2015    5        1    13  16    4.8750   481.7    5.399      44.286
2015    5        1    13  21    4.8737   481.7    5.396      44.285
2015    5        1    13  27    4.8724   481.8    5.394      44.285
2015    5        1    13  33    4.8712   481.8    5.391      44.286
2015    5        1    13  39    4.8701   481.9    5.389      44.287
2015    5        1    13  45    4.8691   481.9    5.387      44.289
2015    5        1    13  51    4.8682   482.0    5.385      44.291
2015    5        1    13  56    4.8674   482.0    5.383      44.295
2015    5        1    14   2    4.8666   482.1    5.381      44.299
2015    5        1    14   8    4.8660   482.1    5.380      44.304
2015    5        1    14  14    4.8655   482.2    5.378      44.310
2015    5        1    14  20    4.8651   482.2    5.377      44.316
2015    5        1    14  26    4.8648   482.3    5.376      44.324
2015    5        1    14  31    4.8646   482.3    5.374      44.332
2015    5        1    14  37    4.8646   482.4    5.374      44.341
2015    5        1    14  43    4.8647   482.5    5.373      44.351
2015    5        1    14  49    4.8649   482.5    5.372      44.361
2015    5        1    14  55    4.8652   482.6    5.371      44.373
2015    5        1    15   0    4.8657   482.6    5.371      44.385
2015    5        1    15   6    4.8663   482.7    5.371      44.398
2015    5        1    15  12    4.8670   482.8    5.371      44.411
2015    5        1    15  18    4.8680   482.8    5.371      44.425
2015    5        1    15  24    4.8689   482.9    5.371      44.439
2015    5        1    15  30    4.8701   483.0    5.371      44.455
2015    5        1    15  35    4.8714   483.0    5.372      44.470
2015    5        1    15  41    4.8729   483.1    5.372      44.486
2015    5        1    15  47    4.8744   483.2    5.373      44.502
2015    5        1    15  53    4.8762   483.2    5.374      44.519
2015    5        1    15  59    4.8780   483.3    5.374      44.536
2015    5        1    16   5    4.8801   483.4    5.375      44.553
2015    5        1    16  10    4.8822   483.5    5.377      44.571
2015    5        1    16  16    4.8845   483.5    5.378      44.588
2015    5        1    16  22    4.8869   483.6    5.379      44.606
2015    5        1    16  28    4.8895   483.7    5.381      44.624
2015    5        1    16  34    4.8922   483.8    5.382      44.642
2015    5        1    16  39    4.8950   483.9    5.384      44.660
2015    5        1    16  45    4.8979   483.9    5.385      44.678
2015    5        1    16  51    4.9009   484.0    5.387      44.696
2015    5        1    16  57    4.9039   484.1    5.389      44.713
2015    5        1    17   3    4.9071   484.2    5.391      44.731
2015    5        1    17   9    4.9103   484.3    5.393      44.748
2015    5        1    17  14    4.9135   484.3    5.395      44.766
2015    5        1    17  20    4.9168   484.4    5.396      44.783
2015    5        1    17  26    4.9202   484.5    5.398      44.800
2015    5        1    17  32    4.9236   484.6    5.400      44.817
2015    5        1    17  38    4.9270   484.7    5.402      44.834
2015    5        1    17  44    4.9304   484.7    5.404      44.851
2015    5        1    17  49    4.9339   484.8    5.406      44.867
2015    5        1    17  55    4.9373   484.9    5.407      44.883
2015    5        1    18   1    4.9408   485.0    5.409      44.899
2015    5        1    18   7    4.9443   485.0    5.411      44.914
2015    5        1    18  13    4.9477   485.1    5.412      44.929
2015    5        1    18  19    4.9511   485.2    5.414      44.943
2015    5        1    18  24    4.9544   485.3    5.415      44.956
2015    5        1    18  30    4.9577   485.3    5.416      44.968
2015    5        1    18  36    4.9609   485.4    5.417      44.980
2015    5        1    18  42    4.9640   485.5    5.418      44.991
2015    5        1    18  48    4.9670   485.6    5.418      45.001
2015    5        1    18  53    4.9699   485.6    5.419      45.009
2015    5        1    18  59    4.9726   485.7    5.419      45.017
2015    5        1    19   5    4.9752   485.8    5.419      45.024
2015    5        1    19  11    4.9777   485.8    5.419      45.030
2015    5        1    19  17    4.9800   485.9    5.419      45.035
2015    5        1    19  23    4.9822   486.0    5.419      45.039
2015    5        1    19  28    4.9842   486.0    5.418      45.042
2015    5        1    19  34    4.9860   486.1    5.417      45.045
2015    5        1    19  40    4.9876   486.1    5.416      45.047
2015    5        1    19  46    4.9891   486.2    5.415      45.048
2015    5        1    19  52    4.9904   486.2    5.414      45.048
2015    5        1    19  58    4.9915   486.3    5.412      45.048
2015    5        1    20   3    4.9924   486.3    5.411      45.047
2015    5        1    20   9    4.9932   486.4    5.409      45.045
2015    5        1    20  15    4.9938   486.4    5.407      45.042
2015    5        1    20  21    4.9943   486.4    5.405      45.039
2015    5        1    20  27    4.9946   486.5    5.403      45.034
2015    5        1    20  33    4.9947   486.5    5.401      45.029
2015    5        1    20  38    4.9948   486.5    5.398      45.023
2015    5        1    20  44    4.9946   486.5    5.396      45.016
2015    5        1    20  50    4.9944   486.6    5.393      45.009
2015    5        1    20  56    4.9940   486.6    5.391      45.001
2015    5        1    21   2    4.9935   486.6    5.388      44.992
2015    5        1    21   7    4.9928   486.6    5.385      44.983
2015    5        1    21  13    4.9920   486.6    5.382      44.973
2015    5        1    21  19    4.9911   486.7    5.379      44.962
2015    5        1    21  25    4.9901   486.7    5.376      44.951
2015    5        1    21  31    4.9889   486.7    5.373      44.940
2015    5        1    21  37    4.9876   486.7    5.370      44.928
2015    5        1    21  42    4.9862   486.7    5.367      44.915
2015    5        1    21  48    4.9847   486.7    5.363      44.902
2015    5        1    21  54    4.9830   486.7    5.360      44.889
2015    5        1    22   0    4.9812   486.7    5.356      44.875
2015    5        1    22   6    4.9793   486.7    5.353      44.860
2015    5        1    22  12    4.9773   486.7    5.349      44.846
2015    5        1    22  17    4.9751   486.7    5.346      44.830
2015    5        1    22  23    4.9728   486.7    5.342      44.815
2015    5        1    22  29    4.9704   486.7    5.338      44.799
2015    5        1    22  35    4.9679   486.8    5.334      44.783
2015    5        1    22  41    4.9653   486.8    5.330      44.766
2015    5        1    22  46    4.9626   486.8    5.326      44.749
2015    5        1    22  52    4.9597   486.8    5.322      44.731
2015    5        1    22  58    4.9568   486.8    5.318      44.714
2015    5        1    23   4    4.9537   486.8    5.314      44.696
2015    5        1    23  10    4.9505   486.7    5.310      44.677
2015    5        1    23  16    4.9472   486.7    5.306      44.659
2015    5        1    23  21    4.9439   486.7    5.301      44.640
2015    5        1    23  27    4.9404   486.7    5.297      44.621
2015    5        1    23  33    4.9369   486.7    5.293      44.601
2015    5        1    23  39    4.9333   486.7    5.288      44.582
2015    5        1    23  45    4.9296   486.7    5.284      44.562
2015    5        1    23  51    4.9259   486.7    5.279      44.542
2015    5        1    23  56    4.9222   486.7    5.275      44.522
2015    5        2     0   2    4.9184   486.7    5.270      44.502
2015    5        2     0   8    4.9146   486.7    5.266      44.482
2015    5        2     0  14    4.9107   486.7    5.261      44.462
2015    5        2     0  20    4.9069   486.7    5.257      44.441
2015    5        2     0  26    4.9030   486.7    5.252      44.421
2015    5        2     0  31    4.8991   486.7    5.248      44.400
2015    5        2     0  37    4.8952   486.7    5.243      44.380
2015    5        2     0  43    4.8913   486.7    5.239      44.359
2015    5        2     0  49    4.8874   486.6    5.234      44.338
2015    5        2     0  55    4.8834   486.6    5.230      44.318
2015    5        2     1   0    4.8795   486.6    5.225      44.297
2015    5        2     1   6    4.8755   486.6    5.221      44.276
2015    5        2     1  12    4.8715   486.6    5.216      44.255
2015    5        2     1  18    4.8675   486.6    5.212      44.235
2015    5        2     1  24    4.8635   486.6    5.207      44.214
2015    5        2     1  30    4.8595   486.6    5.203      44.193
2015    5        2     1  35    4.8555   486.6    5.199      44.172
2015    5        2     1  41    4.8515   486.6    5.194      44.152
2015    5        2     1  47    4.8476   486.5    5.190      44.131
2015    5        2     1  53    4.8436   486.5    5.185      44.110
2015    5        2     1  59    4.8397   486.5    5.181      44.090
2015    5        2     2   5    4.8358   486.5    5.176      44.069
2015    5        2     2  10    4.8319   486.5    5.172      44.049
2015    5        2     2  16    4.8280   486.5    5.168      44.028
2015    5        2     2  22    4.8241   486.5    5.164      44.008
2015    5        2     2  28    4.8202   486.5    5.159      43.988
2015    5        2     2  34    4.8164   486.5    5.155      43.968
2015    5        2     2  39    4.8126   486.4    5.151      43.948
2015    5        2     2  45    4.8088   486.4    5.147      43.929
2015    5        2     2  51    4.8050   486.4    5.143      43.909
2015    5        2     2  57    4.8013   486.4    5.139      43.890
2015    5        2     3   3    4.7975   486.4    5.135      43.871
2015    5        2     3   9    4.7938   486.4    5.131      43.853
2015    5        2     3  14    4.7900   486.4    5.127      43.835
2015    5        2     3  20    4.7863   486.3    5.124      43.817
2015    5        2     3  26    4.7826   486.3    5.120      43.800
2015    5        2     3  32    4.7790   486.3    5.116      43.783
2015    5        2     3  38    4.7753   486.3    5.113      43.766
2015    5        2     3  44    4.7716   486.3    5.109      43.750
2015    5        2     3  49    4.7680   486.3    5.106      43.735
2015    5        2     3  55    4.7644   486.3    5.103      43.720
2015    5        2     4   1    4.7608   486.2    5.100      43.706
2015    5        2     4   7    4.7572   486.2    5.097      43.692
2015    5        2     4  13    4.7537   486.2    5.094      43.679
2015    5        2     4  19    4.7502   486.2    5.091      43.666
2015    5        2     4  24    4.7467   486.2    5.088      43.654
2015    5        2     4  30    4.7433   486.2    5.086      43.642
2015    5        2     4  36    4.7398   486.2    5.083      43.631
2015    5        2     4  42    4.7364   486.2    5.081      43.621
2015    5        2     4  48    4.7331   486.2    5.078      43.611
2015    5        2     4  54    4.7297   486.2    5.076      43.601
2015    5        2     4  59    4.7264   486.1    5.074      43.593
2015    5        2     5   5    4.7231   486.1    5.072      43.584
2015    5        2     5  11    4.7198   486.1    5.070      43.576
2015    5        2     5  17    4.7165   486.1    5.068      43.569
2015    5        2     5  23    4.7132   486.1    5.066      43.561
2015    5        2     5  28    4.7099   486.1    5.064      43.554
2015    5        2     5  34    4.7066   486.1    5.062      43.547
2015    5        2     5  40    4.7033   486.1    5.061      43.541
2015    5        2     5  46    4.7000   486.1    5.059      43.535
2015    5        2     5  52    4.6967   486.1    5.058      43.529
2015    5        2     5  58    4.6934   486.1    5.056      43.523
2015    5        2     6   3    4.6900   486.1    5.054      43.517
2015    5        2     6   9    4.6867   486.1    5.053      43.511
2015    5        2     6  15    4.6833   486.1    5.051      43.506
2015    5        2     6  21    4.6799   486.0    5.050      43.500
2015    5        2     6  27    4.6765   486.0    5.049      43.495
2015    5        2     6  33    4.6730   486.0    5.047      43.489
2015    5        2     6  38    4.6696   486.0    5.046      43.483
2015    5        2     6  44    4.6661   486.0    5.044      43.477
2015    5        2     6  50    4.6626   486.0    5.043      43.471
2015    5        2     6  56    4.6591   486.0    5.041      43.465
2015    5        2     7   2    4.6556   486.0    5.040      43.459
2015    5        2     7   7    4.6521   485.9    5.039      43.452
2015    5        2     7  13    4.6485   485.9    5.037      43.445
2015    5        2     7  19    4.6449   485.9    5.036      43.438
2015    5        2     7  25    4.6414   485.9    5.034      43.431
2015    5        2     7  31    4.6377   485.9    5.033      43.423
2015    5        2     7  37    4.6341   485.9    5.032      43.416
2015    5        2     7  42    4.6305   485.8    5.030      43.408
2015    5        2     7  48    4.6269   485.8    5.029      43.400
2015    5        2     7  54    4.6232   485.8    5.028      43.391
2015    5        2     8   0    4.6195   485.8    5.026      43.383
2015    5        2     8   6    4.6159   485.8    5.025      43.374
2015    5        2     8  12    4.6122   485.7    5.024      43.365
2015    5        2     8  17    4.6085   485.7    5.022      43.356
2015    5        2     8  23    4.6048   485.7    5.021      43.347
2015    5        2     8  29    4.6011   485.7    5.020      43.338
2015    5        2     8  35    4.5973   485.7    5.019      43.329
2015    5        2     8  41    4.5936   485.6    5.017      43.319
2015    5        2     8  47    4.5899   485.6    5.016      43.309
2015    5        2     8  52    4.5861   485.6    5.015      43.299
2015    5        2     8  58    4.5824   485.6    5.014      43.289
2015    5        2     9   4    4.5786   485.6    5.012      43.279
2015    5        2     9  10    4.5748   485.5    5.011      43.269
2015    5        2     9  16    4.5711   485.5    5.010      43.259
2015    5        2     9  21    4.5673   485.5    5.009      43.248
2015    5        2     9  27    4.5635   485.4    5.008      43.238
2015    5        2     9  33    4.5598   485.4    5.007      43.228
2015    5        2     9  39    4.5560   485.4    5.006      43.217
2015    5        2     9  45    4.5522   485.4    5.005      43.207
2015    5        2     9  51    4.5484   485.3    5.004      43.197
2015    5        2     9  56    4.5447   485.3    5.003      43.186
2015    5        2    10   2    4.5409   485.3    5.002      43.176
2015    5        2    10   8    4.5372   485.2    5.001      43.166
2015    5        2    10  14    4.5334   485.2    5.000      43.156
2015    5        2    10  20    4.5297   485.2    5.000      43.146
2015    5        2    10  26    4.5259   485.1    4.999      43.136
2015    5        2    10  31    4.5222   485.1    4.998      43.127
2015    5        2    10  37    4.5185   485.1    4.998      43.117
2015    5        2    10  43    4.5148   485.0    4.997      43.107
2015    5        2    10  49    4.5110   485.0    4.997      43.098
2015    5        2    10  55    4.5073   485.0    4.996      43.089
2015    5        2    11   1    4.5036   484.9    4.996      43.080
2015    5        2    11   6    4.4999   484.9    4.996      43.070
2015    5        2    11  12    4.4962   484.9    4.996      43.061
2015    5        2    11  18    4.4925   484.8    4.995      43.052
2015    5        2    11  24    4.4888   484.8    4.995      43.043
2015    5        2    11  30    4.4852   484.8    4.995      43.035
2015    5        2    11  35    4.4815   484.7    4.995      43.026
2015    5        2    11  41    4.4778   484.7    4.995      43.017
2015    5        2    11  47    4.4742   484.7    4.995      43.008
2015    5        2    11  53    4.4706   484.6    4.995      43.000
2015    5        2    11  59    4.4669   484.6    4.996      42.991
2015    5        2    12   5    4.4633   484.6    4.996      42.983
2015    5        2    12  10    4.4597   484.5    4.996      42.974
2015    5        2    12  16    4.4561   484.5    4.996      42.965
2015    5        2    12  22    4.4526   484.4    4.996      42.957
2015    5        2    12  28    4.4490   484.4    4.996      42.948
2015    5        2    12  34    4.4455   484.4    4.997      42.940
2015    5        2    12  40    4.4420   484.3    4.997      42.931
2015    5        2    12  45    4.4384   484.3    4.997      42.922
2015    5        2    12  51    4.4349   484.3    4.997      42.913
2015    5        2    12  57    4.4315   484.2    4.997      42.903
2015    5        2    13   3    4.4280   484.2    4.997      42.894
2015    5        2    13   9    4.4246   484.1    4.997      42.884
2015    5        2    13  15    4.4212   484.1    4.997      42.874
2015    5        2    13  20    4.4178   484.1    4.997      42.864
2015    5        2    13  26    4.4145   484.0    4.997      42.854
2015    5        2    13  32    4.4112   484.0    4.997      42.843
2015    5        2    13  38    4.4079   483.9    4.997      42.832
2015    5        2    13  44    4.4046   483.9    4.996      42.821
2015    5        2    13  50    4.4013   483.8    4.996      42.809
2015    5        2    13  55    4.3981   483.8    4.996      42.798
2015    5        2    14   1    4.3949   483.8    4.995      42.786
2015    5        2    14   7    4.3918   483.7    4.995      42.773
2015    5        2    14  13    4.3886   483.7    4.995      42.761
2015    5        2    14  19    4.3855   483.6    4.994      42.748
2015    5        2    14  24    4.3824   483.6    4.994      42.735
2015    5        2    14  30    4.3793   483.5    4.993      42.721
2015    5        2    14  36    4.3763   483.5    4.992      42.707
2015    5        2    14  42    4.3732   483.5    4.992      42.693
2015    5        2    14  48    4.3703   483.4    4.991      42.679
2015    5        2    14  54    4.3673   483.4    4.990      42.664
2015    5        2    14  59    4.3643   483.3    4.989      42.649
2015    5        2    15   5    4.3614   483.3    4.988      42.634
2015    5        2    15  11    4.3585   483.2    4.988      42.619
2015    5        2    15  17    4.3556   483.2    4.987      42.603
2015    5        2    15  23    4.3527   483.1    4.985      42.587
2015    5        2    15  29    4.3499   483.1    4.984      42.571
2015    5        2    15  34    4.3471   483.1    4.983      42.554
2015    5        2    15  40    4.3443   483.0    4.982      42.538
2015    5        2    15  46    4.3415   483.0    4.981      42.521
2015    5        2    15  52    4.3387   482.9    4.980      42.503
2015    5        2    15  58    4.3360   482.9    4.978      42.486
2015    5        2    16   3    4.3333   482.8    4.977      42.468
2015    5        2    16   9    4.3306   482.8    4.976      42.450
2015    5        2    16  15    4.3279   482.7    4.974      42.432
2015    5        2    16  21    4.3253   482.7    4.973      42.414
2015    5        2    16  27    4.3226   482.6    4.971      42.395
2015    5        2    16  33    4.3200   482.6    4.970      42.376
2015    5        2    16  38    4.3174   482.6    4.968      42.357
2015    5        2    16  44    4.3148   482.5    4.966      42.338
2015    5        2    16  50    4.3123   482.5    4.965      42.318
2015    5        2    16  56    4.3097   482.4    4.963      42.298
2015    5        2    17   2    4.3072   482.4    4.961      42.278
2015    5        2    17   8    4.3047   482.3    4.960      42.258
2015    5        2    17  13    4.3022   482.3    4.958      42.237
2015    5        2    17  19    4.2998   482.2    4.956      42.216
2015    5        2    17  25    4.2973   482.2    4.954      42.195
2015    5        2    17  31    4.2949   482.1    4.952      42.174
2015    5        2    17  37    4.2925   482.1    4.950      42.152
2015    5        2    17  43    4.2901   482.0    4.948      42.130
2015    5        2    17  48    4.2877   482.0    4.946      42.108
2015    5        2    17  54    4.2854   481.9    4.944      42.085
2015    5        2    18   0    4.2830   481.9    4.942      42.063
2015    5        2    18   6    4.2807   481.8    4.940      42.040
2015    5        2    18  12    4.2784   481.8    4.938      42.017
2015    5        2    18  18    4.2761   481.7    4.936      41.993
2015    5        2    18  23    4.2738   481.7    4.934      41.970
2015    5        2    18  29    4.2716   481.6    4.932      41.946
2015    5        2    18  35    4.2694   481.6    4.930      41.922
2015    5        2    18  41    4.2671   481.5    4.928      41.898
2015    5        2    18  47    4.2650   481.5    4.926      41.873
2015    5        2    18  52    4.2628   481.4    4.923      41.849
2015    5        2    18  58    4.2607   481.4    4.921      41.824
2015    5        2    19   4    4.2585   481.3    4.919      41.799
2015    5        2    19  10    4.2564   481.3    4.917      41.773
2015    5        2    19  16    4.2543   481.2    4.914      41.748
2015    5        2    19  22    4.2523   481.2    4.912      41.722
2015    5        2    19  27    4.2502   481.1    4.910      41.697
2015    5        2    19  33    4.2482   481.1    4.907      41.670
2015    5        2    19  39    4.2462   481.0    4.905      41.644
2015    5        2    19  45    4.2442   481.0    4.903      41.618
2015    5        2    19  51    4.2422   480.9    4.900      41.591
2015    5        2    19  57    4.2402   480.9    4.898      41.565
2015    5        2    20   2    4.2383   480.8    4.896      41.538
2015    5        2    20   8    4.2364   480.7    4.893      41.511
2015    5        2    20  14    4.2345   480.7    4.891      41.483
2015    5        2    20  20    4.2326   480.6    4.889      41.456
2015    5        2    20  26    4.2308   480.6    4.886      41.428
2015    5        2    20  32    4.2289   480.5    4.884      41.401
2015    5        2    20  37    4.2271   480.5    4.882      41.373
2015    5        2    20  43    4.2253   480.4    4.879      41.346
2015    5        2    20  49    4.2236   480.4    4.877      41.318
2015    5        2    20  55    4.2218   480.3    4.875      41.290
2015    5        2    21   1    4.2201   480.2    4.873      41.262
2015    5        2    21   6    4.2183   480.2    4.871      41.234
2015    5        2    21  12    4.2166   480.1    4.868      41.206
2015    5        2    21  18    4.2150   480.1    4.866      41.178
2015    5        2    21  24    4.2133   480.0    4.864      41.151
2015    5        2    21  30    4.2116   480.0    4.862      41.123
2015    5        2    21  36    4.2100   479.9    4.860      41.095
2015    5        2    21  41    4.2084   479.8    4.858      41.067
2015    5        2    21  47    4.2068   479.8    4.856      41.040
2015    5        2    21  53    4.2053   479.7    4.854      41.012
2015    5        2    21  59    4.2037   479.7    4.852      40.985
2015    5        2    22   5    4.2021   479.6    4.851      40.958
2015    5        2    22  11    4.2006   479.5    4.849      40.930
2015    5        2    22  16    4.1991   479.5    4.847      40.903
2015    5        2    22  22    4.1976   479.4    4.845      40.876
2015    5        2    22  28    4.1961   479.4    4.844      40.850
2015    5        2    22  34    4.1946   479.3    4.842      40.823
2015    5        2    22  40    4.1932   479.3    4.840      40.796
2015    5        2    22  46    4.1917   479.2    4.839      40.770
2015    5        2    22  51    4.1902   479.1    4.837      40.744
2015    5        2    22  57    4.1888   479.1    4.836      40.718
2015    5        2    23   3    4.1874   479.0    4.834      40.691
2015    5        2    23   9    4.1859   478.9    4.833      40.666
2015    5        2    23  15    4.1845   478.9    4.831      40.640
2015    5        2    23  20    4.1831   478.8    4.830      40.614
2015    5        2    23  26    4.1817   478.8    4.828      40.588
2015    5        2    23  32    4.1803   478.7    4.827      40.563
2015    5        2    23  38    4.1789   478.6    4.825      40.537
2015    5        2    23  44    4.1775   478.6    4.824      40.512
2015    5        2    23  50    4.1761   478.5    4.822      40.487
2015    5        2    23  55    4.1747   478.4    4.821      40.462
2015    5        3     0   1    4.1733   478.4    4.819      40.436
2015    5        3     0   7    4.1719   478.3    4.818      40.411
2015    5        3     0  13    4.1706   478.2    4.816      40.386
2015    5        3     0  19    4.1692   478.2    4.815      40.361
2015    5        3     0  25    4.1679   478.1    4.813      40.336
2015    5        3     0  30    4.1665   478.0    4.812      40.311
2015    5        3     0  36    4.1652   478.0    4.810      40.286
2015    5        3     0  42    4.1639   477.9    4.809      40.261
2015    5        3     0  48    4.1625   477.8    4.807      40.236
2015    5        3     0  54    4.1612   477.8    4.806      40.211
2015    5        3     1   0    4.1599   477.7    4.804      40.186
2015    5        3     1   5    4.1586   477.6    4.803      40.160
2015    5        3     1  11    4.1573   477.6    4.801      40.135
2015    5        3     1  17    4.1560   477.5    4.799      40.110
2015    5        3     1  23    4.1548   477.4    4.798      40.085
2015    5        3     1  29    4.1535   477.3    4.796      40.060
2015    5        3     1  34    4.1523   477.3    4.795      40.034
2015    5        3     1  40    4.1510   477.2    4.793      40.009
2015    5        3     1  46    4.1498   477.1    4.791      39.983
2015    5        3     1  52    4.1486   477.0    4.790      39.958
2015    5        3     1  58    4.1474   477.0    4.788      39.932
2015    5        3     2   4    4.1462   476.9    4.786      39.907
2015    5        3     2   9    4.1450   476.8    4.785      39.881
2015    5        3     2  15    4.1439   476.7    4.783      39.855
2015    5        3     2  21    4.1427   476.7    4.782      39.829
2015    5        3     2  27    4.1416   476.6    4.780      39.803
2015    5        3     2  33    4.1405   476.5    4.779      39.778
2015    5        3     2  39    4.1394   476.4    4.777      39.752
2015    5        3     2  44    4.1382   476.3    4.776      39.725
2015    5        3     2  50    4.1372   476.3    4.774      39.700
2015    5        3     2  56    4.1361   476.2    4.773      39.673
2015    5        3     3   2    4.1350   476.1    4.771      39.647
2015    5        3     3   8    4.1339   476.0    4.770      39.621
2015    5        3     3  14    4.1329   475.9    4.769      39.595
2015    5        3     3  19    4.1319   475.9    4.768      39.569
2015    5        3     3  25    4.1308   475.8    4.766      39.543
2015    5        3     3  31    4.1298   475.7    4.765      39.517
2015    5        3     3  37    4.1288   475.6    4.764      39.491
2015    5        3     3  43    4.1278   475.5    4.763      39.466
2015    5        3     3  49    4.1268   475.5    4.762      39.440
2015    5        3     3  54    4.1258   475.4    4.761      39.414
2015    5        3     4   0    4.1249   475.3    4.760      39.388
2015    5        3     4   6    4.1239   475.2    4.760      39.363
2015    5        3     4  12    4.1229   475.1    4.759      39.337
2015    5        3     4  18    4.1220   475.0    4.758      39.312
2015    5        3     4  23    4.1210   475.0    4.757      39.287
2015    5        3     4  29    4.1200   474.9    4.757      39.261
2015    5        3     4  35    4.1191   474.8    4.756      39.236
2015    5        3     4  41    4.1181   474.7    4.756      39.211
2015    5        3     4  47    4.1172   474.6    4.756      39.187
2015    5        3     4  53    4.1162   474.5    4.755      39.162
2015    5        3     4  58    4.1152   474.4    4.755      39.137
2015    5        3     5   4    4.1143   474.4    4.755      39.113
2015    5        3     5  10    4.1133   474.3    4.755      39.088
2015    5        3     5  16    4.1124   474.2    4.755      39.064
2015    5        3     5  22    4.1114   474.1    4.754      39.040
2015    5        3     5  28    4.1105   474.0    4.754      39.016
2015    5        3     5  33    4.1095   473.9    4.754      38.992
2015    5        3     5  39    4.1086   473.8    4.755      38.968
2015    5        3     5  45    4.1076   473.7    4.755      38.945
2015    5        3     5  51    4.1067   473.7    4.755      38.921
2015    5        3     5  57    4.1057   473.6    4.755      38.898
2015    5        3     6   3    4.1047   473.5    4.755      38.875
2015    5        3     6   8    4.1038   473.4    4.755      38.852
2015    5        3     6  14    4.1028   473.3    4.756      38.829
2015    5        3     6  20    4.1018   473.2    4.756      38.806
2015    5        3     6  26    4.1009   473.1    4.756      38.783
2015    5        3     6  32    4.0999   473.0    4.757      38.761
2015    5        3     6  37    4.0989   472.9    4.757      38.738
2015    5        3     6  43    4.0979   472.8    4.757      38.716
2015    5        3     6  49    4.0970   472.8    4.758      38.694
2015    5        3     6  55    4.0960   472.7    4.758      38.672
2015    5        3     7   1    4.0950   472.6    4.759      38.649
2015    5        3     7   7    4.0941   472.5    4.759      38.628
2015    5        3     7  12    4.0931   472.4    4.759      38.606
2015    5        3     7  18    4.0921   472.3    4.760      38.584
2015    5        3     7  24    4.0912   472.2    4.760      38.563
2015    5        3     7  30    4.0902   472.1    4.761      38.542
2015    5        3     7  36    4.0893   472.0    4.761      38.521
2015    5        3     7  42    4.0883   471.9    4.761      38.500
2015    5        3     7  47    4.0873   471.8    4.762      38.480
2015    5        3     7  53    4.0864   471.7    4.762      38.459
2015    5        3     7  59    4.0854   471.6    4.762      38.439
2015    5        3     8   5    4.0845   471.5    4.762      38.418
2015    5        3     8  11    4.0835   471.4    4.763      38.397
2015    5        3     8  17    4.0826   471.3    4.763      38.376
2015    5        3     8  22    4.0817   471.2    4.763      38.355
2015    5        3     8  28    4.0807   471.1    4.763      38.334
2015    5        3     8  34    4.0798   471.0    4.763      38.313
2015    5        3     8  40    4.0789   470.9    4.763      38.292
2015    5        3     8  46    4.0780   470.8    4.763      38.270
2015    5        3     8  51    4.0771   470.7    4.764      38.249
2015    5        3     8  57    4.0762   470.6    4.764      38.227
2015    5        3     9   3    4.0753   470.5    4.764      38.206
2015    5        3     9   9    4.0744   470.4    4.764      38.184
2015    5        3     9  15    4.0735   470.3    4.764      38.162
2015    5        3     9  21    4.0727   470.2    4.764      38.140
2015    5        3     9  26    4.0718   470.0    4.764      38.118
2015    5        3     9  32    4.0710   469.9    4.764      38.095
2015    5        3     9  38    4.0701   469.8    4.764      38.073
2015    5        3     9  44    4.0693   469.7    4.764      38.050
2015    5        3     9  50    4.0685   469.6    4.764      38.028
2015    5        3     9  56    4.0677   469.5    4.764      38.005
2015    5        3    10   1    4.0668   469.4    4.764      37.981
2015    5        3    10   7    4.0660   469.3    4.764      37.958
2015    5        3    10  13    4.0652   469.2    4.764      37.935
2015    5        3    10  19    4.0644   469.1    4.764      37.911
2015    5        3    10  25    4.0636   468.9    4.764      37.887
2015    5        3    10  31    4.0628   468.8    4.764      37.863
2015    5        3    10  36    4.0620   468.7    4.764      37.839
2015    5        3    10  42    4.0612   468.6    4.764      37.815
2015    5        3    10  48    4.0604   468.5    4.764      37.790
2015    5        3    10  54    4.0596   468.4    4.764      37.765
2015    5        3    11   0    4.0588   468.2    4.764      37.740
2015    5        3    11   6    4.0579   468.1    4.764      37.715
2015    5        3    11  11    4.0571   468.0    4.764      37.689
2015    5        3    11  17    4.0563   467.9    4.764      37.663
2015    5        3    11  23    4.0554   467.8    4.764      37.637
2015    5        3    11  29    4.0546   467.6    4.764      37.611
2015    5        3    11  35    4.0537   467.5    4.764      37.584
2015    5        3    11  40    4.0529   467.4    4.763      37.557
2015    5        3    11  46    4.0520   467.3    4.763      37.530
2015    5        3    11  52    4.0512   467.2    4.763      37.502
2015    5        3    11  58    4.0503   467.0    4.763      37.474
2015    5        3    12   4    4.0495   466.9    4.763      37.447
2015    5        3    12  10    4.0486   466.8    4.762      37.419
2015    5        3    12  15    4.0477   466.7    4.762      37.390
2015    5        3    12  21    4.0469   466.5    4.762      37.362
2015    5        3    12  27    4.0460   466.4    4.762      37.334
2015    5        3    12  33    4.0452   466.3    4.762      37.305
2015    5        3    12  39    4.0443   466.2    4.762      37.276
2015    5        3    12  45    4.0435   466.0    4.761      37.248
2015    5        3    12  50    4.0426   465.9    4.761      37.219
2015    5        3    12  56    4.0418   465.8    4.761      37.190
2015    5        3    13   2    4.0409   465.7    4.761      37.161
2015    5        3    13   8    4.0401   465.5    4.761      37.133
2015    5        3    13  14    4.0393   465.4    4.761      37.104
2015    5        3    13  20    4.0385   465.3    4.762      37.075
2015    5        3    13  25    4.0377   465.1    4.762      37.047
2015    5        3    13  31    4.0370   465.0    4.762      37.019
2015    5        3    13  37    4.0362   464.9    4.762      36.991
2015    5        3    13  43    4.0354   464.8    4.763      36.963
2015    5        3    13  49    4.0347   464.6    4.763      36.935
2015    5        3    13  54    4.0340   464.5    4.764      36.908
2015    5        3    14   0    4.0333   464.4    4.765      36.881
2015    5        3    14   6    4.0326   464.2    4.765      36.855
2015    5        3    14  12    4.0319   464.1    4.766      36.829
2015    5        3    14  18    4.0312   464.0    4.767      36.803
2015    5        3    14  24    4.0306   463.9    4.768      36.777
2015    5        3    14  29    4.0299   463.7    4.769      36.752
2015    5        3    14  35    4.0293   463.6    4.770      36.727
2015    5        3    14  41    4.0287   463.5    4.772      36.703
2015    5        3    14  47    4.0281   463.4    4.773      36.680
2015    5        3    14  53    4.0274   463.2    4.774      36.657
2015    5        3    14  59    4.0268   463.1    4.776      36.634
2015    5        3    15   4    4.0262   463.0    4.777      36.612
2015    5        3    15  10    4.0256   462.9    4.779      36.591
2015    5        3    15  16    4.0249   462.7    4.780      36.570
2015    5        3    15  22    4.0243   462.6    4.782      36.549
2015    5        3    15  28    4.0236   462.5    4.784      36.529
2015    5        3    15  34    4.0229   462.4    4.785      36.509
2015    5        3    15  39    4.0222   462.2    4.787      36.489
2015    5        3    15  45    4.0215   462.1    4.788      36.468
2015    5        3    15  51    4.0208   462.0    4.790      36.448
2015    5        3    15  57    4.0201   461.9    4.791      36.428
2015    5        3    16   3    4.0193   461.7    4.792      36.407
2015    5        3    16   9    4.0185   461.6    4.794      36.387
2015    5        3    16  14    4.0177   461.5    4.795      36.366
2015    5        3    16  20    4.0169   461.4    4.796      36.345
2015    5        3    16  26    4.0160   461.2    4.797      36.323
2015    5        3    16  32    4.0152   461.1    4.798      36.302
2015    5        3    16  38    4.0143   461.0    4.799      36.280
2015    5        3    16  43    4.0134   460.8    4.800      36.258
2015    5        3    16  49    4.0125   460.7    4.801      36.236
2015    5        3    16  55    4.0116   460.6    4.802      36.214
2015    5        3    17   1    4.0107   460.5    4.803      36.191
2015    5        3    17   7    4.0097   460.3    4.804      36.168
2015    5        3    17  13    4.0088   460.2    4.805      36.145
2015    5        3    17  18    4.0078   460.1    4.806      36.122
2015    5        3    17  24    4.0069   459.9    4.806      36.099
2015    5        3    17  30    4.0059   459.8    4.807      36.075
2015    5        3    17  36    4.0050   459.7    4.808      36.052
2015    5        3    17  42    4.0040   459.5    4.808      36.028
2015    5        3    17  48    4.0030   459.4    4.809      36.004
2015    5        3    17  53    4.0020   459.3    4.809      35.980
2015    5        3    17  59    4.0011   459.1    4.810      35.956
2015    5        3    18   5    4.0001   459.0    4.811      35.931
2015    5        3    18  11    3.9991   458.9    4.811      35.907
2015    5        3    18  17    3.9981   458.7    4.812      35.883
2015    5        3    18  23    3.9971   458.6    4.812      35.858
2015    5        3    18  28    3.9962   458.5    4.812      35.833
2015    5        3    18  34    3.9952   458.3    4.813      35.808
2015    5        3    18  40    3.9942   458.2    4.813      35.783
2015    5        3    18  46    3.9933   458.1    4.814      35.758
2015    5        3    18  52    3.9923   457.9    4.814      35.732
2015    5        3    18  58    3.9913   457.8    4.814      35.707
2015    5        3    19   3    3.9904   457.7    4.815      35.681
2015    5        3    19   9    3.9894   457.5    4.815      35.656
2015    5        3    19  15    3.9885   457.4    4.815      35.630
2015    5        3    19  21    3.9876   457.2    4.815      35.604
2015    5        3    19  27    3.9866   457.1    4.816      35.578
2015    5        3    19  32    3.9857   457.0    4.816      35.552
2015    5        3    19  38    3.9848   456.8    4.816      35.526
2015    5        3    19  44    3.9839   456.7    4.816      35.500
2015    5        3    19  50    3.9830   456.6    4.817      35.474
2015    5        3    19  56    3.9821   456.4    4.817      35.448
2015    5        3    20   2    3.9813   456.3    4.817      35.422
2015    5        3    20   7    3.9804   456.1    4.817      35.396
2015    5        3    20  13    3.9795   456.0    4.818      35.370
2015    5        3    20  19    3.9787   455.9    4.818      35.343
2015    5        3    20  25    3.9779   455.7    4.818      35.317
2015    5        3    20  31    3.9770   455.6    4.818      35.291
2015    5        3    20  37    3.9762   455.4    4.819      35.265
2015    5        3    20  42    3.9754   455.3    4.819      35.239
2015    5        3    20  48    3.9746   455.2    4.819      35.214
2015    5        3    20  54    3.9738   455.0    4.819      35.188
2015    5        3    21   0    3.9730   454.9    4.820      35.162
2015    5        3    21   6    3.9722   454.7    4.820      35.137
2015    5        3    21  12    3.9713   454.6    4.821      35.111
2015    5        3    21  17    3.9705   454.5    4.821      35.086
2015    5        3    21  23    3.9697   454.3    4.821      35.061
2015    5        3    21  29    3.9688   454.2    4.822      35.036
2015    5        3    21  35    3.9679   454.1    4.822      35.011
2015    5        3    21  41    3.9670   453.9    4.823      34.986
2015    5        3    21  47    3.9661   453.8    4.823      34.961
2015    5        3    21  52    3.9652   453.7    4.823      34.937
2015    5        3    21  58    3.9643   453.5    4.824      34.912
2015    5        3    22   4    3.9634   453.4    4.824      34.887
2015    5        3    22  10    3.9624   453.2    4.825      34.862
2015    5        3    22  16    3.9615   453.1    4.825      34.837
2015    5        3    22  21    3.9605   453.0    4.825      34.812
2015    5        3    22  27    3.9595   452.8    4.826      34.787
2015    5        3    22  33    3.9585   452.7    4.826      34.762
2015    5        3    22  39    3.9575   452.6    4.826      34.736
2015    5        3    22  45    3.9565   452.4    4.827      34.710
2015    5        3    22  51    3.9555   452.3    4.827      34.684
2015    5        3    22  56    3.9545   452.1    4.827      34.658
2015    5        3    23   2    3.9535   452.0    4.827      34.632
2015    5        3    23   8    3.9525   451.8    4.828      34.606
2015    5        3    23  14    3.9515   451.7    4.828      34.580
2015    5        3    23  20    3.9505   451.6    4.828      34.553
2015    5        3    23  26    3.9495   451.4    4.828      34.526
2015    5        3    23  31    3.9485   451.3    4.828      34.500
2015    5        3    23  37    3.9475   451.1    4.828      34.473
2015    5        3    23  43    3.9465   451.0    4.828      34.446
2015    5        3    23  49    3.9455   450.8    4.829      34.419
2015    5        3    23  55    3.9445   450.7    4.829      34.392
2015    5        4     0   1    3.9435   450.5    4.829      34.365
2015    5        4     0   6    3.9425   450.4    4.829      34.338
2015    5        4     0  12    3.9415   450.2    4.829      34.311
2015    5        4     0  18    3.9406   450.1    4.830      34.284
2015    5        4     0  24    3.9396   449.9    4.830      34.257
2015    5        4     0  30    3.9387   449.8    4.830      34.230
2015    5        4     0  36    3.9377   449.6    4.831      34.203
2015    5        4     0  41    3.9368   449.5    4.831      34.177
2015    5        4     0  47    3.9359   449.3    4.832      34.150
2015    5        4     0  53    3.9350   449.2    4.832      34.124
2015    5        4     0  59    3.9341   449.0    4.833      34.097
2015    5        4     1   5    3.9332   448.9    4.834      34.071
2015    5        4     1  10    3.9324   448.7    4.834      34.045
2015    5        4     1  16    3.9316   448.5    4.835      34.020
2015    5        4     1  22    3.9307   448.4    4.836      33.994
2015    5        4     1  28    3.9299   448.2    4.837      33.969
2015    5        4     1  34    3.9292   448.1    4.839      33.944
2015    5        4     1  40    3.9284   447.9    4.840      33.919
2015    5        4     1  45    3.9276   447.8    4.841      33.895
2015    5        4     1  51    3.9269   447.6    4.843      33.870
2015    5        4     1  57    3.9262   447.5    4.844      33.846
2015    5        4     2   3    3.9255   447.3    4.846      33.822
2015    5        4     2   9    3.9249   447.1    4.848      33.798
2015    5        4     2  15    3.9242   447.0    4.850      33.775
2015    5        4     2  20    3.9236   446.8    4.852      33.751
2015    5        4     2  26    3.9229   446.7    4.854      33.728
2015    5        4     2  32    3.9223   446.5    4.856      33.705
2015    5        4     2  38    3.9217   446.4    4.858      33.682
2015    5        4     2  44    3.9211   446.2    4.861      33.659
2015    5        4     2  50    3.9206   446.0    4.863      33.637
2015    5        4     2  55    3.9200   445.9    4.866      33.614
2015    5        4     3   1    3.9195   445.7    4.868      33.592
2015    5        4     3   7    3.9190   445.6    4.871      33.570
2015    5        4     3  13    3.9185   445.4    4.874      33.548
2015    5        4     3  19    3.9180   445.2    4.877      33.527
2015    5        4     3  25    3.9175   445.1    4.880      33.505
2015    5        4     3  30    3.9170   444.9    4.883      33.484
2015    5        4     3  36    3.9166   444.7    4.886      33.463
2015    5        4     3  42    3.9162   444.6    4.889      33.443
2015    5        4     3  48    3.9158   444.4    4.893      33.422
2015    5        4     3  54    3.9154   444.2    4.896      33.402
2015    5        4     3  59    3.9150   444.1    4.900      33.382
2015    5        4     4   5    3.9147   443.9    4.904      33.363
2015    5        4     4  11    3.9144   443.8    4.907      33.344
2015    5        4     4  17    3.9141   443.6    4.911      33.325
2015    5        4     4  23    3.9138   443.4    4.915      33.306
2015    5        4     4  29    3.9135   443.3    4.919      33.288
2015    5        4     4  34    3.9133   443.1    4.923      33.270
2015    5        4     4  40    3.9131   442.9    4.928      33.253
2015    5        4     4  46    3.9129   442.8    4.932      33.236
2015    5        4     4  52    3.9127   442.6    4.936      33.219
2015    5        4     4  58    3.9126   442.4    4.941      33.202
2015    5        4     5   4    3.9124   442.3    4.945      33.186
2015    5        4     5   9    3.9123   442.1    4.950      33.170
2015    5        4     5  15    3.9123   441.9    4.954      33.154
2015    5        4     5  21    3.9122   441.8    4.959      33.138
2015    5        4     5  27    3.9122   441.6    4.964      33.123
2015    5        4     5  33    3.9121   441.4    4.969      33.107
2015    5        4     5  39    3.9122   441.3    4.974      33.092
2015    5        4     5  44    3.9122   441.1    4.978      33.077
2015    5        4     5  50    3.9122   441.0    4.983      33.063
2015    5        4     5  56    3.9123   440.8    4.988      33.048
2015    5        4     6   2    3.9124   440.6    4.993      33.033
2015    5        4     6   8    3.9125   440.5    4.998      33.019
2015    5        4     6  14    3.9126   440.3    5.003      33.005
2015    5        4     6  19    3.9128   440.1    5.008      32.990
2015    5        4     6  25    3.9130   440.0    5.013      32.976
2015    5        4     6  31    3.9131   439.8    5.018      32.962
2015    5        4     6  37    3.9134   439.7    5.023      32.949
2015    5        4     6  43    3.9136   439.5    5.028      32.935
2015    5        4     6  48    3.9138   439.3    5.033      32.922
2015    5        4     6  54    3.9141   439.2    5.038      32.908
2015    5        4     7   0    3.9144   439.0    5.043      32.895
2015    5        4     7   6    3.9147   438.8    5.048      32.882
2015    5        4     7  12    3.9150   438.7    5.053      32.869
2015    5        4     7  18    3.9154   438.5    5.058      32.856
2015    5        4     7  23    3.9158   438.4    5.062      32.843
2015    5        4     7  29    3.9161   438.2    5.067      32.830
2015    5        4     7  35    3.9166   438.0    5.072      32.816
2015    5        4     7  41    3.9170   437.9    5.077      32.803
2015    5        4     7  47    3.9175   437.7    5.081      32.790
2015    5        4     7  53    3.9180   437.6    5.086      32.776
2015    5        4     7  58    3.9185   437.4    5.091      32.763
2015    5        4     8   4    3.9190   437.2    5.096      32.749
2015    5        4     8  10    3.9196   437.1    5.100      32.735
2015    5        4     8  16    3.9202   436.9    5.105      32.721
2015    5        4     8  22    3.9208   436.8    5.110      32.707
2015    5        4     8  28    3.9215   436.6    5.115      32.693
2015    5        4     8  33    3.9222   436.5    5.120      32.679
2015    5        4     8  39    3.9229   436.3    5.124      32.665
2015    5        4     8  45    3.9237   436.1    5.129      32.651
2015    5        4     8  51    3.9245   436.0    5.134      32.637
2015    5        4     8  57    3.9253   435.8    5.139      32.623
2015    5        4     9   3    3.9261   435.7    5.144      32.609
2015    5        4     9   8    3.9270   435.5    5.149      32.595
2015    5        4     9  14    3.9280   435.4    5.154      32.581
2015    5        4     9  20    3.9289   435.2    5.159      32.568
2015    5        4     9  26    3.9299   435.1    5.165      32.554
2015    5        4     9  32    3.9310   434.9    5.170      32.540
2015    5        4     9  37    3.9320   434.8    5.175      32.527
2015    5        4     9  43    3.9331   434.6    5.181      32.513
2015    5        4     9  49    3.9343   434.5    5.186      32.500
2015    5        4     9  55    3.9355   434.3    5.192      32.487
2015    5        4    10   1    3.9367   434.2    5.197      32.474
2015    5        4    10   7    3.9379   434.0    5.203      32.461
2015    5        4    10  12    3.9392   433.9    5.209      32.449
2015    5        4    10  18    3.9406   433.7    5.215      32.437
2015    5        4    10  24    3.9419   433.6    5.221      32.425
2015    5        4    10  30    3.9433   433.4    5.227      32.413
2015    5        4    10  36    3.9448   433.3    5.233      32.401
2015    5        4    10  42    3.9462   433.2    5.239      32.390
2015    5        4    10  47    3.9477   433.0    5.246      32.379
2015    5        4    10  53    3.9493   432.9    5.252      32.368
2015    5        4    10  59    3.9508   432.7    5.259      32.358
2015    5        4    11   5    3.9524   432.6    5.265      32.347
2015    5        4    11  11    3.9541   432.5    5.272      32.337
2015    5        4    11  17    3.9558   432.3    5.279      32.328
2015    5        4    11  22    3.9574   432.2    5.286      32.318
2015    5        4    11  28    3.9592   432.0    5.293      32.309
2015    5        4    11  34    3.9609   431.9    5.300      32.301
2015    5        4    11  40    3.9627   431.8    5.307      32.292
2015    5        4    11  46    3.9644   431.6    5.314      32.284
2015    5        4    11  52    3.9662   431.5    5.322      32.276
2015    5        4    11  57    3.9680   431.4    5.329      32.268
2015    5        4    12   3    3.9699   431.2    5.337      32.261
2015    5        4    12   9    3.9717   431.1    5.344      32.254
2015    5        4    12  15    3.9735   431.0    5.352      32.247
2015    5        4    12  21    3.9754   430.9    5.360      32.240
2015    5        4    12  26    3.9773   430.7    5.367      32.233
2015    5        4    12  32    3.9791   430.6    5.375      32.227
2015    5        4    12  38    3.9810   430.5    5.383      32.221
2015    5        4    12  44    3.9829   430.4    5.390      32.215
2015    5        4    12  50    3.9848   430.2    5.398      32.209
2015    5        4    12  56    3.9867   430.1    5.406      32.203
2015    5        4    13   1    3.9886   430.0    5.414      32.198
2015    5        4    13   7    3.9905   429.8    5.422      32.192
2015    5        4    13  13    3.9924   429.7    5.429      32.187
2015    5        4    13  19    3.9944   429.6    5.437      32.182
2015    5        4    13  25    3.9963   429.5    5.445      32.177
2015    5        4    13  31    3.9983   429.3    5.453      32.172
2015    5        4    13  36    4.0003   429.2    5.461      32.167
2015    5        4    13  42    4.0023   429.1    5.468      32.162
2015    5        4    13  48    4.0043   429.0    5.476      32.158
2015    5        4    13  54    4.0063   428.8    5.484      32.154
2015    5        4    14   0    4.0083   428.7    5.492      32.149
2015    5        4    14   6    4.0104   428.6    5.499      32.145
2015    5        4    14  11    4.0124   428.5    5.507      32.141
2015    5        4    14  17    4.0145   428.4    5.514      32.138
2015    5        4    14  23    4.0167   428.2    5.522      32.134
2015    5        4    14  29    4.0188   428.1    5.530      32.131
2015    5        4    14  35    4.0210   428.0    5.537      32.128
2015    5        4    14  41    4.0231   427.9    5.545      32.125
2015    5        4    14  46    4.0253   427.8    5.552      32.122
2015    5        4    14  52    4.0276   427.7    5.559      32.119
2015    5        4    14  58    4.0298   427.5    5.567      32.116
2015    5        4    15   4    4.0321   427.4    5.574      32.114
2015    5        4    15  10    4.0344   427.3    5.582      32.111
2015    5        4    15  16    4.0367   427.2    5.589      32.109
2015    5        4    15  21    4.0391   427.1    5.596      32.107
2015    5        4    15  27    4.0415   427.0    5.604      32.104
2015    5        4    15  33    4.0439   426.9    5.611      32.102
2015    5        4    15  39    4.0463   426.7    5.618      32.100
2015    5        4    15  45    4.0488   426.6    5.625      32.099
2015    5        4    15  50    4.0513   426.5    5.633      32.097
2015    5        4    15  56    4.0538   426.4    5.640      32.096
2015    5        4    16   2    4.0564   426.3    5.647      32.094
2015    5        4    16   8    4.0590   426.2    5.654      32.093
2015    5        4    16  14    4.0616   426.1    5.661      32.092
2015    5        4    16  20    4.0642   426.0    5.669      32.091
2015    5        4    16  25    4.0668   425.9    5.676      32.090
2015    5        4    16  31    4.0695   425.8    5.683      32.089
2015    5        4    16  37    4.0722   425.7    5.690      32.089
2015    5        4    16  43    4.0749   425.6    5.697      32.088
2015    5        4    16  49    4.0777   425.5    5.704      32.088
2015    5        4    16  55    4.0804   425.4    5.711      32.087
2015    5        4    17   0    4.0832   425.3    5.719      32.087
2015    5        4    17   6    4.0860   425.2    5.726      32.087
2015    5        4    17  12    4.0889   425.1    5.733      32.087
2015    5        4    17  18    4.0917   425.0    5.740      32.087
2015    5        4    17  24    4.0946   424.9    5.747      32.088
2015    5        4    17  30    4.0974   424.8    5.755      32.088
2015    5        4    17  35    4.1003   424.7    5.762      32.089
2015    5        4    17  41    4.1033   424.6    5.769      32.089
2015    5        4    17  47    4.1062   424.5    5.776      32.090
2015    5        4    17  53    4.1091   424.4    5.784      32.091
2015    5        4    17  59    4.1121   424.4    5.791      32.092
2015    5        4    18   5    4.1150   424.3    5.798      32.094
2015    5        4    18  10    4.1180   424.2    5.806      32.095
2015    5        4    18  16    4.1210   424.1    5.813      32.097
2015    5        4    18  22    4.1240   424.0    5.821      32.099
2015    5        4    18  28    4.1270   423.9    5.828      32.101
2015    5        4    18  34    4.1301   423.8    5.836      32.103
2015    5        4    18  39    4.1331   423.8    5.843      32.106
2015    5        4    18  45    4.1362   423.7    5.851      32.108
2015    5        4    18  51    4.1393   423.6    5.859      32.111
2015    5        4    18  57    4.1423   423.5    5.866      32.114
2015    5        4    19   3    4.1454   423.4    5.874      32.118
2015    5        4    19   9    4.1485   423.3    5.882      32.122
2015    5        4    19  14    4.1517   423.3    5.890      32.126
2015    5        4    19  20    4.1548   423.2    5.898      32.130
2015    5        4    19  26    4.1579   423.1    5.906      32.134
2015    5        4    19  32    4.1611   423.0    5.914      32.139
2015    5        4    19  38    4.1643   423.0    5.922      32.144
2015    5        4    19  44    4.1674   422.9    5.930      32.149
2015    5        4    19  49    4.1706   422.8    5.938      32.154
2015    5        4    19  55    4.1738   422.7    5.946      32.160
2015    5        4    20   1    4.1770   422.7    5.954      32.166
2015    5        4    20   7    4.1803   422.6    5.963      32.172
2015    5        4    20  13    4.1835   422.5    5.971      32.178
2015    5        4    20  19    4.1867   422.4    5.979      32.184
2015    5        4    20  24    4.1900   422.4    5.988      32.191
2015    5        4    20  30    4.1933   422.3    5.996      32.198
2015    5        4    20  36    4.1966   422.2    6.005      32.206
2015    5        4    20  42    4.1998   422.1    6.013      32.213
2015    5        4    20  48    4.2032   422.1    6.022      32.221
2015    5        4    20  54    4.2065   422.0    6.030      32.229
2015    5        4    20  59    4.2098   421.9    6.039      32.237
2015    5        4    21   5    4.2132   421.9    6.047      32.245
2015    5        4    21  11    4.2165   421.8    6.056      32.254
2015    5        4    21  17    4.2199   421.7    6.065      32.263
2015    5        4    21  23    4.2233   421.7    6.074      32.272
2015    5        4    21  29    4.2267   421.6    6.082      32.281
2015    5        4    21  34    4.2302   421.6    6.091      32.290
2015    5        4    21  40    4.2336   421.5    6.100      32.300
2015    5        4    21  46    4.2371   421.4    6.109      32.309
2015    5        4    21  52    4.2406   421.4    6.118      32.319
2015    5        4    21  58    4.2441   421.3    6.127      32.329
2015    5        4    22   3    4.2476   421.2    6.136      32.340
2015    5        4    22   9    4.2512   421.2    6.145      32.350
2015    5        4    22  15    4.2547   421.1    6.154      32.361
2015    5        4    22  21    4.2583   421.1    6.163      32.372
2015    5        4    22  27    4.2619   421.0    6.172      32.383
2015    5        4    22  33    4.2655   420.9    6.181      32.395
2015    5        4    22  38    4.2692   420.9    6.190      32.407
2015    5        4    22  44    4.2728   420.8    6.199      32.419
2015    5        4    22  50    4.2765   420.8    6.207      32.431
2015    5        4    22  56    4.2801   420.7    6.216      32.444
2015    5        4    23   2    4.2838   420.7    6.225      32.456
2015    5        4    23   8    4.2876   420.6    6.234      32.469
2015    5        4    23  13    4.2913   420.6    6.243      32.482
2015    5        4    23  19    4.2950   420.5    6.252      32.495
2015    5        4    23  25    4.2988   420.5    6.261      32.508
2015    5        4    23  31    4.3026   420.4    6.270      32.522
2015    5        4    23  37    4.3064   420.4    6.278      32.535
2015    5        4    23  43    4.3103   420.3    6.287      32.548
2015    5        4    23  48    4.3142   420.3    6.296      32.562
2015    5        4    23  54    4.3181   420.2    6.305      32.575
2015    5        5     0   0    4.3221   420.2    6.314      32.589
2015    5        5     0   6    4.3260   420.1    6.323      32.602
2015    5        5     0  12    4.3300   420.1    6.332      32.617
2015    5        5     0  18    4.3340   420.1    6.340      32.631
2015    5        5     0  23    4.3380   420.0    6.349      32.645
2015    5        5     0  29    4.3421   420.0    6.358      32.660
2015    5        5     0  35    4.3461   419.9    6.367      32.675
2015    5        5     0  41    4.3502   419.9    6.375      32.691
2015    5        5     0  47    4.3543   419.9    6.384      32.707
2015    5        5     0  52    4.3584   419.8    6.393      32.723
2015    5        5     0  58    4.3625   419.8    6.401      32.739
2015    5        5     1   4    4.3666   419.7    6.410      32.755
2015    5        5     1  10    4.3707   419.7    6.418      32.772
2015    5        5     1  16    4.3749   419.7    6.426      32.788
2015    5        5     1  22    4.3790   419.6    6.435      32.804
2015    5        5     1  27    4.3831   419.6    6.443      32.821
2015    5        5     1  33    4.3873   419.6    6.451      32.837
2015    5        5     1  39    4.3914   419.6    6.459      32.854
2015    5        5     1  45    4.3956   419.5    6.468      32.870
2015    5        5     1  51    4.3998   419.5    6.476      32.887
2015    5        5     1  57    4.4039   419.5    6.484      32.903
2015    5        5     2   2    4.4081   419.4    6.492      32.920
2015    5        5     2   8    4.4123   419.4    6.500      32.937
2015    5        5     2  14    4.4165   419.4    6.508      32.954
2015    5        5     2  20    4.4206   419.4    6.516      32.971
2015    5        5     2  26    4.4248   419.3    6.524      32.988
2015    5        5     2  32    4.4290   419.3    6.532      33.005
2015    5        5     2  37    4.4332   419.3    6.541      33.022
2015    5        5     2  43    4.4374   419.3    6.549      33.039
2015    5        5     2  49    4.4416   419.2    6.557      33.057
2015    5        5     2  55    4.4458   419.2    6.565      33.075
2015    5        5     3   1    4.4500   419.2    6.573      33.092
2015    5        5     3   7    4.4542   419.2    6.581      33.110
2015    5        5     3  12    4.4584   419.1    6.589      33.128
2015    5        5     3  18    4.4626   419.1    6.597      33.146
2015    5        5     3  24    4.4668   419.1    6.605      33.164
2015    5        5     3  30    4.4710   419.1    6.613      33.183
2015    5        5     3  36    4.4752   419.1    6.621      33.201
2015    5        5     3  42    4.4795   419.1    6.629      33.220
2015    5        5     3  47    4.4837   419.0    6.637      33.239
2015    5        5     3  53    4.4880   419.0    6.645      33.258
2015    5        5     3  59    4.4923   419.0    6.653      33.278
2015    5        5     4   5    4.4965   419.0    6.661      33.297
2015    5        5     4  11    4.5008   419.0    6.669      33.317
2015    5        5     4  16    4.5051   419.0    6.677      33.337
2015    5        5     4  22    4.5095   419.0    6.685      33.358
2015    5        5     4  28    4.5138   419.0    6.693      33.378
2015    5        5     4  34    4.5182   418.9    6.702      33.399
2015    5        5     4  40    4.5225   418.9    6.710      33.420
2015    5        5     4  46    4.5269   418.9    6.718      33.442
2015    5        5     4  51    4.5313   418.9    6.726      33.464
2015    5        5     4  57    4.5358   418.9    6.735      33.486
2015    5        5     5   3    4.5402   418.9    6.743      33.508
2015    5        5     5   9    4.5447   418.9    6.751      33.531
2015    5        5     5  15    4.5491   418.9    6.760      33.554
2015    5        5     5  21    4.5536   418.9    6.768      33.578
2015    5        5     5  26    4.5582   418.9    6.776      33.602
2015    5        5     5  32    4.5627   418.9    6.785      33.627
2015    5        5     5  38    4.5672   418.9    6.793      33.652
2015    5        5     5  44    4.5718   418.9    6.801      33.677
2015    5        5     5  50    4.5763   418.9    6.809      33.703
2015    5        5     5  56    4.5809   418.9    6.818      33.729
2015    5        5     6   1    4.5855   418.9    6.826      33.755
2015    5        5     6   7    4.5902   418.9    6.834      33.782
2015    5        5     6  13    4.5948   418.9    6.843      33.809
2015    5        5     6  19    4.5995   419.0    6.851      33.836
2015    5        5     6  25    4.6042   419.0    6.859      33.863
2015    5        5     6  31    4.6089   419.0    6.868      33.891
2015    5        5     6  36    4.6137   419.0    6.876      33.918
2015    5        5     6  42    4.6185   419.0    6.885      33.946
2015    5        5     6  48    4.6232   419.0    6.893      33.974
2015    5        5     6  54    4.6281   419.0    6.902      34.002
2015    5        5     7   0    4.6330   419.0    6.910      34.031
2015    5        5     7   6    4.6379   419.0    6.919      34.060
2015    5        5     7  11    4.6428   419.1    6.927      34.089
2015    5        5     7  17    4.6478   419.1    6.936      34.118
2015    5        5     7  23    4.6528   419.1    6.945      34.147
2015    5        5     7  29    4.6579   419.1    6.954      34.176
2015    5        5     7  35    4.6630   419.1    6.963      34.206
2015    5        5     7  40    4.6682   419.1    6.972      34.236
2015    5        5     7  46    4.6734   419.2    6.982      34.266
2015    5        5     7  52    4.6786   419.2    6.991      34.297
2015    5        5     7  58    4.6839   419.2    7.001      34.328
2015    5        5     8   4    4.6892   419.2    7.010      34.361
2015    5        5     8  10    4.6945   419.3    7.020      34.394
2015    5        5     8  15    4.6999   419.3    7.030      34.428
2015    5        5     8  21    4.7052   419.3    7.039      34.464
2015    5        5     8  27    4.7107   419.3    7.049      34.499
2015    5        5     8  33    4.7161   419.4    7.059      34.535
2015    5        5     8  39    4.7215   419.4    7.069      34.572
2015    5        5     8  45    4.7269   419.4    7.078      34.610
2015    5        5     8  50    4.7323   419.5    7.088      34.648
2015    5        5     8  56    4.7377   419.5    7.098      34.687
2015    5        5     9   2    4.7431   419.6    7.107      34.726
2015    5        5     9   8    4.7484   419.6    7.117      34.766
2015    5        5     9  14    4.7537   419.7    7.126      34.806
2015    5        5     9  20    4.7589   419.7    7.135      34.847
2015    5        5     9  25    4.7641   419.7    7.144      34.888
2015    5        5     9  31    4.7693   419.8    7.153      34.928
2015    5        5     9  37    4.7744   419.8    7.161      34.968
2015    5        5     9  43    4.7795   419.9    7.169      35.008
2015    5        5     9  49    4.7846   419.9    7.177      35.048
2015    5        5     9  55    4.7896   420.0    7.185      35.087
2015    5        5    10   0    4.7945   420.1    7.192      35.127
2015    5        5    10   6    4.7994   420.1    7.200      35.166
2015    5        5    10  12    4.8043   420.2    7.207      35.204
2015    5        5    10  18    4.8091   420.2    7.213      35.243
2015    5        5    10  24    4.8139   420.3    7.220      35.281
2015    5        5    10  30    4.8187   420.3    7.226      35.319
2015    5        5    10  35    4.8235   420.4    7.232      35.356
2015    5        5    10  41    4.8282   420.4    7.239      35.393
2015    5        5    10  47    4.8329   420.5    7.244      35.430
2015    5        5    10  53    4.8376   420.5    7.250      35.466
2015    5        5    10  59    4.8422   420.6    7.256      35.502
2015    5        5    11   4    4.8469   420.6    7.261      35.538
2015    5        5    11  10    4.8515   420.6    7.267      35.573
2015    5        5    11  16    4.8561   420.7    7.272      35.608
2015    5        5    11  22    4.8608   420.7    7.277      35.643
2015    5        5    11  28    4.8654   420.8    7.282      35.677
2015    5        5    11  34    4.8700   420.8    7.287      35.711
2015    5        5    11  39    4.8746   420.9    7.292      35.745
2015    5        5    11  45    4.8792   420.9    7.297      35.779
2015    5        5    11  51    4.8838   421.0    7.302      35.812
2015    5        5    11  57    4.8884   421.0    7.307      35.845
2015    5        5    12   3    4.8930   421.1    7.311      35.877
2015    5        5    12   9    4.8976   421.1    7.316      35.910
2015    5        5    12  14    4.9022   421.2    7.321      35.942
2015    5        5    12  20    4.9068   421.2    7.325      35.974
2015    5        5    12  26    4.9114   421.3    7.330      36.006
2015    5        5    12  32    4.9160   421.3    7.334      36.038
2015    5        5    12  38    4.9207   421.4    7.339      36.070
2015    5        5    12  44    4.9253   421.4    7.344      36.102
2015    5        5    12  49    4.9300   421.5    7.348      36.133
2015    5        5    12  55    4.9347   421.5    7.353      36.165
2015    5        5    13   1    4.9394   421.6    7.357      36.197
2015    5        5    13   7    4.9441   421.6    7.362      36.230
2015    5        5    13  13    4.9488   421.7    7.367      36.262
2015    5        5    13  19    4.9536   421.7    7.371      36.295
2015    5        5    13  24    4.9584   421.8    7.376      36.328
2015    5        5    13  30    4.9633   421.9    7.381      36.362
2015    5        5    13  36    4.9681   421.9    7.386      36.395
2015    5        5    13  42    4.9730   422.0    7.391      36.430
2015    5        5    13  48    4.9780   422.0    7.396      36.464
2015    5        5    13  53    4.9829   422.1    7.401      36.500
2015    5        5    13  59    4.9880   422.2    7.406      36.535
2015    5        5    14   5    4.9930   422.2    7.412      36.572
2015    5        5    14  11    4.9981   422.3    7.418      36.609
2015    5        5    14  17    5.0033   422.3    7.423      36.646
2015    5        5    14  23    5.0085   422.4    7.429      36.684
2015    5        5    14  28    5.0138   422.5    7.436      36.724
2015    5        5    14  34    5.0191   422.6    7.442      36.763
2015    5        5    14  40    5.0245   422.6    7.449      36.804
2015    5        5    14  46    5.0299   422.7    7.456      36.845
2015    5        5    14  52    5.0354   422.8    7.463      36.886
2015    5        5    14  58    5.0409   422.8    7.471      36.929
2015    5        5    15   3    5.0465   422.9    7.479      36.973
2015    5        5    15   9    5.0522   423.0    7.487      37.019
2015    5        5    15  15    5.0579   423.1    7.495      37.066
2015    5        5    15  21    5.0636   423.2    7.504      37.114
2015    5        5    15  27    5.0694   423.2    7.513      37.164
2015    5        5    15  33    5.0752   423.3    7.522      37.214
2015    5        5    15  38    5.0810   423.4    7.531      37.267
2015    5        5    15  44    5.0868   423.5    7.541      37.320
2015    5        5    15  50    5.0926   423.6    7.550      37.376
2015    5        5    15  56    5.0984   423.7    7.560      37.431
2015    5        5    16   2    5.1042   423.8    7.570      37.489
2015    5        5    16   8    5.1100   423.9    7.580      37.547
2015    5        5    16  13    5.1158   424.1    7.590      37.607
2015    5        5    16  19    5.1215   424.2    7.599      37.669
2015    5        5    16  25    5.1272   424.3    7.609      37.730
2015    5        5    16  31    5.1328   424.4    7.619      37.793
2015    5        5    16  37    5.1384   424.5    7.628      37.856
2015    5        5    16  43    5.1439   424.6    7.637      37.920
2015    5        5    16  48    5.1493   424.8    7.646      37.985
2015    5        5    16  54    5.1547   424.9    7.655      38.051
2015    5        5    17   0    5.1600   425.0    7.663      38.117
2015    5        5    17   6    5.1652   425.1    7.671      38.182
2015    5        5    17  12    5.1704   425.3    7.678      38.248
2015    5        5    17  17    5.1755   425.4    7.685      38.313
2015    5        5    17  23    5.1805   425.5    7.692      38.378
2015    5        5    17  29    5.1855   425.7    7.698      38.442
2015    5        5    17  35    5.1904   425.8    7.704      38.504
2015    5        5    17  41    5.1952   425.9    7.710      38.566
2015    5        5    17  47    5.2000   426.0    7.715      38.627
2015    5        5    17  52    5.2048   426.2    7.720      38.687
2015    5        5    17  58    5.2095   426.3    7.724      38.746
2015    5        5    18   4    5.2142   426.4    7.729      38.805
2015    5        5    18  10    5.2188   426.5    7.733      38.862
2015    5        5    18  16    5.2234   426.7    7.736      38.919
2015    5        5    18  22    5.2280   426.8    7.740      38.974
2015    5        5    18  27    5.2325   426.9    7.743      39.029
2015    5        5    18  33    5.2371   427.0    7.746      39.084
2015    5        5    18  39    5.2415   427.2    7.748      39.137
2015    5        5    18  45    5.2460   427.3    7.751      39.190
2015    5        5    18  51    5.2505   427.4    7.753      39.242
2015    5        5    18  57    5.2549   427.5    7.755      39.294
2015    5        5    19   2    5.2593   427.7    7.757      39.344
2015    5        5    19   8    5.2637   427.8    7.758      39.394
2015    5        5    19  14    5.2680   427.9    7.760      39.444
2015    5        5    19  20    5.2724   428.1    7.761      39.492
2015    5        5    19  26    5.2767   428.2    7.762      39.541
2015    5        5    19  32    5.2810   428.3    7.763      39.588
2015    5        5    19  37    5.2853   428.4    7.763      39.635
2015    5        5    19  43    5.2896   428.6    7.764      39.682
2015    5        5    19  49    5.2939   428.7    7.764      39.728
2015    5        5    19  55    5.2981   428.8    7.764      39.773
2015    5        5    20   1    5.3024   428.9    7.764      39.819
2015    5        5    20   7    5.3066   429.1    7.764      39.864
2015    5        5    20  12    5.3109   429.2    7.764      39.908
2015    5        5    20  18    5.3151   429.3    7.764      39.952
2015    5        5    20  24    5.3193   429.4    7.764      39.996
2015    5        5    20  30    5.3236   429.6    7.763      40.040
2015    5        5    20  36    5.3278   429.7    7.763      40.084
2015    5        5    20  41    5.3320   429.8    7.762      40.127
2015    5        5    20  47    5.3363   430.0    7.762      40.170
2015    5        5    20  53    5.3405   430.1    7.761      40.214
2015    5        5    20  59    5.3448   430.2    7.761      40.257
2015    5        5    21   5    5.3491   430.3    7.760      40.301
2015    5        5    21  11    5.3534   430.5    7.760      40.344
2015    5        5    21  16    5.3577   430.6    7.759      40.388
2015    5        5    21  22    5.3620   430.7    7.759      40.432
2015    5        5    21  28    5.3663   430.9    7.758      40.476
2015    5        5    21  34    5.3707   431.0    7.758      40.520
2015    5        5    21  40    5.3750   431.1    7.758      40.565
2015    5        5    21  46    5.3794   431.3    7.757      40.609
2015    5        5    21  51    5.3838   431.4    7.757      40.654
2015    5        5    21  57    5.3882   431.5    7.757      40.700
2015    5        5    22   3    5.3925   431.7    7.757      40.745
2015    5        5    22   9    5.3970   431.8    7.758      40.791
2015    5        5    22  15    5.4014   431.9    7.758      40.838
2015    5        5    22  21    5.4058   432.1    7.759      40.884
2015    5        5    22  26    5.4102   432.2    7.759      40.931
2015    5        5    22  32    5.4147   432.3    7.760      40.978
2015    5        5    22  38    5.4191   432.5    7.761      41.026
2015    5        5    22  44    5.4236   432.6    7.762      41.074
2015    5        5    22  50    5.4281   432.8    7.764      41.122
2015    5        5    22  56    5.4326   432.9    7.765      41.170
2015    5        5    23   1    5.4370   433.0    7.767      41.219
2015    5        5    23   7    5.4415   433.2    7.769      41.268
2015    5        5    23  13    5.4460   433.3    7.771      41.317
2015    5        5    23  19    5.4505   433.5    7.774      41.367
2015    5        5    23  25    5.4549   433.6    7.776      41.418
2015    5        5    23  31    5.4593   433.8    7.779      41.470
2015    5        5    23  36    5.4637   433.9    7.782      41.524
2015    5        5    23  42    5.4681   434.1    7.785      41.579
2015    5        5    23  48    5.4725   434.2    7.788      41.636
2015    5        5    23  54    5.4768   434.4    7.791      41.694
2015    5        6     0   0    5.4811   434.5    7.793      41.752
2015    5        6     0   5    5.4854   434.7    7.796      41.811
2015    5        6     0  11    5.4896   434.8    7.799      41.870
2015    5        6     0  17    5.4939   435.0    7.802      41.929
2015    5        6     0  23    5.4981   435.1    7.804      41.989
2015    5        6     0  29    5.5023   435.3    7.807      42.048
2015    5        6     0  35    5.5065   435.5    7.810      42.107
2015    5        6     0  40    5.5107   435.6    7.812      42.166
2015    5        6     0  46    5.5148   435.8    7.815      42.225
2015    5        6     0  52    5.5190   435.9    7.818      42.285
2015    5        6     0  58    5.5232   436.1    7.821      42.344
2015    5        6     1   4    5.5274   436.2    7.824      42.404
2015    5        6     1  10    5.5317   436.4    7.827      42.464
2015    5        6     1  15    5.5359   436.6    7.830      42.524
2015    5        6     1  21    5.5401   436.7    7.833      42.584
2015    5        6     1  27    5.5444   436.9    7.837      42.646
2015    5        6     1  33    5.5486   437.0    7.840      42.709
2015    5        6     1  39    5.5528   437.2    7.844      42.772
2015    5        6     1  45    5.5570   437.4    7.848      42.836
2015    5        6     1  50    5.5612   437.5    7.851      42.901
2015    5        6     1  56    5.5653   437.7    7.854      42.967
2015    5        6     2   2    5.5695   437.9    7.858      43.033
2015    5        6     2   8    5.5736   438.0    7.861      43.099
2015    5        6     2  14    5.5777   438.2    7.864      43.165
2015    5        6     2  20    5.5818   438.4    7.867      43.230
2015    5        6     2  25    5.5859   438.6    7.870      43.295
2015    5        6     2  31    5.5900   438.7    7.872      43.360
2015    5        6     2  37    5.5941   438.9    7.875      43.425
2015    5        6     2  43    5.5981   439.1    7.878      43.490
2015    5        6     2  49    5.6021   439.3    7.880      43.554
2015    5        6     2  55    5.6062   439.5    7.883      43.618
2015    5        6     3   0    5.6102   439.6    7.885      43.681
2015    5        6     3   6    5.6143   439.8    7.887      43.745
2015    5        6     3  12    5.6183   440.0    7.889      43.811
2015    5        6     3  18    5.6223   440.2    7.891      43.876
2015    5        6     3  24    5.6263   440.4    7.893      43.942
2015    5        6     3  29    5.6303   440.6    7.895      44.009
2015    5        6     3  35    5.6342   440.8    7.896      44.076
2015    5        6     3  41    5.6380   441.0    7.897      44.144
2015    5        6     3  47    5.6418   441.2    7.897      44.211
2015    5        6     3  53    5.6456   441.4    7.898      44.277
2015    5        6     3  59    5.6493   441.6    7.898      44.342
2015    5        6     4   4    5.6529   441.8    7.897      44.406
2015    5        6     4  10    5.6566   442.0    7.897      44.470
2015    5        6     4  16    5.6601   442.2    7.896      44.533
2015    5        6     4  22    5.6636   442.4    7.895      44.595
2015    5        6     4  28    5.6671   442.6    7.893      44.657
2015    5        6     4  34    5.6705   442.8    7.892      44.718
2015    5        6     4  39    5.6739   443.0    7.890      44.778
2015    5        6     4  45    5.6773   443.2    7.888      44.838
2015    5        6     4  51    5.6806   443.4    7.886      44.897
2015    5        6     4  57    5.6839   443.6    7.884      44.956
2015    5        6     5   3    5.6872   443.9    7.881      45.014
2015    5        6     5   9    5.6904   444.1    7.879      45.071
2015    5        6     5  14    5.6937   444.3    7.876      45.128
2015    5        6     5  20    5.6969   444.5    7.873      45.185
2015    5        6     5  26    5.7001   444.7    7.870      45.241
2015    5        6     5  32    5.7032   444.9    7.867      45.297
2015    5        6     5  38    5.7064   445.1    7.863      45.353
2015    5        6     5  44    5.7095   445.3    7.860      45.408
2015    5        6     5  49    5.7127   445.5    7.857      45.463
2015    5        6     5  55    5.7158   445.7    7.853      45.517
2015    5        6     6   1    5.7189   446.0    7.850      45.571
2015    5        6     6   7    5.7220   446.2    7.846      45.625
2015    5        6     6  13    5.7251   446.4    7.842      45.679
2015    5        6     6  19    5.7281   446.6    7.838      45.732
2015    5        6     6  24    5.7312   446.8    7.835      45.786
2015    5        6     6  30    5.7343   447.0    7.831      45.839
2015    5        6     6  36    5.7373   447.2    7.827      45.893
2015    5        6     6  42    5.7404   447.4    7.823      45.946
2015    5        6     6  48    5.7435   447.7    7.820      46.000
2015    5        6     6  53    5.7466   447.9    7.816      46.054
2015    5        6     6  59    5.7497   448.1    7.812      46.108
2015    5        6     7   5    5.7528   448.3    7.809      46.163
2015    5        6     7  11    5.7560   448.5    7.806      46.218
2015    5        6     7  17    5.7592   448.8    7.803      46.274
2015    5        6     7  23    5.7624   449.0    7.800      46.331
2015    5        6     7  28    5.7656   449.2    7.797      46.389
2015    5        6     7  34    5.7688   449.4    7.795      46.448
2015    5        6     7  40    5.7721   449.7    7.792      46.509
2015    5        6     7  46    5.7753   449.9    7.790      46.571
2015    5        6     7  52    5.7785   450.1    7.787      46.633
2015    5        6     7  58    5.7817   450.4    7.785      46.696
2015    5        6     8   3    5.7849   450.6    7.783      46.759
2015    5        6     8   9    5.7881   450.8    7.781      46.823
2015    5        6     8  15    5.7913   451.0    7.779      46.886
2015    5        6     8  21    5.7946   451.3    7.777      46.949
2015    5        6     8  27    5.7977   451.5    7.776      47.012
2015    5        6     8  33    5.8009   451.7    7.774      47.076
2015    5        6     8  38    5.8041   452.0    7.773      47.141
2015    5        6     8  44    5.8073   452.2    7.772      47.206
2015    5        6     8  50    5.8105   452.4    7.771      47.273
2015    5        6     8  56    5.8137   452.7    7.770      47.340
2015    5        6     9   2    5.8168   452.9    7.770      47.407
2015    5        6     9   8    5.8200   453.2    7.769      47.476
2015    5        6     9  13    5.8232   453.4    7.769      47.546
2015    5        6     9  19    5.8264   453.6    7.768      47.617
2015    5        6     9  25    5.8296   453.9    7.767      47.690
2015    5        6     9  31    5.8328   454.2    7.767      47.764
2015    5        6     9  37    5.8360   454.4    7.766      47.839
2015    5        6     9  43    5.8391   454.7    7.765      47.914
2015    5        6     9  48    5.8422   455.0    7.764      47.990
2015    5        6     9  54    5.8452   455.2    7.762      48.066
2015    5        6    10   0    5.8482   455.5    7.761      48.141
2015    5        6    10   6    5.8511   455.8    7.759      48.216
2015    5        6    10  12    5.8540   456.0    7.757      48.290
2015    5        6    10  17    5.8568   456.3    7.755      48.363
2015    5        6    10  23    5.8596   456.6    7.753      48.435
2015    5        6    10  29    5.8623   456.9    7.750      48.507
2015    5        6    10  35    5.8650   457.2    7.748      48.578
2015    5        6    10  41    5.8676   457.4    7.745      48.647
2015    5        6    10  47    5.8702   457.7    7.742      48.716
2015    5        6    10  52    5.8727   458.0    7.739      48.783
2015    5        6    10  58    5.8751   458.3    7.736      48.850
2015    5        6    11   4    5.8775   458.6    7.732      48.916
2015    5        6    11  10    5.8799   458.9    7.729      48.983
2015    5        6    11  16    5.8822   459.2    7.725      49.048
2015    5        6    11  22    5.8844   459.4    7.721      49.114
2015    5        6    11  27    5.8865   459.7    7.717      49.179
2015    5        6    11  33    5.8887   460.0    7.712      49.244
2015    5        6    11  39    5.8907   460.3    7.708      49.309
2015    5        6    11  45    5.8926   460.6    7.703      49.372
2015    5        6    11  51    5.8945   460.9    7.698      49.435
2015    5        6    11  57    5.8964   461.2    7.692      49.496
2015    5        6    12   2    5.8981   461.5    7.687      49.557
2015    5        6    12   8    5.8998   461.8    7.681      49.617
2015    5        6    12  14    5.9014   462.1    7.675      49.676
2015    5        6    12  20    5.9030   462.3    7.669      49.735
2015    5        6    12  26    5.9045   462.6    7.663      49.794
2015    5        6    12  32    5.9060   462.9    7.657      49.851
2015    5        6    12  37    5.9074   463.2    7.650      49.908
2015    5        6    12  43    5.9087   463.5    7.643      49.965
2015    5        6    12  49    5.9100   463.8    7.636      50.022
2015    5        6    12  55    5.9113   464.1    7.629      50.078
2015    5        6    13   1    5.9125   464.4    7.622      50.134
2015    5        6    13   7    5.9136   464.7    7.615      50.189
2015    5        6    13  12    5.9148   464.9    7.607      50.245
2015    5        6    13  18    5.9159   465.2    7.599      50.300
2015    5        6    13  24    5.9169   465.5    7.592      50.355
2015    5        6    13  30    5.9180   465.8    7.584      50.410
2015    5        6    13  36    5.9190   466.1    7.576      50.464
2015    5        6    13  41    5.9200   466.4    7.568      50.519
2015    5        6    13  47    5.9210   466.7    7.559      50.574
2015    5        6    13  53    5.9219   467.0    7.551      50.628
2015    5        6    13  59    5.9228   467.3    7.543      50.684
2015    5        6    14   5    5.9236   467.6    7.534      50.740
2015    5        6    14  11    5.9244   467.9    7.526      50.797
2015    5        6    14  16    5.9251   468.2    7.517      50.854
2015    5        6    14  22    5.9257   468.5    7.508      50.911
2015    5        6    14  28    5.9262   468.8    7.498      50.969
2015    5        6    14  34    5.9267   469.1    7.489      51.026
2015    5        6    14  40    5.9271   469.4    7.479      51.082
2015    5        6    14  46    5.9274   469.7    7.470      51.137
2015    5        6    14  51    5.9276   470.1    7.460      51.191
2015    5        6    14  57    5.9277   470.4    7.450      51.245
2015    5        6    15   3    5.9278   470.7    7.440      51.298
2015    5        6    15   9    5.9278   471.0    7.429      51.349
2015    5        6    15  15    5.9278   471.3    7.419      51.400
2015    5        6    15  21    5.9277   471.6    7.409      51.450
2015    5        6    15  26    5.9276   471.9    7.398      51.499
2015    5        6    15  32    5.9273   472.2    7.388      51.547
2015    5        6    15  38    5.9272   472.6    7.377      51.593
2015    5        6    15  44    5.9269   472.9    7.367      51.639
2015    5        6    15  50    5.9266   473.2    7.356      51.684
2015    5        6    15  56    5.9263   473.5    7.345      51.728
2015    5        6    16   1    5.9260   473.8    7.335      51.772
2015    5        6    16   7    5.9256   474.1    7.324      51.815
2015    5        6    16  13    5.9253   474.4    7.314      51.857
2015    5        6    16  19    5.9249   474.8    7.303      51.900
2015    5        6    16  25    5.9245   475.1    7.293      51.944
2015    5        6    16  31    5.9241   475.4    7.282      51.988
2015    5        6    16  36    5.9236   475.8    7.271      52.034
2015    5        6    16  42    5.9231   476.1    7.260      52.081
2015    5        6    16  48    5.9225   476.5    7.249      52.131
2015    5        6    16  54    5.9217   476.9    7.238      52.181
2015    5        6    17   0    5.9209   477.2    7.226      52.232
2015    5        6    17   5    5.9199   477.6    7.214      52.285
2015    5        6    17  11    5.9187   478.0    7.201      52.338
2015    5        6    17  17    5.9172   478.5    7.187      52.390
2015    5        6    17  23    5.9155   478.9    7.173      52.441
2015    5        6    17  29    5.9133   479.3    7.158      52.488
2015    5        6    17  35    5.9109   479.7    7.142      52.532
2015    5        6    17  40    5.9082   480.1    7.125      52.571
2015    5        6    17  46    5.9054   480.4    7.109      52.607
2015    5        6    17  52    5.9023   480.8    7.092      52.639
2015    5        6    17  58    5.8991   481.2    7.075      52.669
2015    5        6    18   4    5.8958   481.5    7.058      52.696
2015    5        6    18  10    5.8926   481.9    7.042      52.723
2015    5        6    18  15    5.8892   482.2    7.025      52.749
2015    5        6    18  21    5.8860   482.6    7.009      52.774
2015    5        6    18  27    5.8827   482.9    6.993      52.798
2015    5        6    18  33    5.8794   483.2    6.977      52.822
2015    5        6    18  39    5.8761   483.5    6.962      52.843
2015    5        6    18  45    5.8729   483.8    6.946      52.864
2015    5        6    18  50    5.8696   484.2    6.932      52.885
2015    5        6    18  56    5.8665   484.4    6.917      52.906
2015    5        6    19   2    5.8634   484.7    6.903      52.927
2015    5        6    19   8    5.8603   485.0    6.888      52.949
2015    5        6    19  14    5.8572   485.3    6.875      52.971
2015    5        6    19  20    5.8541   485.6    6.861      52.996
2015    5        6    19  25    5.8510   485.9    6.847      53.024
2015    5        6    19  31    5.8480   486.2    6.833      53.053
2015    5        6    19  37    5.8449   486.5    6.820      53.083
2015    5        6    19  43    5.8418   486.8    6.806      53.113
2015    5        6    19  49    5.8386   487.1    6.793      53.144
2015    5        6    19  55    5.8355   487.4    6.780      53.176
2015    5        6    20   0    5.8323   487.7    6.766      53.207
2015    5        6    20   6    5.8291   488.0    6.753      53.237
2015    5        6    20  12    5.8258   488.3    6.739      53.267
2015    5        6    20  18    5.8225   488.6    6.726      53.296
2015    5        6    20  24    5.8192   488.9    6.712      53.324
2015    5        6    20  29    5.8158   489.2    6.698      53.351
2015    5        6    20  35    5.8123   489.5    6.685      53.377
2015    5        6    20  41    5.8088   489.8    6.671      53.401
2015    5        6    20  47    5.8052   490.1    6.657      53.425
2015    5        6    20  53    5.8015   490.4    6.642      53.446
2015    5        6    20  59    5.7977   490.7    6.628      53.468
2015    5        6    21   4    5.7939   491.0    6.614      53.488
2015    5        6    21  10    5.7899   491.3    6.599      53.508
2015    5        6    21  16    5.7858   491.6    6.584      53.528
2015    5        6    21  22    5.7815   491.9    6.569      53.547
2015    5        6    21  28    5.7771   492.3    6.553      53.567
2015    5        6    21  34    5.7724   492.6    6.537      53.585
2015    5        6    21  39    5.7675   492.9    6.520      53.598
2015    5        6    21  45    5.7623   493.2    6.503      53.608
2015    5        6    21  51    5.7570   493.6    6.486      53.615
2015    5        6    21  57    5.7515   493.9    6.469      53.620
2015    5        6    22   3    5.7460   494.2    6.452      53.621
2015    5        6    22   9    5.7403   494.5    6.434      53.618
2015    5        6    22  14    5.7345   494.8    6.417      53.611
2015    5        6    22  20    5.7287   495.0    6.400      53.604
2015    5        6    22  26    5.7230   495.3    6.383      53.594
2015    5        6    22  32    5.7172   495.6    6.366      53.584
2015    5        6    22  38    5.7114   495.9    6.349      53.572
2015    5        6    22  44    5.7056   496.1    6.333      53.559
2015    5        6    22  49    5.7000   496.4    6.317      53.545
2015    5        6    22  55    5.6943   496.6    6.301      53.531
2015    5        6    23   1    5.6887   496.9    6.285      53.517
2015    5        6    23   7    5.6831   497.1    6.270      53.502
2015    5        6    23  13    5.6776   497.4    6.255      53.487
2015    5        6    23  19    5.6721   497.6    6.240      53.472
2015    5        6    23  24    5.6666   497.8    6.226      53.456
2015    5        6    23  30    5.6612   498.1    6.211      53.440
2015    5        6    23  36    5.6557   498.3    6.196      53.425
2015    5        6    23  42    5.6502   498.6    6.182      53.411
2015    5        6    23  48    5.6446   498.9    6.167      53.400
2015    5        6    23  53    5.6389   499.1    6.152      53.388
2015    5        6    23  59    5.6332   499.4    6.137      53.379
2015    5        7     0   5    5.6273   499.8    6.122      53.370
