year    month   day   hour  minute  B_enl V_enl   n_enl       T_enl
[year] [month] [day] [hour][minute] [nT]  [km/s]  [cm-3]      [kK]
2015    5        1     0   1    5.0577   474.2    6.052      46.497
2015    5        1     0   7    5.0558   474.3    6.047      46.501
2015    5        1     0  13    5.0538   474.4    6.043      46.506
2015    5        1     0  19    5.0519   474.5    6.039      46.510
2015    5        1     0  25    5.0500   474.6    6.034      46.514
2015    5        1     0  31    5.0481   474.7    6.030      46.518
2015    5        1     0  37    5.0461   474.8    6.026      46.521
2015    5        1     0  42    5.0442   474.9    6.021      46.525
2015    5        1     0  48    5.0422   475.0    6.017      46.529
2015    5        1     0  54    5.0402   475.1    6.013      46.533
2015    5        1     1   0    5.0383   475.2    6.008      46.537
2015    5        1     1   6    5.0363   475.3    6.004      46.540
2015    5        1     1  12    5.0343   475.4    6.000      46.544
2015    5        1     1  18    5.0323   475.5    5.995      46.548
2015    5        1     1  24    5.0303   475.6    5.991      46.551
2015    5        1     1  30    5.0283   475.7    5.987      46.554
2015    5        1     1  36    5.0263   475.8    5.982      46.557
2015    5        1     1  42    5.0243   475.9    5.978      46.560
2015    5        1     1  48    5.0223   476.0    5.974      46.562
2015    5        1     1  54    5.0202   476.1    5.969      46.565
2015    5        1     2   0    5.0182   476.2    5.965      46.567
2015    5        1     2   6    5.0161   476.3    5.960      46.570
2015    5        1     2  12    5.0141   476.3    5.956      46.572
2015    5        1     2  18    5.0120   476.4    5.952      46.574
2015    5        1     2  24    5.0100   476.5    5.947      46.575
2015    5        1     2  30    5.0079   476.6    5.943      46.577
2015    5        1     2  36    5.0058   476.7    5.939      46.579
2015    5        1     2  42    5.0038   476.8    5.934      46.580
2015    5        1     2  48    5.0017   476.9    5.930      46.582
2015    5        1     2  54    4.9996   477.0    5.926      46.583
2015    5        1     3   0    4.9975   477.1    5.921      46.584
2015    5        1     3   6    4.9953   477.2    5.917      46.585
2015    5        1     3  12    4.9932   477.3    5.913      46.586
2015    5        1     3  18    4.9911   477.4    5.909      46.587
2015    5        1     3  24    4.9889   477.4    5.904      46.588
2015    5        1     3  30    4.9868   477.5    5.900      46.589
2015    5        1     3  35    4.9846   477.6    5.896      46.590
2015    5        1     3  41    4.9825   477.7    5.891      46.591
2015    5        1     3  47    4.9803   477.8    5.887      46.591
2015    5        1     3  53    4.9781   477.9    5.883      46.592
2015    5        1     3  59    4.9759   478.0    5.879      46.593
2015    5        1     4   5    4.9737   478.1    5.874      46.593
2015    5        1     4  11    4.9715   478.2    5.870      46.594
2015    5        1     4  17    4.9693   478.2    5.866      46.595
2015    5        1     4  23    4.9671   478.3    5.861      46.595
2015    5        1     4  29    4.9649   478.4    5.857      46.596
2015    5        1     4  35    4.9626   478.5    5.853      46.596
2015    5        1     4  41    4.9604   478.6    5.848      46.597
2015    5        1     4  47    4.9581   478.7    5.844      46.597
2015    5        1     4  53    4.9559   478.8    5.840      46.598
2015    5        1     4  59    4.9536   478.9    5.836      46.599
2015    5        1     5   5    4.9513   478.9    5.831      46.599
2015    5        1     5  11    4.9490   479.0    5.827      46.600
2015    5        1     5  17    4.9467   479.1    5.823      46.600
2015    5        1     5  23    4.9444   479.2    5.818      46.600
2015    5        1     5  29    4.9421   479.3    5.814      46.601
2015    5        1     5  35    4.9398   479.4    5.810      46.601
2015    5        1     5  41    4.9375   479.4    5.805      46.601
2015    5        1     5  47    4.9351   479.5    5.801      46.601
2015    5        1     5  53    4.9328   479.6    5.796      46.601
2015    5        1     5  59    4.9304   479.7    5.792      46.601
2015    5        1     6   5    4.9280   479.8    5.788      46.601
2015    5        1     6  11    4.9257   479.9    5.783      46.600
2015    5        1     6  17    4.9233   479.9    5.779      46.600
2015    5        1     6  23    4.9209   480.0    5.774      46.599
2015    5        1     6  28    4.9185   480.1    5.770      46.598
2015    5        1     6  34    4.9161   480.2    5.765      46.597
2015    5        1     6  40    4.9137   480.3    5.761      46.596
2015    5        1     6  46    4.9113   480.3    5.756      46.594
2015    5        1     6  52    4.9089   480.4    5.752      46.592
2015    5        1     6  58    4.9065   480.5    5.747      46.591
2015    5        1     7   4    4.9041   480.6    5.743      46.589
2015    5        1     7  10    4.9016   480.6    5.738      46.586
2015    5        1     7  16    4.8992   480.7    5.733      46.584
2015    5        1     7  22    4.8968   480.8    5.729      46.581
2015    5        1     7  28    4.8944   480.9    5.724      46.579
2015    5        1     7  34    4.8919   480.9    5.720      46.576
2015    5        1     7  40    4.8895   481.0    5.715      46.573
2015    5        1     7  46    4.8871   481.1    5.711      46.569
2015    5        1     7  52    4.8847   481.2    5.706      46.566
2015    5        1     7  58    4.8822   481.2    5.702      46.562
2015    5        1     8   4    4.8798   481.3    5.697      46.559
2015    5        1     8  10    4.8774   481.4    5.693      46.555
2015    5        1     8  16    4.8750   481.5    5.689      46.551
2015    5        1     8  22    4.8726   481.5    5.684      46.547
2015    5        1     8  28    4.8701   481.6    5.680      46.543
2015    5        1     8  34    4.8677   481.7    5.676      46.539
2015    5        1     8  40    4.8653   481.7    5.671      46.534
2015    5        1     8  46    4.8629   481.8    5.667      46.530
2015    5        1     8  52    4.8606   481.9    5.663      46.526
2015    5        1     8  58    4.8582   481.9    5.659      46.521
2015    5        1     9   4    4.8558   482.0    5.655      46.517
2015    5        1     9  10    4.8534   482.1    5.651      46.512
2015    5        1     9  15    4.8510   482.2    5.647      46.508
2015    5        1     9  21    4.8487   482.2    5.643      46.503
2015    5        1     9  27    4.8463   482.3    5.639      46.499
2015    5        1     9  33    4.8439   482.4    5.635      46.494
2015    5        1     9  39    4.8416   482.4    5.631      46.489
2015    5        1     9  45    4.8392   482.5    5.627      46.485
2015    5        1     9  51    4.8369   482.6    5.623      46.480
2015    5        1     9  57    4.8345   482.6    5.619      46.476
2015    5        1    10   3    4.8322   482.7    5.616      46.471
2015    5        1    10   9    4.8298   482.8    5.612      46.467
2015    5        1    10  15    4.8274   482.8    5.608      46.462
2015    5        1    10  21    4.8251   482.9    5.605      46.458
2015    5        1    10  27    4.8227   482.9    5.601      46.453
2015    5        1    10  33    4.8203   483.0    5.597      46.449
2015    5        1    10  39    4.8179   483.1    5.594      46.444
2015    5        1    10  45    4.8156   483.1    5.590      46.440
2015    5        1    10  51    4.8132   483.2    5.586      46.435
2015    5        1    10  57    4.8108   483.3    5.583      46.431
2015    5        1    11   3    4.8084   483.3    5.579      46.426
2015    5        1    11   9    4.8060   483.4    5.576      46.422
2015    5        1    11  15    4.8036   483.4    5.572      46.417
2015    5        1    11  21    4.8012   483.5    5.568      46.412
2015    5        1    11  27    4.7988   483.6    5.565      46.408
2015    5        1    11  33    4.7964   483.6    5.561      46.403
2015    5        1    11  39    4.7939   483.7    5.558      46.399
2015    5        1    11  45    4.7915   483.7    5.554      46.394
2015    5        1    11  51    4.7891   483.8    5.550      46.389
2015    5        1    11  57    4.7867   483.8    5.547      46.385
2015    5        1    12   3    4.7842   483.9    5.543      46.380
2015    5        1    12   8    4.7818   484.0    5.540      46.376
2015    5        1    12  14    4.7794   484.0    5.536      46.371
2015    5        1    12  20    4.7769   484.1    5.532      46.367
2015    5        1    12  26    4.7745   484.1    5.529      46.362
2015    5        1    12  32    4.7721   484.2    5.525      46.357
2015    5        1    12  38    4.7696   484.2    5.521      46.352
2015    5        1    12  44    4.7672   484.3    5.518      46.347
2015    5        1    12  50    4.7647   484.3    5.514      46.342
2015    5        1    12  56    4.7623   484.4    5.510      46.336
2015    5        1    13   2    4.7598   484.5    5.506      46.331
2015    5        1    13   8    4.7574   484.5    5.503      46.325
2015    5        1    13  14    4.7549   484.6    5.499      46.319
2015    5        1    13  20    4.7525   484.6    5.495      46.313
2015    5        1    13  26    4.7500   484.7    5.491      46.307
2015    5        1    13  32    4.7476   484.7    5.487      46.301
2015    5        1    13  38    4.7451   484.8    5.484      46.294
2015    5        1    13  44    4.7427   484.8    5.480      46.288
2015    5        1    13  50    4.7402   484.9    5.476      46.281
2015    5        1    13  56    4.7377   484.9    5.472      46.275
2015    5        1    14   2    4.7353   485.0    5.468      46.268
2015    5        1    14   8    4.7328   485.0    5.464      46.261
2015    5        1    14  14    4.7303   485.1    5.460      46.254
2015    5        1    14  20    4.7278   485.1    5.456      46.247
2015    5        1    14  26    4.7254   485.2    5.452      46.240
2015    5        1    14  32    4.7229   485.2    5.449      46.232
2015    5        1    14  38    4.7204   485.3    5.445      46.225
2015    5        1    14  44    4.7180   485.3    5.441      46.218
2015    5        1    14  50    4.7155   485.4    5.437      46.210
2015    5        1    14  55    4.7130   485.4    5.433      46.202
2015    5        1    15   1    4.7106   485.5    5.429      46.195
2015    5        1    15   7    4.7081   485.5    5.425      46.187
2015    5        1    15  13    4.7057   485.5    5.421      46.179
2015    5        1    15  19    4.7032   485.6    5.417      46.171
2015    5        1    15  25    4.7008   485.6    5.413      46.163
2015    5        1    15  31    4.6983   485.7    5.409      46.155
2015    5        1    15  37    4.6959   485.7    5.405      46.146
2015    5        1    15  43    4.6935   485.8    5.401      46.138
2015    5        1    15  49    4.6911   485.8    5.398      46.129
2015    5        1    15  55    4.6887   485.9    5.394      46.121
2015    5        1    16   1    4.6863   485.9    5.390      46.112
2015    5        1    16   7    4.6839   485.9    5.386      46.103
2015    5        1    16  13    4.6815   486.0    5.382      46.094
2015    5        1    16  19    4.6791   486.0    5.379      46.085
2015    5        1    16  25    4.6767   486.1    5.375      46.076
2015    5        1    16  31    4.6743   486.1    5.371      46.067
2015    5        1    16  37    4.6720   486.2    5.368      46.058
2015    5        1    16  43    4.6696   486.2    5.364      46.049
2015    5        1    16  49    4.6673   486.2    5.361      46.039
2015    5        1    16  55    4.6649   486.3    5.357      46.030
2015    5        1    17   1    4.6626   486.3    5.353      46.021
2015    5        1    17   7    4.6602   486.4    5.350      46.011
2015    5        1    17  13    4.6579   486.4    5.347      46.001
2015    5        1    17  19    4.6556   486.4    5.343      45.992
2015    5        1    17  25    4.6532   486.5    5.340      45.982
2015    5        1    17  31    4.6509   486.5    5.336      45.972
2015    5        1    17  37    4.6486   486.6    5.333      45.962
2015    5        1    17  43    4.6462   486.6    5.330      45.952
2015    5        1    17  48    4.6439   486.6    5.326      45.941
2015    5        1    17  54    4.6416   486.7    5.323      45.931
2015    5        1    18   0    4.6392   486.7    5.320      45.921
2015    5        1    18   6    4.6369   486.7    5.317      45.910
2015    5        1    18  12    4.6345   486.8    5.314      45.899
2015    5        1    18  18    4.6322   486.8    5.311      45.889
2015    5        1    18  24    4.6298   486.8    5.307      45.878
2015    5        1    18  30    4.6275   486.9    5.304      45.867
2015    5        1    18  36    4.6251   486.9    5.301      45.856
2015    5        1    18  42    4.6227   486.9    5.298      45.845
2015    5        1    18  48    4.6204   487.0    5.295      45.834
2015    5        1    18  54    4.6180   487.0    5.292      45.823
2015    5        1    19   0    4.6156   487.0    5.289      45.812
2015    5        1    19   6    4.6133   487.1    5.286      45.801
2015    5        1    19  12    4.6109   487.1    5.283      45.790
2015    5        1    19  18    4.6085   487.1    5.280      45.779
2015    5        1    19  24    4.6061   487.2    5.277      45.768
2015    5        1    19  30    4.6038   487.2    5.275      45.757
2015    5        1    19  36    4.6014   487.2    5.272      45.746
2015    5        1    19  42    4.5990   487.3    5.269      45.735
2015    5        1    19  48    4.5966   487.3    5.266      45.724
2015    5        1    19  54    4.5942   487.3    5.263      45.713
2015    5        1    20   0    4.5918   487.3    5.260      45.703
2015    5        1    20   6    4.5895   487.4    5.257      45.692
2015    5        1    20  12    4.5871   487.4    5.255      45.682
2015    5        1    20  18    4.5847   487.4    5.252      45.671
2015    5        1    20  24    4.5823   487.4    5.249      45.661
2015    5        1    20  30    4.5799   487.5    5.246      45.651
2015    5        1    20  35    4.5775   487.5    5.243      45.640
2015    5        1    20  41    4.5751   487.5    5.240      45.630
2015    5        1    20  47    4.5727   487.5    5.238      45.620
2015    5        1    20  53    4.5703   487.6    5.235      45.610
2015    5        1    20  59    4.5679   487.6    5.232      45.601
2015    5        1    21   5    4.5655   487.6    5.229      45.591
2015    5        1    21  11    4.5631   487.6    5.226      45.582
2015    5        1    21  17    4.5607   487.7    5.223      45.572
2015    5        1    21  23    4.5583   487.7    5.220      45.563
2015    5        1    21  29    4.5559   487.7    5.217      45.553
2015    5        1    21  35    4.5535   487.7    5.214      45.544
2015    5        1    21  41    4.5512   487.8    5.211      45.535
2015    5        1    21  47    4.5488   487.8    5.208      45.526
2015    5        1    21  53    4.5464   487.8    5.205      45.517
2015    5        1    21  59    4.5440   487.8    5.202      45.508
2015    5        1    22   5    4.5417   487.8    5.199      45.499
2015    5        1    22  11    4.5393   487.9    5.196      45.489
2015    5        1    22  17    4.5370   487.9    5.192      45.480
2015    5        1    22  23    4.5346   487.9    5.189      45.471
2015    5        1    22  29    4.5323   487.9    5.186      45.462
2015    5        1    22  35    4.5300   487.9    5.183      45.452
2015    5        1    22  41    4.5277   488.0    5.180      45.443
2015    5        1    22  47    4.5254   488.0    5.177      45.433
2015    5        1    22  53    4.5231   488.0    5.173      45.424
2015    5        1    22  59    4.5208   488.0    5.170      45.414
2015    5        1    23   5    4.5185   488.0    5.167      45.404
2015    5        1    23  11    4.5163   488.0    5.164      45.393
2015    5        1    23  17    4.5140   488.1    5.160      45.383
2015    5        1    23  23    4.5118   488.1    5.157      45.372
2015    5        1    23  28    4.5096   488.1    5.154      45.361
2015    5        1    23  34    4.5074   488.1    5.151      45.350
2015    5        1    23  40    4.5052   488.1    5.147      45.338
2015    5        1    23  46    4.5030   488.1    5.144      45.327
2015    5        1    23  52    4.5008   488.2    5.141      45.315
2015    5        1    23  58    4.4986   488.2    5.138      45.302
2015    5        2     0   4    4.4964   488.2    5.135      45.290
2015    5        2     0  10    4.4943   488.2    5.131      45.277
2015    5        2     0  16    4.4921   488.2    5.128      45.263
2015    5        2     0  22    4.4900   488.2    5.125      45.250
2015    5        2     0  28    4.4878   488.2    5.122      45.236
2015    5        2     0  34    4.4857   488.2    5.119      45.222
2015    5        2     0  40    4.4835   488.3    5.116      45.207
2015    5        2     0  46    4.4813   488.3    5.113      45.192
2015    5        2     0  52    4.4792   488.3    5.110      45.177
2015    5        2     0  58    4.4770   488.3    5.107      45.162
2015    5        2     1   4    4.4749   488.3    5.104      45.147
2015    5        2     1  10    4.4727   488.3    5.101      45.131
2015    5        2     1  16    4.4705   488.3    5.098      45.115
2015    5        2     1  22    4.4683   488.3    5.095      45.098
2015    5        2     1  28    4.4662   488.3    5.093      45.082
2015    5        2     1  34    4.4640   488.4    5.090      45.065
2015    5        2     1  40    4.4618   488.4    5.087      45.048
2015    5        2     1  46    4.4596   488.4    5.084      45.031
2015    5        2     1  52    4.4574   488.4    5.082      45.014
2015    5        2     1  58    4.4552   488.4    5.079      44.997
2015    5        2     2   4    4.4530   488.4    5.077      44.980
2015    5        2     2  10    4.4508   488.4    5.074      44.962
2015    5        2     2  15    4.4486   488.4    5.071      44.945
2015    5        2     2  21    4.4464   488.4    5.069      44.928
2015    5        2     2  27    4.4441   488.4    5.066      44.910
2015    5        2     2  33    4.4419   488.4    5.064      44.893
2015    5        2     2  39    4.4397   488.4    5.062      44.875
2015    5        2     2  45    4.4374   488.4    5.059      44.858
2015    5        2     2  51    4.4352   488.4    5.057      44.841
2015    5        2     2  57    4.4330   488.4    5.054      44.824
2015    5        2     3   3    4.4307   488.4    5.052      44.807
2015    5        2     3   9    4.4285   488.4    5.050      44.790
2015    5        2     3  15    4.4262   488.4    5.047      44.773
2015    5        2     3  21    4.4240   488.4    5.045      44.757
2015    5        2     3  27    4.4217   488.4    5.043      44.740
2015    5        2     3  33    4.4195   488.5    5.040      44.724
2015    5        2     3  39    4.4172   488.5    5.038      44.708
2015    5        2     3  45    4.4150   488.5    5.036      44.692
2015    5        2     3  51    4.4127   488.5    5.034      44.677
2015    5        2     3  57    4.4104   488.4    5.031      44.661
2015    5        2     4   3    4.4082   488.4    5.029      44.646
2015    5        2     4   9    4.4059   488.4    5.027      44.631
2015    5        2     4  15    4.4036   488.4    5.024      44.616
2015    5        2     4  21    4.4014   488.4    5.022      44.601
2015    5        2     4  27    4.3991   488.4    5.020      44.586
2015    5        2     4  33    4.3969   488.4    5.017      44.572
2015    5        2     4  39    4.3946   488.4    5.015      44.558
2015    5        2     4  45    4.3924   488.4    5.013      44.544
2015    5        2     4  51    4.3902   488.4    5.010      44.530
2015    5        2     4  57    4.3879   488.4    5.008      44.516
2015    5        2     5   3    4.3857   488.4    5.006      44.502
2015    5        2     5   8    4.3835   488.4    5.003      44.489
2015    5        2     5  14    4.3813   488.4    5.001      44.476
2015    5        2     5  20    4.3791   488.4    4.999      44.462
2015    5        2     5  26    4.3769   488.4    4.996      44.449
2015    5        2     5  32    4.3748   488.4    4.994      44.436
2015    5        2     5  38    4.3726   488.3    4.992      44.424
2015    5        2     5  44    4.3705   488.3    4.989      44.411
2015    5        2     5  50    4.3684   488.3    4.987      44.399
2015    5        2     5  56    4.3663   488.3    4.985      44.386
2015    5        2     6   2    4.3642   488.3    4.983      44.374
2015    5        2     6   8    4.3622   488.3    4.980      44.361
2015    5        2     6  14    4.3601   488.3    4.978      44.349
2015    5        2     6  20    4.3581   488.3    4.976      44.337
2015    5        2     6  26    4.3561   488.3    4.974      44.325
2015    5        2     6  32    4.3541   488.2    4.972      44.313
2015    5        2     6  38    4.3521   488.2    4.970      44.301
2015    5        2     6  44    4.3502   488.2    4.968      44.289
2015    5        2     6  50    4.3482   488.2    4.965      44.277
2015    5        2     6  56    4.3463   488.2    4.963      44.265
2015    5        2     7   2    4.3444   488.2    4.961      44.252
2015    5        2     7   8    4.3425   488.2    4.959      44.240
2015    5        2     7  14    4.3406   488.1    4.957      44.228
2015    5        2     7  20    4.3388   488.1    4.955      44.215
2015    5        2     7  26    4.3369   488.1    4.954      44.203
2015    5        2     7  32    4.3350   488.1    4.952      44.190
2015    5        2     7  38    4.3332   488.1    4.950      44.178
2015    5        2     7  44    4.3313   488.1    4.948      44.165
2015    5        2     7  50    4.3294   488.1    4.946      44.152
2015    5        2     7  55    4.3275   488.0    4.944      44.139
2015    5        2     8   1    4.3257   488.0    4.942      44.125
2015    5        2     8   7    4.3238   488.0    4.940      44.112
2015    5        2     8  13    4.3219   488.0    4.938      44.098
2015    5        2     8  19    4.3200   488.0    4.936      44.083
2015    5        2     8  25    4.3181   488.0    4.934      44.068
2015    5        2     8  31    4.3162   487.9    4.932      44.053
2015    5        2     8  37    4.3143   487.9    4.930      44.037
2015    5        2     8  43    4.3124   487.9    4.928      44.021
2015    5        2     8  49    4.3104   487.9    4.926      44.005
2015    5        2     8  55    4.3085   487.9    4.924      43.988
2015    5        2     9   1    4.3066   487.9    4.922      43.971
2015    5        2     9   7    4.3046   487.8    4.920      43.954
2015    5        2     9  13    4.3027   487.8    4.918      43.937
2015    5        2     9  19    4.3007   487.8    4.916      43.919
2015    5        2     9  25    4.2988   487.8    4.915      43.901
2015    5        2     9  31    4.2968   487.8    4.913      43.882
2015    5        2     9  37    4.2948   487.7    4.911      43.864
2015    5        2     9  43    4.2929   487.7    4.909      43.845
2015    5        2     9  49    4.2909   487.7    4.907      43.826
2015    5        2     9  55    4.2889   487.7    4.905      43.807
2015    5        2    10   1    4.2869   487.7    4.903      43.788
2015    5        2    10   7    4.2849   487.6    4.901      43.769
2015    5        2    10  13    4.2830   487.6    4.899      43.749
2015    5        2    10  19    4.2810   487.6    4.897      43.730
2015    5        2    10  25    4.2790   487.6    4.895      43.710
2015    5        2    10  31    4.2770   487.6    4.893      43.690
2015    5        2    10  37    4.2750   487.5    4.891      43.671
2015    5        2    10  42    4.2729   487.5    4.889      43.651
2015    5        2    10  48    4.2709   487.5    4.887      43.631
2015    5        2    10  54    4.2689   487.5    4.885      43.611
2015    5        2    11   0    4.2669   487.5    4.883      43.591
2015    5        2    11   6    4.2649   487.4    4.882      43.571
2015    5        2    11  12    4.2629   487.4    4.880      43.551
2015    5        2    11  18    4.2608   487.4    4.878      43.531
2015    5        2    11  24    4.2588   487.4    4.876      43.511
2015    5        2    11  30    4.2568   487.3    4.874      43.491
2015    5        2    11  36    4.2548   487.3    4.872      43.471
2015    5        2    11  42    4.2528   487.3    4.870      43.451
2015    5        2    11  48    4.2507   487.2    4.868      43.431
2015    5        2    11  54    4.2487   487.2    4.866      43.410
2015    5        2    12   0    4.2467   487.2    4.864      43.390
2015    5        2    12   6    4.2447   487.2    4.863      43.370
2015    5        2    12  12    4.2427   487.1    4.861      43.350
2015    5        2    12  18    4.2408   487.1    4.859      43.330
2015    5        2    12  24    4.2388   487.1    4.857      43.310
2015    5        2    12  30    4.2368   487.0    4.856      43.290
2015    5        2    12  36    4.2349   487.0    4.854      43.270
2015    5        2    12  42    4.2329   486.9    4.852      43.251
2015    5        2    12  48    4.2310   486.9    4.851      43.231
2015    5        2    12  54    4.2291   486.9    4.849      43.212
2015    5        2    13   0    4.2272   486.8    4.848      43.193
2015    5        2    13   6    4.2253   486.8    4.846      43.175
2015    5        2    13  12    4.2235   486.8    4.845      43.156
2015    5        2    13  18    4.2216   486.7    4.843      43.138
2015    5        2    13  24    4.2198   486.7    4.842      43.120
2015    5        2    13  30    4.2180   486.6    4.841      43.103
2015    5        2    13  35    4.2162   486.6    4.840      43.086
2015    5        2    13  41    4.2144   486.6    4.838      43.069
2015    5        2    13  47    4.2127   486.5    4.837      43.052
2015    5        2    13  53    4.2109   486.5    4.836      43.036
2015    5        2    13  59    4.2092   486.4    4.835      43.020
2015    5        2    14   5    4.2075   486.4    4.834      43.004
2015    5        2    14  11    4.2058   486.4    4.833      42.989
2015    5        2    14  17    4.2041   486.3    4.832      42.974
2015    5        2    14  23    4.2024   486.3    4.831      42.959
2015    5        2    14  29    4.2007   486.2    4.830      42.944
2015    5        2    14  35    4.1991   486.2    4.829      42.930
2015    5        2    14  41    4.1974   486.2    4.828      42.916
2015    5        2    14  47    4.1958   486.1    4.827      42.902
2015    5        2    14  53    4.1941   486.1    4.826      42.889
2015    5        2    14  59    4.1925   486.0    4.825      42.875
2015    5        2    15   5    4.1908   486.0    4.824      42.862
2015    5        2    15  11    4.1892   485.9    4.823      42.849
2015    5        2    15  17    4.1875   485.9    4.822      42.835
2015    5        2    15  23    4.1859   485.9    4.821      42.822
2015    5        2    15  29    4.1842   485.8    4.820      42.808
2015    5        2    15  35    4.1826   485.8    4.819      42.794
2015    5        2    15  41    4.1809   485.7    4.818      42.780
2015    5        2    15  47    4.1793   485.7    4.817      42.766
2015    5        2    15  53    4.1776   485.6    4.816      42.751
2015    5        2    15  59    4.1760   485.6    4.815      42.737
2015    5        2    16   5    4.1743   485.5    4.813      42.722
2015    5        2    16  11    4.1727   485.5    4.812      42.707
2015    5        2    16  17    4.1710   485.4    4.811      42.692
2015    5        2    16  22    4.1694   485.4    4.809      42.676
2015    5        2    16  28    4.1678   485.4    4.808      42.661
2015    5        2    16  34    4.1661   485.3    4.807      42.645
2015    5        2    16  40    4.1645   485.3    4.805      42.628
2015    5        2    16  46    4.1628   485.2    4.804      42.611
2015    5        2    16  52    4.1612   485.2    4.803      42.594
2015    5        2    16  58    4.1596   485.1    4.801      42.576
2015    5        2    17   4    4.1579   485.1    4.800      42.558
2015    5        2    17  10    4.1563   485.0    4.798      42.540
2015    5        2    17  16    4.1546   485.0    4.797      42.521
2015    5        2    17  22    4.1530   484.9    4.795      42.502
2015    5        2    17  28    4.1513   484.9    4.794      42.483
2015    5        2    17  34    4.1497   484.9    4.792      42.463
2015    5        2    17  40    4.1480   484.8    4.791      42.444
2015    5        2    17  46    4.1464   484.8    4.789      42.423
2015    5        2    17  52    4.1447   484.7    4.788      42.403
2015    5        2    17  58    4.1430   484.7    4.787      42.383
2015    5        2    18   4    4.1414   484.6    4.785      42.362
2015    5        2    18  10    4.1397   484.6    4.784      42.341
2015    5        2    18  16    4.1380   484.5    4.782      42.320
2015    5        2    18  22    4.1364   484.5    4.781      42.299
2015    5        2    18  28    4.1347   484.4    4.780      42.278
2015    5        2    18  34    4.1331   484.4    4.778      42.256
2015    5        2    18  40    4.1315   484.3    4.777      42.235
2015    5        2    18  46    4.1298   484.3    4.776      42.213
2015    5        2    18  52    4.1282   484.2    4.775      42.192
2015    5        2    18  58    4.1266   484.2    4.774      42.170
2015    5        2    19   4    4.1250   484.1    4.773      42.149
2015    5        2    19   9    4.1234   484.1    4.772      42.127
2015    5        2    19  15    4.1218   484.0    4.771      42.105
2015    5        2    19  21    4.1202   484.0    4.770      42.084
2015    5        2    19  27    4.1186   483.9    4.769      42.062
2015    5        2    19  33    4.1170   483.9    4.769      42.041
2015    5        2    19  39    4.1155   483.8    4.768      42.019
2015    5        2    19  45    4.1139   483.7    4.767      41.998
2015    5        2    19  51    4.1123   483.7    4.767      41.977
2015    5        2    19  57    4.1108   483.6    4.766      41.955
2015    5        2    20   3    4.1092   483.6    4.766      41.934
2015    5        2    20   9    4.1076   483.5    4.766      41.914
2015    5        2    20  15    4.1061   483.5    4.765      41.894
2015    5        2    20  21    4.1045   483.4    4.765      41.874
2015    5        2    20  27    4.1029   483.4    4.765      41.855
2015    5        2    20  33    4.1013   483.3    4.765      41.837
2015    5        2    20  39    4.0998   483.2    4.764      41.819
2015    5        2    20  45    4.0982   483.2    4.764      41.801
2015    5        2    20  51    4.0966   483.1    4.764      41.784
2015    5        2    20  57    4.0951   483.1    4.763      41.766
2015    5        2    21   3    4.0935   483.0    4.763      41.749
2015    5        2    21   9    4.0919   483.0    4.763      41.731
2015    5        2    21  15    4.0904   482.9    4.763      41.714
2015    5        2    21  21    4.0888   482.8    4.762      41.697
2015    5        2    21  27    4.0872   482.8    4.762      41.681
2015    5        2    21  33    4.0857   482.7    4.762      41.664
2015    5        2    21  39    4.0841   482.7    4.761      41.647
2015    5        2    21  45    4.0826   482.6    4.761      41.631
2015    5        2    21  51    4.0810   482.6    4.761      41.614
2015    5        2    21  56    4.0795   482.5    4.760      41.598
2015    5        2    22   2    4.0779   482.4    4.760      41.582
2015    5        2    22   8    4.0764   482.4    4.760      41.565
2015    5        2    22  14    4.0748   482.3    4.759      41.549
2015    5        2    22  20    4.0733   482.3    4.759      41.533
2015    5        2    22  26    4.0718   482.2    4.758      41.517
2015    5        2    22  32    4.0702   482.1    4.758      41.501
2015    5        2    22  38    4.0687   482.1    4.757      41.484
2015    5        2    22  44    4.0671   482.0    4.757      41.468
2015    5        2    22  50    4.0656   481.9    4.756      41.451
2015    5        2    22  56    4.0641   481.9    4.756      41.435
2015    5        2    23   2    4.0626   481.8    4.755      41.418
2015    5        2    23   8    4.0610   481.7    4.754      41.402
2015    5        2    23  14    4.0595   481.7    4.754      41.385
2015    5        2    23  20    4.0581   481.6    4.753      41.369
2015    5        2    23  26    4.0566   481.5    4.752      41.352
2015    5        2    23  32    4.0551   481.5    4.751      41.336
2015    5        2    23  38    4.0537   481.4    4.750      41.319
2015    5        2    23  44    4.0522   481.3    4.749      41.302
2015    5        2    23  50    4.0508   481.3    4.748      41.285
2015    5        2    23  56    4.0494   481.2    4.748      41.268
2015    5        3     0   2    4.0481   481.1    4.747      41.250
2015    5        3     0   8    4.0467   481.0    4.746      41.232
2015    5        3     0  14    4.0454   481.0    4.744      41.214
2015    5        3     0  20    4.0440   480.9    4.743      41.196
2015    5        3     0  26    4.0427   480.8    4.742      41.177
2015    5        3     0  32    4.0414   480.8    4.741      41.159
2015    5        3     0  38    4.0401   480.7    4.740      41.139
2015    5        3     0  43    4.0388   480.6    4.739      41.120
2015    5        3     0  49    4.0375   480.6    4.738      41.100
2015    5        3     0  55    4.0362   480.5    4.737      41.080
2015    5        3     1   1    4.0349   480.4    4.735      41.059
2015    5        3     1   7    4.0337   480.3    4.734      41.038
2015    5        3     1  13    4.0324   480.3    4.733      41.017
2015    5        3     1  19    4.0311   480.2    4.732      40.995
2015    5        3     1  25    4.0299   480.1    4.731      40.974
2015    5        3     1  31    4.0286   480.0    4.730      40.952
2015    5        3     1  37    4.0273   480.0    4.729      40.929
2015    5        3     1  43    4.0261   479.9    4.727      40.907
2015    5        3     1  49    4.0248   479.8    4.726      40.884
2015    5        3     1  55    4.0235   479.7    4.725      40.861
2015    5        3     2   1    4.0223   479.7    4.725      40.838
2015    5        3     2   7    4.0210   479.6    4.724      40.815
2015    5        3     2  13    4.0197   479.5    4.723      40.792
2015    5        3     2  19    4.0185   479.5    4.722      40.769
2015    5        3     2  25    4.0172   479.4    4.721      40.745
2015    5        3     2  31    4.0159   479.3    4.720      40.722
2015    5        3     2  37    4.0146   479.2    4.720      40.698
2015    5        3     2  43    4.0134   479.2    4.719      40.674
2015    5        3     2  49    4.0121   479.1    4.719      40.651
2015    5        3     2  55    4.0108   479.0    4.718      40.627
2015    5        3     3   1    4.0095   478.9    4.718      40.603
2015    5        3     3   7    4.0082   478.9    4.717      40.579
2015    5        3     3  13    4.0068   478.8    4.717      40.556
2015    5        3     3  19    4.0055   478.7    4.716      40.532
2015    5        3     3  25    4.0041   478.7    4.716      40.508
2015    5        3     3  31    4.0027   478.6    4.716      40.486
2015    5        3     3  36    4.0013   478.5    4.715      40.463
2015    5        3     3  42    3.9999   478.4    4.715      40.441
2015    5        3     3  48    3.9984   478.4    4.715      40.419
2015    5        3     3  54    3.9970   478.3    4.714      40.397
2015    5        3     4   0    3.9955   478.2    4.714      40.375
2015    5        3     4   6    3.9941   478.1    4.714      40.353
2015    5        3     4  12    3.9926   478.1    4.713      40.331
2015    5        3     4  18    3.9911   478.0    4.713      40.309
2015    5        3     4  24    3.9896   477.9    4.712      40.287
2015    5        3     4  30    3.9881   477.8    4.712      40.265
2015    5        3     4  36    3.9866   477.8    4.712      40.243
2015    5        3     4  42    3.9851   477.7    4.711      40.221
2015    5        3     4  48    3.9836   477.6    4.711      40.199
2015    5        3     4  54    3.9821   477.5    4.710      40.177
2015    5        3     5   0    3.9806   477.5    4.710      40.155
2015    5        3     5   6    3.9790   477.4    4.710      40.133
2015    5        3     5  12    3.9775   477.3    4.709      40.111
2015    5        3     5  18    3.9760   477.2    4.709      40.090
2015    5        3     5  24    3.9745   477.1    4.709      40.068
2015    5        3     5  30    3.9730   477.1    4.709      40.046
2015    5        3     5  36    3.9715   477.0    4.709      40.025
2015    5        3     5  42    3.9700   476.9    4.708      40.004
2015    5        3     5  48    3.9685   476.8    4.708      39.983
2015    5        3     5  54    3.9670   476.7    4.708      39.963
2015    5        3     6   0    3.9655   476.6    4.708      39.942
2015    5        3     6   6    3.9641   476.5    4.709      39.923
2015    5        3     6  12    3.9627   476.4    4.709      39.904
2015    5        3     6  18    3.9613   476.3    4.709      39.885
2015    5        3     6  23    3.9600   476.3    4.710      39.866
2015    5        3     6  29    3.9587   476.2    4.710      39.849
2015    5        3     6  35    3.9574   476.1    4.711      39.833
2015    5        3     6  41    3.9562   476.0    4.712      39.817
2015    5        3     6  47    3.9550   475.9    4.713      39.803
2015    5        3     6  53    3.9539   475.8    4.714      39.789
2015    5        3     6  59    3.9528   475.7    4.715      39.775
2015    5        3     7   5    3.9517   475.6    4.715      39.763
2015    5        3     7  11    3.9506   475.5    4.716      39.750
2015    5        3     7  17    3.9496   475.4    4.717      39.737
2015    5        3     7  23    3.9485   475.3    4.718      39.724
2015    5        3     7  29    3.9475   475.3    4.719      39.712
2015    5        3     7  35    3.9465   475.2    4.720      39.699
2015    5        3     7  41    3.9456   475.1    4.720      39.686
2015    5        3     7  47    3.9446   475.0    4.721      39.673
2015    5        3     7  53    3.9437   474.9    4.722      39.661
2015    5        3     7  59    3.9428   474.8    4.723      39.648
2015    5        3     8   5    3.9419   474.7    4.724      39.636
2015    5        3     8  11    3.9410   474.6    4.724      39.624
2015    5        3     8  17    3.9402   474.6    4.725      39.612
2015    5        3     8  23    3.9393   474.5    4.725      39.600
2015    5        3     8  29    3.9384   474.4    4.726      39.587
2015    5        3     8  35    3.9375   474.3    4.726      39.574
2015    5        3     8  41    3.9366   474.2    4.726      39.561
2015    5        3     8  47    3.9357   474.1    4.726      39.546
2015    5        3     8  53    3.9347   474.0    4.726      39.531
2015    5        3     8  59    3.9338   474.0    4.726      39.515
2015    5        3     9   5    3.9328   473.9    4.726      39.499
2015    5        3     9  10    3.9318   473.8    4.726      39.482
2015    5        3     9  16    3.9308   473.7    4.725      39.464
2015    5        3     9  22    3.9298   473.6    4.725      39.446
2015    5        3     9  28    3.9287   473.5    4.724      39.427
2015    5        3     9  34    3.9277   473.4    4.724      39.407
2015    5        3     9  40    3.9266   473.3    4.723      39.387
2015    5        3     9  46    3.9255   473.3    4.722      39.366
2015    5        3     9  52    3.9244   473.2    4.722      39.345
2015    5        3     9  58    3.9233   473.1    4.721      39.323
2015    5        3    10   4    3.9221   473.0    4.720      39.300
2015    5        3    10  10    3.9210   472.9    4.719      39.277
2015    5        3    10  16    3.9198   472.8    4.718      39.254
2015    5        3    10  22    3.9186   472.7    4.717      39.230
2015    5        3    10  28    3.9174   472.6    4.716      39.205
2015    5        3    10  34    3.9162   472.6    4.715      39.180
2015    5        3    10  40    3.9149   472.5    4.714      39.155
2015    5        3    10  46    3.9137   472.4    4.713      39.129
2015    5        3    10  52    3.9124   472.3    4.711      39.103
2015    5        3    10  58    3.9111   472.2    4.710      39.076
2015    5        3    11   4    3.9099   472.1    4.709      39.049
2015    5        3    11  10    3.9085   472.0    4.708      39.022
2015    5        3    11  16    3.9072   471.9    4.706      38.994
2015    5        3    11  22    3.9059   471.8    4.705      38.966
2015    5        3    11  28    3.9046   471.7    4.704      38.938
2015    5        3    11  34    3.9032   471.6    4.702      38.910
2015    5        3    11  40    3.9019   471.5    4.701      38.881
2015    5        3    11  46    3.9005   471.4    4.699      38.852
2015    5        3    11  52    3.8992   471.3    4.698      38.823
2015    5        3    11  57    3.8978   471.2    4.697      38.794
2015    5        3    12   3    3.8964   471.1    4.695      38.764
2015    5        3    12   9    3.8951   471.0    4.694      38.735
2015    5        3    12  15    3.8937   470.9    4.693      38.705
2015    5        3    12  21    3.8923   470.8    4.691      38.676
2015    5        3    12  27    3.8910   470.7    4.690      38.646
2015    5        3    12  33    3.8896   470.6    4.689      38.616
2015    5        3    12  39    3.8882   470.5    4.688      38.587
2015    5        3    12  45    3.8869   470.4    4.687      38.558
2015    5        3    12  51    3.8855   470.3    4.686      38.529
2015    5        3    12  57    3.8842   470.2    4.685      38.500
2015    5        3    13   3    3.8829   470.1    4.684      38.471
2015    5        3    13   9    3.8816   470.0    4.683      38.443
2015    5        3    13  15    3.8803   469.8    4.682      38.415
2015    5        3    13  21    3.8791   469.7    4.682      38.388
2015    5        3    13  27    3.8779   469.6    4.682      38.362
2015    5        3    13  33    3.8767   469.5    4.682      38.335
2015    5        3    13  39    3.8756   469.4    4.682      38.310
2015    5        3    13  45    3.8745   469.3    4.682      38.286
2015    5        3    13  51    3.8734   469.1    4.682      38.264
2015    5        3    13  57    3.8724   469.0    4.683      38.242
2015    5        3    14   3    3.8715   468.9    4.683      38.221
2015    5        3    14   9    3.8705   468.8    4.684      38.201
2015    5        3    14  15    3.8696   468.7    4.685      38.182
2015    5        3    14  21    3.8687   468.6    4.686      38.164
2015    5        3    14  27    3.8679   468.5    4.687      38.146
2015    5        3    14  33    3.8671   468.3    4.688      38.129
2015    5        3    14  39    3.8663   468.2    4.689      38.112
2015    5        3    14  44    3.8655   468.1    4.691      38.095
2015    5        3    14  50    3.8647   468.0    4.692      38.079
2015    5        3    14  56    3.8640   467.9    4.694      38.064
2015    5        3    15   2    3.8633   467.8    4.695      38.048
2015    5        3    15   8    3.8626   467.7    4.697      38.034
2015    5        3    15  14    3.8620   467.6    4.699      38.021
2015    5        3    15  20    3.8613   467.4    4.701      38.008
2015    5        3    15  26    3.8607   467.3    4.702      37.996
2015    5        3    15  32    3.8601   467.2    4.704      37.985
2015    5        3    15  38    3.8595   467.1    4.706      37.974
2015    5        3    15  44    3.8590   467.0    4.708      37.963
2015    5        3    15  50    3.8584   466.9    4.710      37.953
2015    5        3    15  56    3.8578   466.8    4.712      37.942
2015    5        3    16   2    3.8572   466.7    4.714      37.930
2015    5        3    16   8    3.8566   466.6    4.716      37.919
2015    5        3    16  14    3.8560   466.5    4.717      37.907
2015    5        3    16  20    3.8554   466.4    4.719      37.896
2015    5        3    16  26    3.8548   466.2    4.721      37.884
2015    5        3    16  32    3.8542   466.1    4.723      37.871
2015    5        3    16  38    3.8536   466.0    4.725      37.859
2015    5        3    16  44    3.8529   465.9    4.726      37.846
2015    5        3    16  50    3.8523   465.8    4.728      37.833
2015    5        3    16  56    3.8517   465.7    4.730      37.819
2015    5        3    17   2    3.8510   465.6    4.731      37.806
2015    5        3    17   8    3.8503   465.5    4.733      37.792
2015    5        3    17  14    3.8497   465.3    4.735      37.778
2015    5        3    17  20    3.8490   465.2    4.736      37.764
2015    5        3    17  26    3.8483   465.1    4.738      37.749
2015    5        3    17  31    3.8477   465.0    4.739      37.735
2015    5        3    17  37    3.8470   464.9    4.741      37.720
2015    5        3    17  43    3.8464   464.8    4.743      37.706
2015    5        3    17  49    3.8457   464.6    4.744      37.691
2015    5        3    17  55    3.8451   464.5    4.746      37.677
2015    5        3    18   1    3.8444   464.4    4.747      37.663
2015    5        3    18   7    3.8438   464.3    4.749      37.649
2015    5        3    18  13    3.8432   464.2    4.750      37.635
2015    5        3    18  19    3.8425   464.1    4.751      37.621
2015    5        3    18  25    3.8419   463.9    4.753      37.607
2015    5        3    18  31    3.8412   463.8    4.754      37.592
2015    5        3    18  37    3.8406   463.7    4.755      37.577
2015    5        3    18  43    3.8399   463.6    4.756      37.561
2015    5        3    18  49    3.8392   463.5    4.757      37.545
2015    5        3    18  55    3.8385   463.4    4.758      37.529
2015    5        3    19   1    3.8379   463.3    4.759      37.512
2015    5        3    19   7    3.8372   463.1    4.759      37.496
2015    5        3    19  13    3.8365   463.0    4.760      37.478
2015    5        3    19  19    3.8358   462.9    4.761      37.461
2015    5        3    19  25    3.8351   462.8    4.761      37.442
2015    5        3    19  31    3.8344   462.7    4.762      37.424
2015    5        3    19  37    3.8338   462.5    4.762      37.405
2015    5        3    19  43    3.8331   462.4    4.762      37.385
2015    5        3    19  49    3.8324   462.3    4.763      37.365
2015    5        3    19  55    3.8317   462.2    4.763      37.344
2015    5        3    20   1    3.8310   462.1    4.763      37.323
2015    5        3    20   7    3.8303   461.9    4.763      37.301
2015    5        3    20  13    3.8296   461.8    4.763      37.279
2015    5        3    20  18    3.8289   461.7    4.764      37.257
2015    5        3    20  24    3.8283   461.6    4.764      37.234
2015    5        3    20  30    3.8276   461.5    4.764      37.211
2015    5        3    20  36    3.8269   461.3    4.764      37.187
2015    5        3    20  42    3.8263   461.2    4.764      37.164
2015    5        3    20  48    3.8257   461.1    4.764      37.140
2015    5        3    20  54    3.8250   461.0    4.764      37.116
2015    5        3    21   0    3.8244   460.8    4.764      37.091
2015    5        3    21   6    3.8238   460.7    4.764      37.067
2015    5        3    21  12    3.8232   460.6    4.764      37.042
2015    5        3    21  18    3.8227   460.5    4.764      37.018
2015    5        3    21  24    3.8221   460.3    4.765      36.994
2015    5        3    21  30    3.8216   460.2    4.765      36.969
2015    5        3    21  36    3.8211   460.1    4.765      36.945
2015    5        3    21  42    3.8206   460.0    4.766      36.921
2015    5        3    21  48    3.8201   459.8    4.766      36.897
2015    5        3    21  54    3.8196   459.7    4.767      36.873
2015    5        3    22   0    3.8192   459.6    4.767      36.849
2015    5        3    22   6    3.8187   459.5    4.768      36.826
2015    5        3    22  12    3.8183   459.3    4.769      36.803
2015    5        3    22  18    3.8179   459.2    4.770      36.780
2015    5        3    22  24    3.8176   459.1    4.770      36.758
2015    5        3    22  30    3.8172   458.9    4.771      36.736
2015    5        3    22  36    3.8168   458.8    4.773      36.714
2015    5        3    22  42    3.8165   458.7    4.774      36.692
2015    5        3    22  48    3.8162   458.6    4.775      36.671
2015    5        3    22  54    3.8159   458.4    4.776      36.649
2015    5        3    23   0    3.8156   458.3    4.778      36.629
2015    5        3    23   5    3.8153   458.2    4.779      36.608
2015    5        3    23  11    3.8150   458.1    4.781      36.587
2015    5        3    23  17    3.8148   457.9    4.782      36.567
2015    5        3    23  23    3.8145   457.8    4.784      36.547
2015    5        3    23  29    3.8142   457.7    4.786      36.528
2015    5        3    23  35    3.8140   457.6    4.787      36.508
2015    5        3    23  41    3.8137   457.4    4.789      36.489
2015    5        3    23  47    3.8135   457.3    4.791      36.469
2015    5        3    23  53    3.8133   457.2    4.793      36.450
2015    5        3    23  59    3.8130   457.1    4.795      36.432
2015    5        4     0   5    3.8128   456.9    4.797      36.413
2015    5        4     0  11    3.8126   456.8    4.800      36.395
2015    5        4     0  17    3.8124   456.7    4.802      36.376
2015    5        4     0  23    3.8122   456.5    4.804      36.358
2015    5        4     0  29    3.8120   456.4    4.807      36.341
2015    5        4     0  35    3.8118   456.3    4.809      36.324
2015    5        4     0  41    3.8117   456.1    4.812      36.307
2015    5        4     0  47    3.8116   456.0    4.814      36.290
2015    5        4     0  53    3.8115   455.8    4.817      36.275
2015    5        4     0  59    3.8114   455.7    4.820      36.259
2015    5        4     1   5    3.8114   455.6    4.823      36.244
2015    5        4     1  11    3.8114   455.4    4.826      36.230
2015    5        4     1  17    3.8114   455.3    4.830      36.217
2015    5        4     1  23    3.8114   455.2    4.833      36.205
2015    5        4     1  29    3.8115   455.0    4.837      36.193
2015    5        4     1  35    3.8117   454.9    4.841      36.182
2015    5        4     1  41    3.8118   454.8    4.844      36.172
2015    5        4     1  47    3.8120   454.6    4.848      36.162
2015    5        4     1  52    3.8122   454.5    4.852      36.153
2015    5        4     1  58    3.8124   454.4    4.856      36.144
2015    5        4     2   4    3.8127   454.2    4.860      36.137
2015    5        4     2  10    3.8129   454.1    4.864      36.130
2015    5        4     2  16    3.8131   454.0    4.869      36.124
2015    5        4     2  22    3.8134   453.8    4.873      36.118
2015    5        4     2  28    3.8137   453.7    4.877      36.113
2015    5        4     2  34    3.8139   453.6    4.881      36.108
2015    5        4     2  40    3.8142   453.5    4.885      36.103
2015    5        4     2  46    3.8145   453.3    4.889      36.098
2015    5        4     2  52    3.8148   453.2    4.893      36.092
2015    5        4     2  58    3.8151   453.1    4.897      36.087
2015    5        4     3   4    3.8154   453.0    4.901      36.081
2015    5        4     3  10    3.8157   452.8    4.905      36.075
2015    5        4     3  16    3.8160   452.7    4.908      36.069
2015    5        4     3  22    3.8164   452.6    4.912      36.062
2015    5        4     3  28    3.8167   452.5    4.916      36.056
2015    5        4     3  34    3.8171   452.3    4.920      36.049
2015    5        4     3  40    3.8174   452.2    4.924      36.041
2015    5        4     3  46    3.8178   452.1    4.928      36.034
2015    5        4     3  52    3.8182   452.0    4.931      36.027
2015    5        4     3  58    3.8186   451.8    4.935      36.020
2015    5        4     4   4    3.8190   451.7    4.939      36.012
2015    5        4     4  10    3.8194   451.6    4.943      36.005
2015    5        4     4  16    3.8198   451.5    4.946      35.997
2015    5        4     4  22    3.8201   451.4    4.950      35.989
2015    5        4     4  28    3.8205   451.2    4.953      35.980
2015    5        4     4  34    3.8209   451.1    4.956      35.971
2015    5        4     4  39    3.8212   451.0    4.960      35.961
2015    5        4     4  45    3.8216   450.9    4.963      35.951
2015    5        4     4  51    3.8219   450.8    4.966      35.940
2015    5        4     4  57    3.8222   450.6    4.969      35.928
2015    5        4     5   3    3.8225   450.5    4.972      35.917
2015    5        4     5   9    3.8229   450.4    4.974      35.904
2015    5        4     5  15    3.8232   450.3    4.977      35.892
2015    5        4     5  21    3.8235   450.2    4.980      35.878
2015    5        4     5  27    3.8238   450.1    4.982      35.865
2015    5        4     5  33    3.8241   449.9    4.985      35.850
2015    5        4     5  39    3.8244   449.8    4.987      35.836
2015    5        4     5  45    3.8247   449.7    4.990      35.821
2015    5        4     5  51    3.8250   449.6    4.992      35.806
2015    5        4     5  57    3.8253   449.5    4.995      35.790
2015    5        4     6   3    3.8256   449.4    4.997      35.774
2015    5        4     6   9    3.8259   449.2    4.999      35.758
2015    5        4     6  15    3.8262   449.1    5.001      35.741
2015    5        4     6  21    3.8265   449.0    5.003      35.724
2015    5        4     6  27    3.8268   448.9    5.006      35.707
2015    5        4     6  33    3.8271   448.8    5.008      35.690
2015    5        4     6  39    3.8274   448.7    5.010      35.672
2015    5        4     6  45    3.8277   448.5    5.012      35.654
2015    5        4     6  51    3.8280   448.4    5.014      35.636
2015    5        4     6  57    3.8283   448.3    5.016      35.618
2015    5        4     7   3    3.8286   448.2    5.018      35.600
2015    5        4     7   9    3.8289   448.1    5.020      35.581
2015    5        4     7  15    3.8292   448.0    5.023      35.563
2015    5        4     7  20    3.8295   447.8    5.025      35.544
2015    5        4     7  26    3.8298   447.7    5.027      35.526
2015    5        4     7  32    3.8302   447.6    5.029      35.507
2015    5        4     7  38    3.8305   447.5    5.032      35.489
2015    5        4     7  44    3.8309   447.4    5.034      35.471
2015    5        4     7  50    3.8313   447.2    5.036      35.452
2015    5        4     7  56    3.8317   447.1    5.039      35.435
2015    5        4     8   2    3.8322   447.0    5.042      35.417
2015    5        4     8   8    3.8326   446.9    5.044      35.400
2015    5        4     8  14    3.8331   446.8    5.047      35.383
2015    5        4     8  20    3.8336   446.6    5.050      35.366
2015    5        4     8  26    3.8341   446.5    5.054      35.350
2015    5        4     8  32    3.8347   446.4    5.057      35.335
2015    5        4     8  38    3.8353   446.3    5.060      35.320
2015    5        4     8  44    3.8359   446.2    5.064      35.305
2015    5        4     8  50    3.8366   446.1    5.068      35.291
2015    5        4     8  56    3.8373   445.9    5.072      35.278
2015    5        4     9   2    3.8380   445.8    5.076      35.265
2015    5        4     9   8    3.8388   445.7    5.080      35.253
2015    5        4     9  14    3.8396   445.6    5.084      35.242
2015    5        4     9  20    3.8404   445.5    5.089      35.232
2015    5        4     9  26    3.8411   445.4    5.093      35.223
2015    5        4     9  32    3.8419   445.3    5.098      35.215
2015    5        4     9  38    3.8427   445.2    5.102      35.207
2015    5        4     9  44    3.8435   445.1    5.107      35.201
2015    5        4     9  50    3.8443   445.0    5.112      35.195
2015    5        4     9  56    3.8451   444.8    5.117      35.189
2015    5        4    10   2    3.8459   444.7    5.121      35.184
2015    5        4    10   7    3.8467   444.6    5.126      35.179
2015    5        4    10  13    3.8475   444.5    5.131      35.175
2015    5        4    10  19    3.8483   444.4    5.136      35.170
2015    5        4    10  25    3.8491   444.3    5.141      35.166
2015    5        4    10  31    3.8499   444.2    5.145      35.162
2015    5        4    10  37    3.8507   444.1    5.150      35.158
2015    5        4    10  43    3.8516   444.0    5.155      35.154
2015    5        4    10  49    3.8524   443.9    5.160      35.150
2015    5        4    10  55    3.8533   443.8    5.165      35.146
2015    5        4    11   1    3.8541   443.7    5.170      35.143
2015    5        4    11   7    3.8550   443.6    5.175      35.140
2015    5        4    11  13    3.8559   443.5    5.180      35.136
2015    5        4    11  19    3.8567   443.4    5.185      35.133
2015    5        4    11  25    3.8576   443.3    5.190      35.130
2015    5        4    11  31    3.8584   443.2    5.195      35.127
2015    5        4    11  37    3.8592   443.1    5.199      35.124
2015    5        4    11  43    3.8601   443.0    5.204      35.120
2015    5        4    11  49    3.8609   442.9    5.208      35.117
2015    5        4    11  55    3.8617   442.8    5.213      35.112
2015    5        4    12   1    3.8625   442.7    5.217      35.108
2015    5        4    12   7    3.8633   442.6    5.222      35.103
2015    5        4    12  13    3.8641   442.6    5.226      35.098
2015    5        4    12  19    3.8649   442.5    5.230      35.092
2015    5        4    12  25    3.8656   442.4    5.234      35.087
2015    5        4    12  31    3.8664   442.3    5.238      35.081
2015    5        4    12  37    3.8672   442.2    5.242      35.074
2015    5        4    12  43    3.8679   442.1    5.246      35.068
2015    5        4    12  49    3.8687   442.0    5.250      35.061
2015    5        4    12  54    3.8694   441.9    5.254      35.054
2015    5        4    13   0    3.8702   441.8    5.257      35.046
2015    5        4    13   6    3.8709   441.7    5.261      35.039
2015    5        4    13  12    3.8716   441.6    5.265      35.031
2015    5        4    13  18    3.8724   441.5    5.268      35.023
2015    5        4    13  24    3.8731   441.4    5.272      35.015
2015    5        4    13  30    3.8738   441.3    5.275      35.007
2015    5        4    13  36    3.8746   441.2    5.278      34.998
2015    5        4    13  42    3.8753   441.1    5.282      34.989
2015    5        4    13  48    3.8760   441.0    5.285      34.981
2015    5        4    13  54    3.8767   441.0    5.288      34.972
2015    5        4    14   0    3.8775   440.9    5.292      34.963
2015    5        4    14   6    3.8782   440.8    5.295      34.953
2015    5        4    14  12    3.8789   440.7    5.298      34.944
2015    5        4    14  18    3.8796   440.6    5.301      34.935
2015    5        4    14  24    3.8803   440.5    5.304      34.925
2015    5        4    14  30    3.8811   440.4    5.307      34.915
2015    5        4    14  36    3.8818   440.3    5.310      34.906
2015    5        4    14  42    3.8825   440.2    5.313      34.896
2015    5        4    14  48    3.8832   440.1    5.316      34.886
2015    5        4    14  54    3.8839   440.0    5.319      34.876
2015    5        4    15   0    3.8847   440.0    5.322      34.866
2015    5        4    15   6    3.8854   439.9    5.325      34.856
2015    5        4    15  12    3.8861   439.8    5.328      34.846
2015    5        4    15  18    3.8868   439.7    5.331      34.836
2015    5        4    15  24    3.8876   439.6    5.335      34.826
2015    5        4    15  30    3.8883   439.5    5.338      34.816
2015    5        4    15  36    3.8891   439.4    5.341      34.806
2015    5        4    15  41    3.8898   439.3    5.344      34.796
2015    5        4    15  47    3.8906   439.3    5.347      34.786
2015    5        4    15  53    3.8913   439.2    5.350      34.776
2015    5        4    15  59    3.8921   439.1    5.353      34.766
2015    5        4    16   5    3.8929   439.0    5.356      34.756
2015    5        4    16  11    3.8937   438.9    5.360      34.746
2015    5        4    16  17    3.8945   438.8    5.363      34.736
2015    5        4    16  23    3.8953   438.8    5.366      34.727
2015    5        4    16  29    3.8961   438.7    5.370      34.717
2015    5        4    16  35    3.8969   438.6    5.373      34.707
2015    5        4    16  41    3.8977   438.5    5.376      34.698
2015    5        4    16  47    3.8985   438.4    5.380      34.689
2015    5        4    16  53    3.8992   438.4    5.383      34.680
2015    5        4    16  59    3.9000   438.3    5.387      34.671
2015    5        4    17   5    3.9008   438.2    5.390      34.663
2015    5        4    17  11    3.9016   438.1    5.394      34.655
2015    5        4    17  17    3.9023   438.0    5.397      34.646
2015    5        4    17  23    3.9031   438.0    5.401      34.638
2015    5        4    17  29    3.9038   437.9    5.404      34.630
2015    5        4    17  35    3.9046   437.8    5.408      34.622
2015    5        4    17  41    3.9053   437.7    5.411      34.614
2015    5        4    17  47    3.9060   437.7    5.415      34.606
2015    5        4    17  53    3.9067   437.6    5.419      34.598
2015    5        4    17  59    3.9075   437.5    5.422      34.590
2015    5        4    18   5    3.9082   437.4    5.426      34.581
2015    5        4    18  11    3.9088   437.3    5.429      34.573
2015    5        4    18  17    3.9095   437.3    5.432      34.565
2015    5        4    18  23    3.9102   437.2    5.436      34.557
2015    5        4    18  28    3.9109   437.1    5.439      34.549
2015    5        4    18  34    3.9116   437.0    5.443      34.540
2015    5        4    18  40    3.9123   436.9    5.446      34.532
2015    5        4    18  46    3.9129   436.9    5.450      34.523
2015    5        4    18  52    3.9136   436.8    5.453      34.515
2015    5        4    18  58    3.9143   436.7    5.456      34.506
2015    5        4    19   4    3.9149   436.6    5.460      34.497
2015    5        4    19  10    3.9156   436.6    5.463      34.489
2015    5        4    19  16    3.9163   436.5    5.466      34.480
2015    5        4    19  22    3.9169   436.4    5.470      34.471
2015    5        4    19  28    3.9176   436.3    5.473      34.462
2015    5        4    19  34    3.9183   436.3    5.476      34.453
2015    5        4    19  40    3.9189   436.2    5.480      34.444
2015    5        4    19  46    3.9196   436.1    5.483      34.436
2015    5        4    19  52    3.9202   436.0    5.486      34.427
2015    5        4    19  58    3.9209   435.9    5.489      34.418
2015    5        4    20   4    3.9215   435.9    5.492      34.409
2015    5        4    20  10    3.9222   435.8    5.495      34.400
2015    5        4    20  16    3.9228   435.7    5.498      34.391
2015    5        4    20  22    3.9234   435.6    5.502      34.382
2015    5        4    20  28    3.9241   435.6    5.505      34.373
2015    5        4    20  34    3.9247   435.5    5.507      34.364
2015    5        4    20  40    3.9253   435.4    5.510      34.355
2015    5        4    20  46    3.9260   435.3    5.513      34.346
2015    5        4    20  52    3.9266   435.3    5.516      34.337
2015    5        4    20  58    3.9272   435.2    5.519      34.328
2015    5        4    21   4    3.9278   435.1    5.522      34.319
2015    5        4    21   9    3.9284   435.0    5.525      34.310
2015    5        4    21  15    3.9291   435.0    5.527      34.301
2015    5        4    21  21    3.9297   434.9    5.530      34.291
2015    5        4    21  27    3.9303   434.8    5.533      34.282
2015    5        4    21  33    3.9309   434.7    5.536      34.273
2015    5        4    21  39    3.9315   434.6    5.538      34.263
2015    5        4    21  45    3.9321   434.6    5.541      34.254
2015    5        4    21  51    3.9327   434.5    5.544      34.244
2015    5        4    21  57    3.9333   434.4    5.546      34.235
2015    5        4    22   3    3.9340   434.3    5.549      34.225
2015    5        4    22   9    3.9346   434.3    5.551      34.216
2015    5        4    22  15    3.9352   434.2    5.554      34.206
2015    5        4    22  21    3.9358   434.1    5.557      34.197
2015    5        4    22  27    3.9364   434.0    5.559      34.187
2015    5        4    22  33    3.9370   434.0    5.562      34.178
2015    5        4    22  39    3.9377   433.9    5.565      34.168
2015    5        4    22  45    3.9383   433.8    5.567      34.159
2015    5        4    22  51    3.9389   433.7    5.570      34.149
2015    5        4    22  57    3.9396   433.7    5.573      34.140
2015    5        4    23   3    3.9402   433.6    5.575      34.131
2015    5        4    23   9    3.9408   433.5    5.578      34.121
2015    5        4    23  15    3.9415   433.4    5.581      34.112
2015    5        4    23  21    3.9421   433.4    5.584      34.103
2015    5        4    23  27    3.9428   433.3    5.587      34.093
2015    5        4    23  33    3.9435   433.2    5.590      34.084
2015    5        4    23  39    3.9441   433.2    5.592      34.075
2015    5        4    23  45    3.9448   433.1    5.595      34.066
2015    5        4    23  51    3.9455   433.0    5.598      34.056
2015    5        4    23  56    3.9461   432.9    5.601      34.047
2015    5        5     0   2    3.9468   432.9    5.604      34.038
2015    5        5     0   8    3.9475   432.8    5.607      34.029
2015    5        5     0  14    3.9482   432.7    5.610      34.020
2015    5        5     0  20    3.9489   432.7    5.613      34.011
2015    5        5     0  26    3.9495   432.6    5.616      34.002
2015    5        5     0  32    3.9502   432.5    5.619      33.993
2015    5        5     0  38    3.9509   432.5    5.622      33.984
2015    5        5     0  44    3.9516   432.4    5.626      33.975
2015    5        5     0  50    3.9522   432.3    5.629      33.967
2015    5        5     0  56    3.9529   432.3    5.632      33.958
2015    5        5     1   2    3.9535   432.2    5.635      33.949
2015    5        5     1   8    3.9542   432.1    5.638      33.940
2015    5        5     1  14    3.9548   432.1    5.641      33.932
2015    5        5     1  20    3.9554   432.0    5.644      33.923
2015    5        5     1  26    3.9561   431.9    5.647      33.914
2015    5        5     1  32    3.9567   431.9    5.651      33.906
2015    5        5     1  38    3.9573   431.8    5.654      33.897
2015    5        5     1  44    3.9579   431.7    5.657      33.888
2015    5        5     1  50    3.9586   431.7    5.660      33.880
2015    5        5     1  56    3.9592   431.6    5.663      33.871
2015    5        5     2   2    3.9598   431.5    5.666      33.862
2015    5        5     2   8    3.9604   431.4    5.669      33.853
2015    5        5     2  14    3.9610   431.4    5.672      33.844
2015    5        5     2  20    3.9617   431.3    5.675      33.835
2015    5        5     2  26    3.9623   431.2    5.678      33.826
2015    5        5     2  32    3.9629   431.2    5.681      33.817
2015    5        5     2  38    3.9635   431.1    5.684      33.808
2015    5        5     2  43    3.9641   431.0    5.687      33.799
2015    5        5     2  49    3.9648   431.0    5.690      33.791
2015    5        5     2  55    3.9654   430.9    5.693      33.782
2015    5        5     3   1    3.9660   430.8    5.696      33.773
2015    5        5     3   7    3.9666   430.8    5.699      33.764
2015    5        5     3  13    3.9673   430.7    5.702      33.756
2015    5        5     3  19    3.9679   430.6    5.705      33.747
2015    5        5     3  25    3.9685   430.6    5.708      33.738
2015    5        5     3  31    3.9692   430.5    5.711      33.730
2015    5        5     3  37    3.9698   430.4    5.714      33.722
2015    5        5     3  43    3.9705   430.4    5.717      33.713
2015    5        5     3  49    3.9711   430.3    5.720      33.705
2015    5        5     3  55    3.9718   430.2    5.722      33.697
2015    5        5     4   1    3.9724   430.2    5.725      33.689
2015    5        5     4   7    3.9731   430.1    5.728      33.681
2015    5        5     4  13    3.9737   430.0    5.731      33.673
2015    5        5     4  19    3.9744   429.9    5.734      33.666
2015    5        5     4  25    3.9751   429.9    5.737      33.658
2015    5        5     4  31    3.9757   429.8    5.740      33.650
2015    5        5     4  37    3.9764   429.7    5.743      33.643
2015    5        5     4  43    3.9771   429.7    5.746      33.635
2015    5        5     4  49    3.9778   429.6    5.749      33.628
2015    5        5     4  55    3.9785   429.5    5.752      33.621
2015    5        5     5   1    3.9792   429.5    5.755      33.614
2015    5        5     5   7    3.9799   429.4    5.758      33.607
2015    5        5     5  13    3.9806   429.3    5.761      33.600
2015    5        5     5  19    3.9813   429.3    5.764      33.593
2015    5        5     5  25    3.9820   429.2    5.767      33.586
2015    5        5     5  30    3.9828   429.1    5.770      33.579
2015    5        5     5  36    3.9835   429.1    5.773      33.573
2015    5        5     5  42    3.9842   429.0    5.776      33.566
2015    5        5     5  48    3.9850   428.9    5.779      33.560
2015    5        5     5  54    3.9858   428.8    5.782      33.553
2015    5        5     6   0    3.9865   428.8    5.785      33.547
2015    5        5     6   6    3.9873   428.7    5.789      33.541
2015    5        5     6  12    3.9881   428.6    5.792      33.534
2015    5        5     6  18    3.9889   428.6    5.795      33.528
2015    5        5     6  24    3.9896   428.5    5.798      33.522
2015    5        5     6  30    3.9904   428.4    5.801      33.516
2015    5        5     6  36    3.9913   428.4    5.804      33.510
2015    5        5     6  42    3.9921   428.3    5.808      33.504
2015    5        5     6  48    3.9929   428.3    5.811      33.498
2015    5        5     6  54    3.9937   428.2    5.814      33.492
2015    5        5     7   0    3.9945   428.1    5.817      33.486
2015    5        5     7   6    3.9953   428.1    5.820      33.480
2015    5        5     7  12    3.9962   428.0    5.824      33.474
2015    5        5     7  18    3.9970   427.9    5.827      33.468
2015    5        5     7  24    3.9978   427.9    5.830      33.462
2015    5        5     7  30    3.9987   427.8    5.833      33.455
2015    5        5     7  36    3.9995   427.7    5.837      33.449
2015    5        5     7  42    4.0004   427.7    5.840      33.443
2015    5        5     7  48    4.0012   427.6    5.843      33.436
2015    5        5     7  54    4.0020   427.6    5.846      33.430
2015    5        5     8   0    4.0029   427.5    5.849      33.423
2015    5        5     8   6    4.0037   427.4    5.852      33.417
2015    5        5     8  11    4.0046   427.4    5.856      33.410
2015    5        5     8  17    4.0054   427.3    5.859      33.403
2015    5        5     8  23    4.0063   427.3    5.862      33.396
2015    5        5     8  29    4.0071   427.2    5.865      33.390
2015    5        5     8  35    4.0080   427.1    5.868      33.383
2015    5        5     8  41    4.0089   427.1    5.871      33.376
2015    5        5     8  47    4.0097   427.0    5.874      33.369
2015    5        5     8  53    4.0106   426.9    5.877      33.362
2015    5        5     8  59    4.0115   426.9    5.880      33.355
2015    5        5     9   5    4.0123   426.8    5.883      33.348
2015    5        5     9  11    4.0132   426.8    5.886      33.341
2015    5        5     9  17    4.0141   426.7    5.889      33.334
2015    5        5     9  23    4.0150   426.6    5.892      33.327
2015    5        5     9  29    4.0159   426.6    5.895      33.320
2015    5        5     9  35    4.0169   426.5    5.898      33.313
2015    5        5     9  41    4.0178   426.4    5.901      33.307
2015    5        5     9  47    4.0187   426.4    5.905      33.300
2015    5        5     9  53    4.0197   426.3    5.908      33.294
2015    5        5     9  59    4.0207   426.3    5.911      33.287
2015    5        5    10   5    4.0216   426.2    5.914      33.281
2015    5        5    10  11    4.0226   426.1    5.917      33.275
2015    5        5    10  17    4.0236   426.1    5.920      33.269
2015    5        5    10  23    4.0247   426.0    5.923      33.263
2015    5        5    10  29    4.0257   426.0    5.927      33.258
2015    5        5    10  35    4.0267   425.9    5.930      33.252
2015    5        5    10  41    4.0278   425.8    5.933      33.247
2015    5        5    10  47    4.0288   425.8    5.936      33.241
2015    5        5    10  53    4.0299   425.7    5.940      33.236
2015    5        5    10  58    4.0310   425.6    5.943      33.232
2015    5        5    11   4    4.0321   425.6    5.946      33.227
2015    5        5    11  10    4.0332   425.5    5.950      33.222
2015    5        5    11  16    4.0343   425.5    5.953      33.218
2015    5        5    11  22    4.0355   425.4    5.956      33.214
2015    5        5    11  28    4.0366   425.3    5.960      33.210
2015    5        5    11  34    4.0378   425.3    5.963      33.206
2015    5        5    11  40    4.0389   425.2    5.967      33.202
2015    5        5    11  46    4.0401   425.2    5.970      33.199
2015    5        5    11  52    4.0413   425.1    5.974      33.195
2015    5        5    11  58    4.0425   425.0    5.978      33.192
2015    5        5    12   4    4.0437   425.0    5.981      33.189
2015    5        5    12  10    4.0450   424.9    5.985      33.186
2015    5        5    12  16    4.0462   424.9    5.988      33.183
2015    5        5    12  22    4.0474   424.8    5.992      33.180
2015    5        5    12  28    4.0487   424.7    5.996      33.178
2015    5        5    12  34    4.0499   424.7    5.999      33.175
2015    5        5    12  40    4.0512   424.6    6.003      33.173
2015    5        5    12  46    4.0525   424.6    6.007      33.170
2015    5        5    12  52    4.0538   424.5    6.010      33.168
2015    5        5    12  58    4.0551   424.4    6.014      33.166
2015    5        5    13   4    4.0564   424.4    6.018      33.164
2015    5        5    13  10    4.0578   424.3    6.022      33.162
2015    5        5    13  16    4.0591   424.3    6.025      33.160
2015    5        5    13  22    4.0604   424.2    6.029      33.158
2015    5        5    13  28    4.0618   424.1    6.033      33.156
2015    5        5    13  34    4.0632   424.1    6.037      33.155
2015    5        5    13  40    4.0646   424.0    6.041      33.153
2015    5        5    13  45    4.0660   424.0    6.044      33.151
2015    5        5    13  51    4.0674   423.9    6.048      33.150
2015    5        5    13  57    4.0689   423.8    6.052      33.148
2015    5        5    14   3    4.0703   423.8    6.056      33.146
2015    5        5    14   9    4.0718   423.7    6.060      33.145
2015    5        5    14  15    4.0733   423.7    6.064      33.143
2015    5        5    14  21    4.0748   423.6    6.068      33.142
2015    5        5    14  27    4.0763   423.5    6.072      33.140
2015    5        5    14  33    4.0778   423.5    6.076      33.139
2015    5        5    14  39    4.0794   423.4    6.080      33.138
2015    5        5    14  45    4.0809   423.4    6.084      33.136
2015    5        5    14  51    4.0825   423.3    6.088      33.135
2015    5        5    14  57    4.0842   423.3    6.093      33.134
2015    5        5    15   3    4.0858   423.2    6.097      33.133
2015    5        5    15   9    4.0874   423.1    6.101      33.132
2015    5        5    15  15    4.0891   423.1    6.105      33.131
2015    5        5    15  21    4.0908   423.0    6.109      33.131
2015    5        5    15  27    4.0925   423.0    6.113      33.130
2015    5        5    15  33    4.0943   422.9    6.118      33.130
2015    5        5    15  39    4.0960   422.9    6.122      33.129
2015    5        5    15  45    4.0978   422.8    6.126      33.129
2015    5        5    15  51    4.0996   422.8    6.130      33.129
2015    5        5    15  57    4.1014   422.7    6.134      33.129
2015    5        5    16   3    4.1032   422.6    6.138      33.129
2015    5        5    16   9    4.1050   422.6    6.142      33.129
2015    5        5    16  15    4.1068   422.5    6.146      33.129
2015    5        5    16  21    4.1087   422.5    6.150      33.129
2015    5        5    16  26    4.1105   422.4    6.154      33.129
2015    5        5    16  32    4.1124   422.4    6.158      33.129
2015    5        5    16  38    4.1143   422.3    6.162      33.129
2015    5        5    16  44    4.1162   422.3    6.166      33.130
2015    5        5    16  50    4.1181   422.2    6.170      33.130
2015    5        5    16  56    4.1200   422.2    6.174      33.131
2015    5        5    17   2    4.1219   422.1    6.178      33.131
2015    5        5    17   8    4.1239   422.1    6.182      33.132
2015    5        5    17  14    4.1258   422.0    6.186      33.133
2015    5        5    17  20    4.1278   422.0    6.190      33.134
2015    5        5    17  26    4.1298   421.9    6.194      33.135
2015    5        5    17  32    4.1318   421.9    6.198      33.136
2015    5        5    17  38    4.1338   421.8    6.201      33.137
2015    5        5    17  44    4.1359   421.8    6.205      33.139
2015    5        5    17  50    4.1379   421.7    6.209      33.141
2015    5        5    17  56    4.1400   421.7    6.213      33.142
2015    5        5    18   2    4.1420   421.6    6.217      33.144
2015    5        5    18   8    4.1441   421.6    6.221      33.146
2015    5        5    18  14    4.1462   421.6    6.225      33.149
2015    5        5    18  20    4.1483   421.5    6.229      33.151
2015    5        5    18  26    4.1505   421.5    6.233      33.154
2015    5        5    18  32    4.1526   421.4    6.237      33.156
2015    5        5    18  38    4.1548   421.4    6.241      33.159
2015    5        5    18  44    4.1570   421.3    6.245      33.162
2015    5        5    18  50    4.1591   421.3    6.249      33.165
2015    5        5    18  56    4.1614   421.2    6.253      33.169
2015    5        5    19   2    4.1636   421.2    6.257      33.172
2015    5        5    19   8    4.1658   421.2    6.261      33.176
2015    5        5    19  13    4.1681   421.1    6.265      33.179
2015    5        5    19  19    4.1703   421.1    6.269      33.183
2015    5        5    19  25    4.1726   421.0    6.273      33.187
2015    5        5    19  31    4.1749   421.0    6.277      33.191
2015    5        5    19  37    4.1772   421.0    6.281      33.196
2015    5        5    19  43    4.1796   420.9    6.285      33.200
2015    5        5    19  49    4.1819   420.9    6.289      33.205
2015    5        5    19  55    4.1843   420.8    6.294      33.209
2015    5        5    20   1    4.1866   420.8    6.298      33.214
2015    5        5    20   7    4.1890   420.8    6.302      33.218
2015    5        5    20  13    4.1914   420.7    6.306      33.223
2015    5        5    20  19    4.1938   420.7    6.311      33.228
2015    5        5    20  25    4.1963   420.7    6.315      33.233
2015    5        5    20  31    4.1987   420.6    6.319      33.238
2015    5        5    20  37    4.2012   420.6    6.324      33.244
2015    5        5    20  43    4.2037   420.5    6.328      33.249
2015    5        5    20  49    4.2062   420.5    6.333      33.254
2015    5        5    20  55    4.2087   420.5    6.337      33.260
2015    5        5    21   1    4.2113   420.4    6.342      33.265
2015    5        5    21   7    4.2138   420.4    6.346      33.271
2015    5        5    21  13    4.2164   420.4    6.351      33.276
2015    5        5    21  19    4.2190   420.3    6.356      33.282
2015    5        5    21  25    4.2217   420.3    6.360      33.288
2015    5        5    21  31    4.2243   420.3    6.365      33.294
2015    5        5    21  37    4.2270   420.2    6.370      33.300
2015    5        5    21  43    4.2297   420.2    6.375      33.306
2015    5        5    21  49    4.2325   420.2    6.380      33.313
2015    5        5    21  55    4.2353   420.1    6.385      33.319
2015    5        5    22   0    4.2381   420.1    6.391      33.326
2015    5        5    22   6    4.2409   420.1    6.396      33.333
2015    5        5    22  12    4.2438   420.0    6.401      33.340
2015    5        5    22  18    4.2467   420.0    6.407      33.348
2015    5        5    22  24    4.2497   420.0    6.413      33.355
2015    5        5    22  30    4.2527   419.9    6.418      33.363
2015    5        5    22  36    4.2556   419.9    6.424      33.371
2015    5        5    22  42    4.2587   419.9    6.430      33.380
2015    5        5    22  48    4.2617   419.9    6.436      33.390
2015    5        5    22  54    4.2647   419.8    6.442      33.400
2015    5        5    23   0    4.2677   419.8    6.447      33.411
2015    5        5    23   6    4.2708   419.8    6.453      33.423
2015    5        5    23  12    4.2738   419.8    6.459      33.436
2015    5        5    23  18    4.2769   419.8    6.464      33.449
2015    5        5    23  24    4.2799   419.7    6.470      33.463
2015    5        5    23  30    4.2829   419.7    6.475      33.478
2015    5        5    23  36    4.2860   419.7    6.480      33.492
2015    5        5    23  42    4.2890   419.7    6.486      33.507
2015    5        5    23  48    4.2920   419.7    6.491      33.522
2015    5        5    23  54    4.2950   419.7    6.496      33.538
2015    5        6     0   0    4.2980   419.6    6.501      33.553
2015    5        6     0   6    4.3010   419.6    6.506      33.568
2015    5        6     0  12    4.3040   419.6    6.510      33.583
2015    5        6     0  18    4.3070   419.6    6.515      33.598
2015    5        6     0  24    4.3100   419.6    6.520      33.613
2015    5        6     0  30    4.3130   419.6    6.524      33.627
2015    5        6     0  36    4.3160   419.6    6.529      33.642
2015    5        6     0  41    4.3190   419.5    6.533      33.656
2015    5        6     0  47    4.3219   419.5    6.538      33.671
2015    5        6     0  53    4.3249   419.5    6.542      33.685
2015    5        6     0  59    4.3279   419.5    6.546      33.699
2015    5        6     1   5    4.3309   419.5    6.550      33.713
2015    5        6     1  11    4.3338   419.5    6.554      33.727
2015    5        6     1  17    4.3368   419.5    6.559      33.740
2015    5        6     1  23    4.3398   419.5    6.563      33.754
2015    5        6     1  29    4.3428   419.5    6.567      33.768
2015    5        6     1  35    4.3458   419.5    6.570      33.781
2015    5        6     1  41    4.3488   419.4    6.574      33.794
2015    5        6     1  47    4.3517   419.4    6.578      33.808
2015    5        6     1  53    4.3547   419.4    6.582      33.821
2015    5        6     1  59    4.3577   419.4    6.586      33.834
2015    5        6     2   5    4.3607   419.4    6.590      33.847
2015    5        6     2  11    4.3638   419.4    6.594      33.860
2015    5        6     2  17    4.3668   419.4    6.597      33.873
2015    5        6     2  23    4.3698   419.4    6.601      33.886
2015    5        6     2  29    4.3728   419.4    6.605      33.899
2015    5        6     2  35    4.3759   419.4    6.609      33.913
2015    5        6     2  41    4.3789   419.4    6.612      33.926
2015    5        6     2  47    4.3820   419.4    6.616      33.939
2015    5        6     2  53    4.3851   419.4    6.620      33.952
2015    5        6     2  59    4.3881   419.4    6.624      33.965
2015    5        6     3   5    4.3912   419.4    6.627      33.979
2015    5        6     3  11    4.3943   419.4    6.631      33.992
2015    5        6     3  17    4.3975   419.4    6.635      34.006
2015    5        6     3  23    4.4006   419.4    6.639      34.020
2015    5        6     3  28    4.4037   419.4    6.643      34.034
2015    5        6     3  34    4.4069   419.4    6.647      34.048
2015    5        6     3  40    4.4100   419.4    6.651      34.063
2015    5        6     3  46    4.4132   419.4    6.655      34.078
2015    5        6     3  52    4.4164   419.4    6.659      34.092
2015    5        6     3  58    4.4196   419.4    6.663      34.108
2015    5        6     4   4    4.4229   419.4    6.667      34.123
2015    5        6     4  10    4.4261   419.4    6.672      34.139
2015    5        6     4  16    4.4293   419.4    6.676      34.154
2015    5        6     4  22    4.4326   419.4    6.681      34.170
2015    5        6     4  28    4.4359   419.4    6.685      34.187
2015    5        6     4  34    4.4391   419.4    6.690      34.203
2015    5        6     4  40    4.4424   419.4    6.694      34.220
2015    5        6     4  46    4.4457   419.4    6.699      34.237
2015    5        6     4  52    4.4491   419.5    6.704      34.255
2015    5        6     4  58    4.4524   419.5    6.709      34.272
2015    5        6     5   4    4.4557   419.5    6.714      34.290
2015    5        6     5  10    4.4591   419.5    6.719      34.309
2015    5        6     5  16    4.4624   419.5    6.725      34.327
2015    5        6     5  22    4.4658   419.5    6.730      34.346
2015    5        6     5  28    4.4692   419.5    6.736      34.364
2015    5        6     5  34    4.4726   419.6    6.741      34.384
2015    5        6     5  40    4.4760   419.6    6.747      34.403
2015    5        6     5  46    4.4794   419.6    6.753      34.423
2015    5        6     5  52    4.4828   419.6    6.759      34.443
2015    5        6     5  58    4.4863   419.6    6.765      34.464
2015    5        6     6   4    4.4897   419.7    6.771      34.485
2015    5        6     6   9    4.4931   419.7    6.778      34.507
2015    5        6     6  15    4.4965   419.7    6.784      34.530
2015    5        6     6  21    4.4999   419.7    6.790      34.553
2015    5        6     6  27    4.5032   419.8    6.797      34.578
2015    5        6     6  33    4.5065   419.8    6.803      34.603
2015    5        6     6  39    4.5099   419.8    6.809      34.630
2015    5        6     6  45    4.5131   419.9    6.815      34.658
2015    5        6     6  51    4.5164   419.9    6.821      34.687
2015    5        6     6  57    4.5196   419.9    6.827      34.717
2015    5        6     7   3    4.5229   420.0    6.833      34.748
2015    5        6     7   9    4.5261   420.0    6.838      34.780
2015    5        6     7  15    4.5292   420.0    6.843      34.813
2015    5        6     7  21    4.5323   420.1    6.849      34.845
2015    5        6     7  27    4.5355   420.1    6.854      34.878
2015    5        6     7  33    4.5385   420.2    6.858      34.911
2015    5        6     7  39    4.5416   420.2    6.863      34.943
2015    5        6     7  45    4.5446   420.2    6.867      34.975
2015    5        6     7  51    4.5476   420.3    6.872      35.007
2015    5        6     7  57    4.5506   420.3    6.876      35.039
2015    5        6     8   3    4.5536   420.3    6.880      35.070
2015    5        6     8   9    4.5565   420.4    6.883      35.100
2015    5        6     8  15    4.5595   420.4    6.887      35.131
2015    5        6     8  21    4.5624   420.5    6.890      35.160
2015    5        6     8  27    4.5652   420.5    6.894      35.190
2015    5        6     8  33    4.5681   420.5    6.897      35.219
2015    5        6     8  39    4.5710   420.6    6.900      35.247
2015    5        6     8  45    4.5738   420.6    6.903      35.276
2015    5        6     8  51    4.5766   420.7    6.906      35.303
2015    5        6     8  56    4.5794   420.7    6.908      35.331
2015    5        6     9   2    4.5822   420.7    6.911      35.358
2015    5        6     9   8    4.5850   420.8    6.913      35.384
2015    5        6     9  14    4.5877   420.8    6.916      35.410
2015    5        6     9  20    4.5905   420.9    6.918      35.436
2015    5        6     9  26    4.5932   420.9    6.920      35.462
2015    5        6     9  32    4.5959   421.0    6.922      35.487
2015    5        6     9  38    4.5986   421.0    6.924      35.511
2015    5        6     9  44    4.6013   421.1    6.926      35.536
2015    5        6     9  50    4.6040   421.1    6.928      35.560
2015    5        6     9  56    4.6066   421.1    6.930      35.584
2015    5        6    10   2    4.6093   421.2    6.932      35.608
2015    5        6    10   8    4.6119   421.2    6.933      35.631
2015    5        6    10  14    4.6146   421.3    6.935      35.655
2015    5        6    10  20    4.6172   421.3    6.936      35.678
2015    5        6    10  26    4.6198   421.4    6.938      35.701
2015    5        6    10  32    4.6224   421.4    6.939      35.724
2015    5        6    10  38    4.6250   421.5    6.941      35.747
2015    5        6    10  44    4.6276   421.5    6.942      35.770
2015    5        6    10  50    4.6302   421.6    6.943      35.792
2015    5        6    10  56    4.6328   421.6    6.945      35.815
2015    5        6    11   2    4.6354   421.7    6.946      35.838
2015    5        6    11   8    4.6380   421.7    6.948      35.861
2015    5        6    11  14    4.6406   421.8    6.949      35.884
2015    5        6    11  20    4.6432   421.8    6.950      35.906
2015    5        6    11  26    4.6458   421.9    6.952      35.929
2015    5        6    11  32    4.6484   421.9    6.953      35.952
2015    5        6    11  37    4.6509   422.0    6.955      35.975
2015    5        6    11  43    4.6535   422.1    6.956      35.998
2015    5        6    11  49    4.6561   422.1    6.958      36.022
2015    5        6    11  55    4.6587   422.2    6.959      36.045
2015    5        6    12   1    4.6612   422.2    6.961      36.068
2015    5        6    12   7    4.6638   422.3    6.962      36.092
2015    5        6    12  13    4.6664   422.3    6.964      36.116
2015    5        6    12  19    4.6689   422.4    6.966      36.140
2015    5        6    12  25    4.6715   422.5    6.968      36.164
2015    5        6    12  31    4.6740   422.5    6.970      36.188
2015    5        6    12  37    4.6766   422.6    6.971      36.213
2015    5        6    12  43    4.6791   422.6    6.973      36.237
2015    5        6    12  49    4.6817   422.7    6.976      36.262
2015    5        6    12  55    4.6843   422.7    6.978      36.288
2015    5        6    13   1    4.6868   422.8    6.980      36.313
2015    5        6    13   7    4.6894   422.9    6.982      36.339
2015    5        6    13  13    4.6919   422.9    6.985      36.365
2015    5        6    13  19    4.6945   423.0    6.987      36.391
2015    5        6    13  25    4.6971   423.1    6.990      36.417
2015    5        6    13  31    4.6997   423.1    6.993      36.444
2015    5        6    13  37    4.7022   423.2    6.996      36.472
2015    5        6    13  43    4.7048   423.2    6.999      36.499
2015    5        6    13  49    4.7073   423.3    7.002      36.528
2015    5        6    13  55    4.7098   423.4    7.006      36.557
2015    5        6    14   1    4.7123   423.4    7.009      36.587
2015    5        6    14   7    4.7148   423.5    7.012      36.618
2015    5        6    14  13    4.7173   423.6    7.016      36.650
2015    5        6    14  19    4.7197   423.6    7.019      36.684
2015    5        6    14  24    4.7221   423.7    7.022      36.718
2015    5        6    14  30    4.7245   423.8    7.026      36.753
2015    5        6    14  36    4.7268   423.9    7.029      36.789
2015    5        6    14  42    4.7291   423.9    7.032      36.825
2015    5        6    14  48    4.7314   424.0    7.036      36.861
2015    5        6    14  54    4.7336   424.1    7.039      36.898
2015    5        6    15   0    4.7358   424.1    7.042      36.935
2015    5        6    15   6    4.7380   424.2    7.045      36.972
2015    5        6    15  12    4.7401   424.3    7.048      37.009
2015    5        6    15  18    4.7422   424.4    7.051      37.047
2015    5        6    15  24    4.7443   424.4    7.054      37.084
2015    5        6    15  30    4.7463   424.5    7.057      37.123
2015    5        6    15  36    4.7484   424.6    7.060      37.161
2015    5        6    15  42    4.7503   424.7    7.062      37.200
2015    5        6    15  48    4.7523   424.7    7.065      37.239
2015    5        6    15  54    4.7542   424.8    7.067      37.278
2015    5        6    16   0    4.7561   424.9    7.069      37.316
2015    5        6    16   6    4.7580   425.0    7.071      37.354
2015    5        6    16  12    4.7598   425.0    7.072      37.392
2015    5        6    16  18    4.7617   425.1    7.074      37.429
2015    5        6    16  24    4.7635   425.2    7.075      37.465
2015    5        6    16  30    4.7652   425.3    7.076      37.500
2015    5        6    16  36    4.7670   425.3    7.077      37.536
2015    5        6    16  42    4.7687   425.4    7.078      37.570
2015    5        6    16  48    4.7704   425.5    7.079      37.604
2015    5        6    16  54    4.7721   425.6    7.079      37.637
2015    5        6    17   0    4.7738   425.7    7.079      37.670
2015    5        6    17   5    4.7754   425.7    7.080      37.702
2015    5        6    17  11    4.7770   425.8    7.080      37.733
2015    5        6    17  17    4.7786   425.9    7.080      37.764
2015    5        6    17  23    4.7802   426.0    7.080      37.795
2015    5        6    17  29    4.7818   426.1    7.079      37.825
2015    5        6    17  35    4.7834   426.1    7.079      37.854
2015    5        6    17  41    4.7849   426.2    7.079      37.883
2015    5        6    17  47    4.7864   426.3    7.078      37.912
2015    5        6    17  53    4.7880   426.4    7.078      37.940
2015    5        6    17  59    4.7895   426.5    7.077      37.968
2015    5        6    18   5    4.7909   426.5    7.076      37.995
2015    5        6    18  11    4.7924   426.6    7.076      38.023
2015    5        6    18  17    4.7939   426.7    7.075      38.049
2015    5        6    18  23    4.7953   426.8    7.074      38.076
2015    5        6    18  29    4.7968   426.9    7.073      38.102
2015    5        6    18  35    4.7982   427.0    7.072      38.128
2015    5        6    18  41    4.7997   427.0    7.071      38.154
2015    5        6    18  47    4.8011   427.1    7.070      38.179
2015    5        6    18  53    4.8026   427.2    7.069      38.204
2015    5        6    18  59    4.8040   427.3    7.068      38.229
2015    5        6    19   5    4.8054   427.4    7.067      38.253
2015    5        6    19  11    4.8069   427.4    7.066      38.278
2015    5        6    19  17    4.8083   427.5    7.066      38.302
2015    5        6    19  23    4.8098   427.6    7.065      38.327
2015    5        6    19  29    4.8113   427.7    7.064      38.351
2015    5        6    19  35    4.8127   427.8    7.063      38.375
2015    5        6    19  41    4.8142   427.9    7.062      38.399
2015    5        6    19  47    4.8158   427.9    7.061      38.423
2015    5        6    19  52    4.8173   428.0    7.061      38.448
2015    5        6    19  58    4.8189   428.1    7.060      38.472
2015    5        6    20   4    4.8205   428.2    7.060      38.496
2015    5        6    20  10    4.8221   428.3    7.060      38.521
2015    5        6    20  16    4.8238   428.4    7.059      38.546
2015    5        6    20  22    4.8255   428.5    7.059      38.572
2015    5        6    20  28    4.8272   428.5    7.060      38.597
2015    5        6    20  34    4.8289   428.6    7.060      38.623
2015    5        6    20  40    4.8307   428.7    7.061      38.649
2015    5        6    20  46    4.8325   428.8    7.061      38.676
2015    5        6    20  52    4.8342   428.9    7.062      38.704
2015    5        6    20  58    4.8360   429.0    7.063      38.733
2015    5        6    21   4    4.8377   429.1    7.064      38.763
2015    5        6    21  10    4.8395   429.2    7.066      38.794
2015    5        6    21  16    4.8412   429.3    7.067      38.826
2015    5        6    21  22    4.8428   429.4    7.068      38.859
2015    5        6    21  28    4.8444   429.5    7.070      38.893
2015    5        6    21  34    4.8460   429.6    7.071      38.927
2015    5        6    21  40    4.8475   429.7    7.073      38.962
2015    5        6    21  46    4.8489   429.8    7.074      38.998
2015    5        6    21  52    4.8503   429.9    7.075      39.034
2015    5        6    21  58    4.8517   430.0    7.076      39.070
2015    5        6    22   4    4.8530   430.1    7.077      39.107
2015    5        6    22  10    4.8542   430.3    7.078      39.144
2015    5        6    22  16    4.8554   430.4    7.079      39.180
2015    5        6    22  22    4.8565   430.5    7.080      39.216
2015    5        6    22  28    4.8576   430.6    7.081      39.251
2015    5        6    22  33    4.8586   430.7    7.082      39.287
2015    5        6    22  39    4.8596   430.8    7.082      39.323
2015    5        6    22  45    4.8606   430.9    7.083      39.360
2015    5        6    22  51    4.8615   431.0    7.083      39.396
2015    5        6    22  57    4.8624   431.1    7.083      39.433
2015    5        6    23   3    4.8633   431.2    7.083      39.469
2015    5        6    23   9    4.8641   431.3    7.083      39.506
2015    5        6    23  15    4.8649   431.4    7.083      39.542
2015    5        6    23  21    4.8657   431.5    7.082      39.578
2015    5        6    23  27    4.8665   431.6    7.082      39.613
2015    5        6    23  33    4.8672   431.7    7.081      39.648
2015    5        6    23  39    4.8679   431.9    7.080      39.682
2015    5        6    23  45    4.8686   432.0    7.079      39.715
2015    5        6    23  51    4.8693   432.1    7.077      39.748
2015    5        6    23  57    4.8700   432.2    7.076      39.780
2015    5        7     0   3    4.8706   432.3    7.074      39.812
2015    5        7     0   9    4.8712   432.4    7.073      39.844
2015    5        7     0  15    4.8718   432.5    7.071      39.874
2015    5        7     0  21    4.8724   432.6    7.069      39.904
2015    5        7     0  27    4.8730   432.7    7.067      39.934
2015    5        7     0  33    4.8735   432.8    7.065      39.963
2015    5        7     0  39    4.8740   432.9    7.063      39.992
2015    5        7     0  45    4.8745   433.0    7.061      40.021
2015    5        7     0  51    4.8750   433.1    7.058      40.048
2015    5        7     0  57    4.8754   433.3    7.056      40.076
2015    5        7     1   3    4.8758   433.4    7.054      40.103
2015    5        7     1   9    4.8762   433.5    7.051      40.130
2015    5        7     1  15    4.8766   433.6    7.049      40.156
2015    5        7     1  20    4.8770   433.7    7.046      40.182
2015    5        7     1  26    4.8773   433.8    7.043      40.208
2015    5        7     1  32    4.8776   433.9    7.041      40.233
2015    5        7     1  38    4.8779   434.0    7.038      40.257
2015    5        7     1  44    4.8782   434.1    7.035      40.282
2015    5        7     1  50    4.8784   434.2    7.032      40.306
2015    5        7     1  56    4.8786   434.3    7.029      40.330
2015    5        7     2   2    4.8788   434.5    7.026      40.353
2015    5        7     2   8    4.8790   434.6    7.023      40.376
2015    5        7     2  14    4.8792   434.7    7.020      40.398
2015    5        7     2  20    4.8793   434.8    7.017      40.420
2015    5        7     2  26    4.8794   434.9    7.014      40.442
2015    5        7     2  32    4.8795   435.0    7.011      40.464
2015    5        7     2  38    4.8796   435.1    7.008      40.485
2015    5        7     2  44    4.8797   435.2    7.005      40.506
2015    5        7     2  50    4.8798   435.3    7.002      40.527
2015    5        7     2  56    4.8798   435.4    6.999      40.547
2015    5        7     3   2    4.8799   435.6    6.996      40.568
2015    5        7     3   8    4.8799   435.7    6.994      40.588
2015    5        7     3  14    4.8799   435.8    6.991      40.607
2015    5        7     3  20    4.8799   435.9    6.988      40.627
2015    5        7     3  26    4.8800   436.0    6.985      40.646
2015    5        7     3  32    4.8800   436.1    6.983      40.666
2015    5        7     3  38    4.8800   436.2    6.980      40.685
2015    5        7     3  44    4.8800   436.3    6.978      40.704
2015    5        7     3  50    4.8800   436.4    6.976      40.723
2015    5        7     3  56    4.8799   436.5    6.974      40.742
2015    5        7     4   1    4.8798   436.7    6.972      40.761
2015    5        7     4   7    4.8797   436.8    6.970      40.781
2015    5        7     4  13    4.8796   436.9    6.968      40.801
2015    5        7     4  19    4.8793   437.0    6.966      40.822
2015    5        7     4  25    4.8791   437.1    6.964      40.844
2015    5        7     4  31    4.8787   437.2    6.963      40.866
2015    5        7     4  37    4.8783   437.4    6.961      40.889
2015    5        7     4  43    4.8779   437.5    6.958      40.912
2015    5        7     4  49    4.8774   437.6    6.956      40.935
2015    5        7     4  55    4.8767   437.7    6.954      40.958
2015    5        7     5   1    4.8761   437.8    6.951      40.981
2015    5        7     5   7    4.8753   438.0    6.949      41.005
2015    5        7     5  13    4.8746   438.1    6.946      41.028
2015    5        7     5  19    4.8737   438.2    6.943      41.052
2015    5        7     5  25    4.8728   438.3    6.939      41.074
2015    5        7     5  31    4.8718   438.5    6.936      41.096
2015    5        7     5  37    4.8708   438.6    6.932      41.117
2015    5        7     5  43    4.8697   438.7    6.928      41.138
2015    5        7     5  49    4.8686   438.8    6.924      41.158
2015    5        7     5  55    4.8674   438.9    6.920      41.178
2015    5        7     6   1    4.8662   439.1    6.916      41.197
2015    5        7     6   7    4.8649   439.2    6.911      41.215
2015    5        7     6  13    4.8637   439.3    6.907      41.233
2015    5        7     6  19    4.8624   439.4    6.902      41.251
2015    5        7     6  25    4.8610   439.5    6.897      41.267
2015    5        7     6  31    4.8597   439.6    6.892      41.284
2015    5        7     6  37    4.8583   439.8    6.887      41.300
2015    5        7     6  42    4.8568   439.9    6.882      41.315
2015    5        7     6  48    4.8554   440.0    6.876      41.330
2015    5        7     6  54    4.8539   440.1    6.871      41.345
2015    5        7     7   0    4.8524   440.2    6.865      41.359
2015    5        7     7   6    4.8509   440.3    6.859      41.373
2015    5        7     7  12    4.8494   440.4    6.854      41.386
2015    5        7     7  18    4.8478   440.5    6.848      41.400
2015    5        7     7  24    4.8462   440.7    6.842      41.412
2015    5        7     7  30    4.8446   440.8    6.836      41.425
2015    5        7     7  36    4.8430   440.9    6.830      41.437
2015    5        7     7  42    4.8413   441.0    6.824      41.448
2015    5        7     7  48    4.8396   441.1    6.818      41.460
2015    5        7     7  54    4.8378   441.2    6.812      41.471
2015    5        7     8   0    4.8361   441.3    6.805      41.482
2015    5        7     8   6    4.8343   441.4    6.799      41.492
2015    5        7     8  12    4.8325   441.5    6.793      41.502
2015    5        7     8  18    4.8306   441.6    6.786      41.512
2015    5        7     8  24    4.8287   441.7    6.780      41.522
2015    5        7     8  30    4.8268   441.8    6.773      41.531
2015    5        7     8  36    4.8249   441.9    6.766      41.540
2015    5        7     8  42    4.8229   442.1    6.760      41.549
2015    5        7     8  48    4.8209   442.2    6.753      41.557
2015    5        7     8  54    4.8188   442.3    6.746      41.565
2015    5        7     9   0    4.8167   442.4    6.740      41.573
2015    5        7     9   6    4.8146   442.5    6.733      41.580
2015    5        7     9  12    4.8124   442.6    6.726      41.587
2015    5        7     9  18    4.8102   442.7    6.719      41.593
2015    5        7     9  24    4.8080   442.8    6.712      41.599
2015    5        7     9  29    4.8057   442.9    6.705      41.605
2015    5        7     9  35    4.8034   443.0    6.698      41.611
2015    5        7     9  41    4.8010   443.1    6.691      41.616
2015    5        7     9  47    4.7987   443.2    6.684      41.620
2015    5        7     9  53    4.7962   443.3    6.677      41.625
2015    5        7     9  59    4.7938   443.4    6.670      41.628
2015    5        7    10   5    4.7912   443.5    6.663      41.632
2015    5        7    10  11    4.7887   443.6    6.656      41.635
2015    5        7    10  17    4.7861   443.7    6.649      41.638
2015    5        7    10  23    4.7835   443.8    6.641      41.640
2015    5        7    10  29    4.7808   443.9    6.634      41.642
2015    5        7    10  35    4.7781   443.9    6.627      41.643
2015    5        7    10  41    4.7753   444.0    6.619      41.644
2015    5        7    10  47    4.7725   444.1    6.612      41.645
2015    5        7    10  53    4.7696   444.2    6.605      41.645
2015    5        7    10  59    4.7668   444.3    6.597      41.645
2015    5        7    11   5    4.7638   444.4    6.590      41.644
2015    5        7    11  11    4.7609   444.5    6.582      41.643
2015    5        7    11  17    4.7578   444.6    6.575      41.642
2015    5        7    11  23    4.7548   444.7    6.567      41.640
2015    5        7    11  29    4.7517   444.8    6.560      41.637
2015    5        7    11  35    4.7485   444.9    6.552      41.634
2015    5        7    11  41    4.7454   444.9    6.544      41.631
2015    5        7    11  47    4.7422   445.0    6.537      41.627
2015    5        7    11  53    4.7389   445.1    6.529      41.623
2015    5        7    11  59    4.7356   445.2    6.521      41.618
2015    5        7    12   5    4.7323   445.3    6.514      41.613
2015    5        7    12  10    4.7290   445.4    6.506      41.608
2015    5        7    12  16    4.7257   445.4    6.498      41.602
2015    5        7    12  22    4.7223   445.5    6.491      41.595
2015    5        7    12  28    4.7190   445.6    6.483      41.589
2015    5        7    12  34    4.7156   445.7    6.475      41.582
2015    5        7    12  40    4.7122   445.7    6.468      41.574
2015    5        7    12  46    4.7088   445.8    6.460      41.566
2015    5        7    12  52    4.7053   445.9    6.452      41.557
2015    5        7    12  58    4.7019   445.9    6.444      41.548
2015    5        7    13   4    4.6985   446.0    6.437      41.539
2015    5        7    13  10    4.6951   446.1    6.429      41.529
2015    5        7    13  16    4.6916   446.1    6.422      41.519
2015    5        7    13  22    4.6882   446.2    6.414      41.508
2015    5        7    13  28    4.6848   446.3    6.406      41.497
2015    5        7    13  34    4.6813   446.3    6.399      41.486
2015    5        7    13  40    4.6778   446.4    6.391      41.474
2015    5        7    13  46    4.6744   446.5    6.384      41.462
2015    5        7    13  52    4.6709   446.5    6.377      41.450
2015    5        7    13  58    4.6674   446.6    6.370      41.437
2015    5        7    14   4    4.6639   446.6    6.362      41.424
2015    5        7    14  10    4.6604   446.7    6.355      41.411
2015    5        7    14  16    4.6569   446.7    6.348      41.397
2015    5        7    14  22    4.6534   446.8    6.341      41.383
2015    5        7    14  28    4.6498   446.8    6.334      41.369
2015    5        7    14  34    4.6463   446.9    6.327      41.355
2015    5        7    14  40    4.6428   447.0    6.320      41.340
2015    5        7    14  46    4.6392   447.0    6.314      41.325
2015    5        7    14  52    4.6357   447.1    6.307      41.310
2015    5        7    14  57    4.6321   447.1    6.300      41.294
2015    5        7    15   3    4.6285   447.1    6.293      41.278
2015    5        7    15   9    4.6250   447.2    6.287      41.262
2015    5        7    15  15    4.6214   447.2    6.280      41.245
2015    5        7    15  21    4.6178   447.3    6.274      41.229
2015    5        7    15  27    4.6142   447.3    6.267      41.212
2015    5        7    15  33    4.6107   447.4    6.261      41.195
2015    5        7    15  39    4.6071   447.4    6.254      41.178
2015    5        7    15  45    4.6035   447.4    6.248      41.161
2015    5        7    15  51    4.5999   447.5    6.241      41.144
2015    5        7    15  57    4.5963   447.5    6.235      41.126
2015    5        7    16   3    4.5927   447.5    6.228      41.109
2015    5        7    16   9    4.5891   447.6    6.222      41.092
2015    5        7    16  15    4.5854   447.6    6.215      41.074
2015    5        7    16  21    4.5818   447.6    6.209      41.057
2015    5        7    16  27    4.5782   447.7    6.202      41.039
2015    5        7    16  33    4.5745   447.7    6.195      41.021
2015    5        7    16  39    4.5709   447.7    6.189      41.003
2015    5        7    16  45    4.5672   447.7    6.182      40.985
2015    5        7    16  51    4.5636   447.7    6.175      40.967
2015    5        7    16  57    4.5599   447.8    6.168      40.948
2015    5        7    17   3    4.5562   447.8    6.162      40.930
2015    5        7    17   9    4.5526   447.8    6.155      40.911
2015    5        7    17  15    4.5489   447.8    6.148      40.892
2015    5        7    17  21    4.5452   447.8    6.141      40.874
2015    5        7    17  27    4.5416   447.9    6.135      40.855
2015    5        7    17  33    4.5379   447.9    6.128      40.835
2015    5        7    17  38    4.5342   447.9    6.121      40.816
2015    5        7    17  44    4.5306   447.9    6.114      40.797
2015    5        7    17  50    4.5269   447.9    6.108      40.778
2015    5        7    17  56    4.5233   447.9    6.101      40.759
2015    5        7    18   2    4.5197   447.9    6.094      40.739
2015    5        7    18   8    4.5160   447.9    6.088      40.720
2015    5        7    18  14    4.5124   447.9    6.081      40.701
2015    5        7    18  20    4.5088   447.9    6.075      40.682
2015    5        7    18  26    4.5053   447.9    6.068      40.662
2015    5        7    18  32    4.5017   448.0    6.062      40.643
2015    5        7    18  38    4.4981   448.0    6.056      40.624
2015    5        7    18  44    4.4946   448.0    6.049      40.605
2015    5        7    18  50    4.4911   448.0    6.043      40.586
2015    5        7    18  56    4.4876   448.0    6.037      40.567
2015    5        7    19   2    4.4841   448.0    6.031      40.549
2015    5        7    19   8    4.4806   448.0    6.025      40.530
2015    5        7    19  14    4.4772   448.0    6.019      40.511
2015    5        7    19  20    4.4738   448.0    6.013      40.492
2015    5        7    19  26    4.4704   448.0    6.007      40.474
2015    5        7    19  32    4.4670   448.0    6.002      40.455
2015    5        7    19  38    4.4636   448.0    5.996      40.436
2015    5        7    19  44    4.4603   448.0    5.990      40.418
2015    5        7    19  50    4.4570   448.0    5.985      40.399
2015    5        7    19  56    4.4537   448.0    5.980      40.380
2015    5        7    20   2    4.4505   448.0    5.974      40.361
2015    5        7    20   8    4.4473   447.9    5.969      40.342
2015    5        7    20  14    4.4441   447.9    5.964      40.323
2015    5        7    20  19    4.4409   447.9    5.959      40.304
2015    5        7    20  25    4.4378   447.9    5.954      40.284
2015    5        7    20  31    4.4347   447.9    5.950      40.265
2015    5        7    20  37    4.4317   447.9    5.945      40.246
2015    5        7    20  43    4.4286   447.9    5.941      40.227
2015    5        7    20  49    4.4256   447.9    5.937      40.208
2015    5        7    20  55    4.4226   447.9    5.933      40.189
2015    5        7    21   1    4.4196   447.8    5.929      40.170
2015    5        7    21   7    4.4166   447.8    5.925      40.151
2015    5        7    21  13    4.4136   447.8    5.921      40.132
2015    5        7    21  19    4.4107   447.8    5.918      40.112
2015    5        7    21  25    4.4077   447.8    5.915      40.092
2015    5        7    21  31    4.4048   447.8    5.911      40.073
2015    5        7    21  37    4.4018   447.8    5.908      40.053
2015    5        7    21  43    4.3989   447.7    5.905      40.033
2015    5        7    21  49    4.3960   447.7    5.903      40.013
2015    5        7    21  55    4.3931   447.7    5.900      39.992
2015    5        7    22   1    4.3902   447.7    5.897      39.972
2015    5        7    22   7    4.3873   447.7    5.895      39.951
2015    5        7    22  13    4.3844   447.7    5.892      39.931
2015    5        7    22  19    4.3816   447.6    5.890      39.910
2015    5        7    22  25    4.3788   447.6    5.888      39.889
2015    5        7    22  31    4.3760   447.6    5.885      39.869
2015    5        7    22  37    4.3732   447.6    5.883      39.849
2015    5        7    22  43    4.3705   447.6    5.881      39.829
2015    5        7    22  49    4.3677   447.6    5.879      39.809
2015    5        7    22  55    4.3650   447.5    5.877      39.789
2015    5        7    23   1    4.3622   447.5    5.875      39.769
2015    5        7    23   6    4.3595   447.5    5.873      39.749
2015    5        7    23  12    4.3568   447.5    5.871      39.729
2015    5        7    23  18    4.3540   447.5    5.868      39.709
2015    5        7    23  24    4.3513   447.4    5.866      39.689
2015    5        7    23  30    4.3486   447.4    5.863      39.668
2015    5        7    23  36    4.3459   447.4    5.861      39.648
2015    5        7    23  42    4.3432   447.3    5.858      39.627
2015    5        7    23  48    4.3405   447.3    5.855      39.606
2015    5        7    23  54    4.3378   447.3    5.852      39.584
2015    5        8     0   0    4.3352   447.3    5.849      39.562
2015    5        8     0   6    4.3325   447.2    5.846      39.540
2015    5        8     0  12    4.3298   447.2    5.843      39.518
2015    5        8     0  18    4.3272   447.1    5.840      39.496
2015    5        8     0  24    4.3246   447.1    5.837      39.473
2015    5        8     0  30    4.3220   447.1    5.833      39.451
2015    5        8     0  36    4.3194   447.0    5.830      39.428
2015    5        8     0  42    4.3168   447.0    5.827      39.405
2015    5        8     0  48    4.3143   447.0    5.823      39.382
2015    5        8     0  54    4.3118   446.9    5.820      39.359
2015    5        8     1   0    4.3093   446.9    5.817      39.336
2015    5        8     1   6    4.3068   446.8    5.813      39.313
2015    5        8     1  12    4.3044   446.8    5.810      39.290
2015    5        8     1  18    4.3020   446.7    5.807      39.267
2015    5        8     1  24    4.2996   446.7    5.803      39.244
2015    5        8     1  30    4.2972   446.7    5.800      39.221
2015    5        8     1  36    4.2949   446.6    5.797      39.198
2015    5        8     1  42    4.2926   446.6    5.793      39.175
2015    5        8     1  47    4.2903   446.5    5.790      39.153
2015    5        8     1  53    4.2881   446.5    5.787      39.131
2015    5        8     1  59    4.2859   446.4    5.784      39.108
2015    5        8     2   5    4.2837   446.4    5.781      39.086
2015    5        8     2  11    4.2815   446.3    5.778      39.065
2015    5        8     2  17    4.2794   446.3    5.775      39.043
2015    5        8     2  23    4.2773   446.2    5.772      39.021
2015    5        8     2  29    4.2752   446.2    5.769      39.000
2015    5        8     2  35    4.2732   446.1    5.766      38.979
2015    5        8     2  41    4.2711   446.1    5.763      38.958
2015    5        8     2  47    4.2691   446.0    5.760      38.937
2015    5        8     2  53    4.2672   446.0    5.758      38.917
2015    5        8     2  59    4.2652   445.9    5.755      38.896
2015    5        8     3   5    4.2633   445.9    5.752      38.876
2015    5        8     3  11    4.2614   445.8    5.750      38.856
2015    5        8     3  17    4.2596   445.8    5.747      38.836
2015    5        8     3  23    4.2577   445.7    5.745      38.816
2015    5        8     3  29    4.2559   445.7    5.742      38.797
2015    5        8     3  35    4.2541   445.6    5.740      38.777
2015    5        8     3  41    4.2523   445.6    5.738      38.758
2015    5        8     3  47    4.2506   445.5    5.736      38.739
2015    5        8     3  53    4.2489   445.5    5.734      38.720
2015    5        8     3  59    4.2472   445.4    5.732      38.702
2015    5        8     4   5    4.2455   445.4    5.730      38.684
2015    5        8     4  11    4.2438   445.3    5.728      38.666
2015    5        8     4  17    4.2422   445.2    5.726      38.648
2015    5        8     4  23    4.2406   445.2    5.724      38.630
2015    5        8     4  28    4.2390   445.1    5.723      38.612
2015    5        8     4  34    4.2374   445.1    5.721      38.594
2015    5        8     4  40    4.2358   445.0    5.720      38.577
2015    5        8     4  46    4.2342   445.0    5.719      38.559
2015    5        8     4  52    4.2326   444.9    5.718      38.541
2015    5        8     4  58    4.2310   444.9    5.716      38.523
2015    5        8     5   4    4.2294   444.8    5.715      38.505
2015    5        8     5  10    4.2279   444.8    5.714      38.487
2015    5        8     5  16    4.2264   444.7    5.713      38.470
2015    5        8     5  22    4.2248   444.7    5.713      38.452
2015    5        8     5  28    4.2233   444.6    5.712      38.435
2015    5        8     5  34    4.2218   444.6    5.711      38.417
2015    5        8     5  40    4.2204   444.5    5.711      38.400
2015    5        8     5  46    4.2189   444.5    5.710      38.384
2015    5        8     5  52    4.2175   444.4    5.710      38.367
2015    5        8     5  58    4.2160   444.3    5.709      38.351
2015    5        8     6   4    4.2146   444.3    5.709      38.335
2015    5        8     6  10    4.2132   444.2    5.709      38.320
2015    5        8     6  16    4.2118   444.2    5.709      38.304
2015    5        8     6  22    4.2104   444.1    5.708      38.288
2015    5        8     6  28    4.2089   444.1    5.708      38.272
2015    5        8     6  34    4.2075   444.0    5.708      38.256
2015    5        8     6  40    4.2061   444.0    5.707      38.240
2015    5        8     6  46    4.2047   443.9    5.707      38.224
2015    5        8     6  52    4.2033   443.9    5.707      38.207
2015    5        8     6  58    4.2019   443.8    5.706      38.190
2015    5        8     7   4    4.2005   443.8    5.706      38.173
2015    5        8     7  10    4.1991   443.7    5.706      38.156
2015    5        8     7  15    4.1978   443.7    5.706      38.139
2015    5        8     7  21    4.1964   443.6    5.705      38.122
2015    5        8     7  27    4.1950   443.5    5.705      38.104
2015    5        8     7  33    4.1937   443.5    5.705      38.087
2015    5        8     7  39    4.1923   443.4    5.705      38.069
2015    5        8     7  45    4.1910   443.4    5.704      38.051
2015    5        8     7  51    4.1897   443.3    5.704      38.033
2015    5        8     7  57    4.1884   443.2    5.704      38.015
2015    5        8     8   3    4.1871   443.2    5.704      37.997
2015    5        8     8   9    4.1858   443.1    5.704      37.979
2015    5        8     8  15    4.1846   443.1    5.704      37.961
2015    5        8     8  21    4.1834   443.0    5.703      37.943
2015    5        8     8  27    4.1821   442.9    5.703      37.926
2015    5        8     8  33    4.1810   442.9    5.703      37.908
2015    5        8     8  39    4.1798   442.8    5.703      37.891
2015    5        8     8  45    4.1786   442.8    5.703      37.874
2015    5        8     8  51    4.1774   442.7    5.703      37.857
2015    5        8     8  57    4.1763   442.6    5.702      37.840
2015    5        8     9   3    4.1752   442.6    5.702      37.824
2015    5        8     9   9    4.1741   442.5    5.701      37.807
2015    5        8     9  15    4.1729   442.4    5.701      37.790
2015    5        8     9  21    4.1718   442.4    5.700      37.773
2015    5        8     9  27    4.1707   442.3    5.700      37.755
2015    5        8     9  33    4.1697   442.2    5.699      37.738
2015    5        8     9  39    4.1686   442.2    5.698      37.721
2015    5        8     9  45    4.1675   442.1    5.697      37.704
2015    5        8     9  51    4.1665   442.0    5.696      37.687
2015    5        8     9  56    4.1654   441.9    5.695      37.669
2015    5        8    10   2    4.1644   441.9    5.694      37.652
2015    5        8    10   8    4.1634   441.8    5.693      37.634
2015    5        8    10  14    4.1624   441.7    5.691      37.617
2015    5        8    10  20    4.1614   441.7    5.690      37.599
2015    5        8    10  26    4.1604   441.6    5.689      37.581
2015    5        8    10  32    4.1595   441.5    5.687      37.563
2015    5        8    10  38    4.1585   441.5    5.686      37.544
2015    5        8    10  44    4.1575   441.4    5.684      37.525
2015    5        8    10  50    4.1566   441.3    5.683      37.506
2015    5        8    10  56    4.1556   441.2    5.681      37.487
2015    5        8    11   2    4.1547   441.2    5.679      37.468
2015    5        8    11   8    4.1538   441.1    5.678      37.448
2015    5        8    11  14    4.1528   441.0    5.676      37.428
2015    5        8    11  20    4.1519   441.0    5.675      37.408
2015    5        8    11  26    4.1510   440.9    5.673      37.388
2015    5        8    11  32    4.1501   440.8    5.671      37.368
2015    5        8    11  38    4.1492   440.7    5.670      37.348
2015    5        8    11  44    4.1484   440.7    5.668      37.327
2015    5        8    11  50    4.1475   440.6    5.666      37.307
2015    5        8    11  56    4.1466   440.5    5.665      37.286
2015    5        8    12   2    4.1458   440.4    5.663      37.266
2015    5        8    12   8    4.1449   440.3    5.662      37.245
2015    5        8    12  14    4.1441   440.3    5.660      37.225
2015    5        8    12  20    4.1433   440.2    5.659      37.204
2015    5        8    12  26    4.1425   440.1    5.657      37.184
2015    5        8    12  32    4.1417   440.0    5.656      37.163
2015    5        8    12  38    4.1409   440.0    5.655      37.143
2015    5        8    12  43    4.1401   439.9    5.654      37.123
2015    5        8    12  49    4.1393   439.8    5.652      37.102
2015    5        8    12  55    4.1385   439.7    5.651      37.082
2015    5        8    13   1    4.1378   439.7    5.650      37.062
2015    5        8    13   7    4.1370   439.6    5.649      37.042
2015    5        8    13  13    4.1363   439.5    5.648      37.022
2015    5        8    13  19    4.1355   439.4    5.647      37.002
2015    5        8    13  25    4.1348   439.3    5.646      36.982
2015    5        8    13  31    4.1341   439.3    5.646      36.963
2015    5        8    13  37    4.1334   439.2    5.645      36.943
2015    5        8    13  43    4.1327   439.1    5.644      36.924
2015    5        8    13  49    4.1320   439.0    5.644      36.904
2015    5        8    13  55    4.1313   439.0    5.643      36.885
2015    5        8    14   1    4.1306   438.9    5.643      36.866
2015    5        8    14   7    4.1299   438.8    5.643      36.846
2015    5        8    14  13    4.1292   438.7    5.642      36.827
2015    5        8    14  19    4.1286   438.6    5.642      36.808
2015    5        8    14  25    4.1279   438.5    5.642      36.789
2015    5        8    14  31    4.1273   438.5    5.642      36.771
2015    5        8    14  37    4.1266   438.4    5.642      36.752
2015    5        8    14  43    4.1260   438.3    5.642      36.733
2015    5        8    14  49    4.1254   438.2    5.643      36.715
2015    5        8    14  55    4.1248   438.1    5.643      36.697
2015    5        8    15   1    4.1242   438.1    5.644      36.679
2015    5        8    15   7    4.1236   438.0    5.644      36.661
2015    5        8    15  13    4.1231   437.9    5.645      36.643
2015    5        8    15  19    4.1226   437.8    5.646      36.626
2015    5        8    15  24    4.1221   437.7    5.647      36.609
2015    5        8    15  30    4.1216   437.6    5.648      36.592
2015    5        8    15  36    4.1211   437.5    5.649      36.576
2015    5        8    15  42    4.1207   437.5    5.651      36.561
2015    5        8    15  48    4.1203   437.4    5.652      36.546
2015    5        8    15  54    4.1199   437.3    5.654      36.531
2015    5        8    16   0    4.1195   437.2    5.655      36.518
2015    5        8    16   6    4.1192   437.1    5.657      36.505
2015    5        8    16  12    4.1188   437.0    5.659      36.492
2015    5        8    16  18    4.1185   437.0    5.660      36.480
2015    5        8    16  24    4.1183   436.9    5.662      36.468
2015    5        8    16  30    4.1180   436.8    5.664      36.456
2015    5        8    16  36    4.1177   436.7    5.666      36.445
2015    5        8    16  42    4.1175   436.6    5.668      36.434
2015    5        8    16  48    4.1172   436.5    5.669      36.423
2015    5        8    16  54    4.1170   436.5    5.671      36.413
2015    5        8    17   0    4.1168   436.4    5.673      36.403
2015    5        8    17   6    4.1165   436.3    5.675      36.393
2015    5        8    17  12    4.1163   436.2    5.677      36.384
2015    5        8    17  18    4.1161   436.1    5.679      36.375
2015    5        8    17  24    4.1159   436.1    5.681      36.366
2015    5        8    17  30    4.1157   436.0    5.683      36.357
2015    5        8    17  36    4.1155   435.9    5.685      36.348
2015    5        8    17  42    4.1153   435.8    5.686      36.340
2015    5        8    17  48    4.1150   435.7    5.688      36.331
2015    5        8    17  54    4.1148   435.7    5.690      36.323
2015    5        8    18   0    4.1146   435.6    5.691      36.314
2015    5        8    18   5    4.1143   435.5    5.693      36.306
2015    5        8    18  11    4.1141   435.4    5.695      36.297
2015    5        8    18  17    4.1138   435.3    5.696      36.288
2015    5        8    18  23    4.1136   435.2    5.697      36.279
2015    5        8    18  29    4.1133   435.2    5.699      36.270
2015    5        8    18  35    4.1131   435.1    5.700      36.260
2015    5        8    18  41    4.1128   435.0    5.701      36.250
2015    5        8    18  47    4.1126   434.9    5.703      36.240
2015    5        8    18  53    4.1123   434.8    5.704      36.230
2015    5        8    18  59    4.1120   434.7    5.705      36.219
2015    5        8    19   5    4.1118   434.6    5.706      36.208
2015    5        8    19  11    4.1116   434.6    5.707      36.197
2015    5        8    19  17    4.1113   434.5    5.708      36.186
2015    5        8    19  23    4.1111   434.4    5.709      36.175
2015    5        8    19  29    4.1109   434.3    5.710      36.163
2015    5        8    19  35    4.1107   434.2    5.711      36.152
2015    5        8    19  41    4.1105   434.1    5.712      36.140
2015    5        8    19  47    4.1103   434.0    5.713      36.128
2015    5        8    19  53    4.1101   434.0    5.714      36.116
2015    5        8    19  59    4.1099   433.9    5.714      36.103
2015    5        8    20   5    4.1098   433.8    5.715      36.091
2015    5        8    20  11    4.1096   433.7    5.716      36.079
2015    5        8    20  17    4.1095   433.6    5.716      36.066
2015    5        8    20  23    4.1094   433.5    5.717      36.053
2015    5        8    20  29    4.1093   433.4    5.717      36.040
2015    5        8    20  35    4.1092   433.4    5.718      36.027
2015    5        8    20  41    4.1091   433.3    5.718      36.014
2015    5        8    20  46    4.1090   433.2    5.719      36.001
2015    5        8    20  52    4.1090   433.1    5.719      35.987
2015    5        8    20  58    4.1089   433.0    5.720      35.973
2015    5        8    21   4    4.1089   432.9    5.720      35.960
2015    5        8    21  10    4.1089   432.8    5.720      35.946
2015    5        8    21  16    4.1088   432.7    5.721      35.932
2015    5        8    21  22    4.1088   432.6    5.721      35.918
2015    5        8    21  28    4.1089   432.6    5.721      35.904
2015    5        8    21  34    4.1089   432.5    5.722      35.889
2015    5        8    21  40    4.1089   432.4    5.722      35.875
2015    5        8    21  46    4.1090   432.3    5.722      35.860
2015    5        8    21  52    4.1091   432.2    5.723      35.845
2015    5        8    21  58    4.1092   432.1    5.723      35.831
2015    5        8    22   4    4.1093   432.0    5.724      35.816
2015    5        8    22  10    4.1094   431.9    5.724      35.801
2015    5        8    22  16    4.1095   431.8    5.725      35.786
2015    5        8    22  22    4.1097   431.7    5.725      35.771
2015    5        8    22  28    4.1099   431.6    5.726      35.756
2015    5        8    22  34    4.1100   431.5    5.726      35.741
2015    5        8    22  40    4.1103   431.5    5.727      35.727
2015    5        8    22  46    4.1105   431.4    5.728      35.712
2015    5        8    22  52    4.1107   431.3    5.729      35.698
2015    5        8    22  58    4.1110   431.2    5.730      35.684
2015    5        8    23   4    4.1113   431.1    5.731      35.670
2015    5        8    23  10    4.1116   431.0    5.733      35.656
2015    5        8    23  16    4.1120   430.9    5.734      35.643
2015    5        8    23  22    4.1123   430.8    5.735      35.630
2015    5        8    23  28    4.1127   430.7    5.737      35.617
2015    5        8    23  33    4.1131   430.6    5.739      35.605
2015    5        8    23  39    4.1135   430.5    5.741      35.593
2015    5        8    23  45    4.1140   430.4    5.743      35.581
2015    5        8    23  51    4.1144   430.4    5.745      35.569
2015    5        8    23  57    4.1149   430.3    5.747      35.558
2015    5        9     0   3    4.1154   430.2    5.749      35.547
2015    5        9     0   9    4.1159   430.1    5.752      35.537
2015    5        9     0  15    4.1165   430.0    5.754      35.527
2015    5        9     0  21    4.1170   429.9    5.757      35.517
2015    5        9     0  27    4.1176   429.8    5.760      35.508
2015    5        9     0  33    4.1181   429.7    5.763      35.499
2015    5        9     0  39    4.1187   429.6    5.766      35.490
2015    5        9     0  45    4.1193   429.6    5.769      35.483
2015    5        9     0  51    4.1200   429.5    5.773      35.476
2015    5        9     0  57    4.1206   429.4    5.776      35.469
2015    5        9     1   3    4.1213   429.3    5.780      35.463
2015    5        9     1   9    4.1219   429.2    5.783      35.458
2015    5        9     1  15    4.1227   429.1    5.787      35.453
2015    5        9     1  21    4.1234   429.0    5.791      35.449
2015    5        9     1  27    4.1241   428.9    5.795      35.445
2015    5        9     1  33    4.1249   428.8    5.799      35.441
2015    5        9     1  39    4.1257   428.8    5.803      35.438
2015    5        9     1  45    4.1265   428.7    5.807      35.436
2015    5        9     1  51    4.1274   428.6    5.812      35.434
2015    5        9     1  57    4.1282   428.5    5.816      35.433
2015    5        9     2   3    4.1291   428.4    5.821      35.432
2015    5        9     2   9    4.1300   428.3    5.825      35.433
2015    5        9     2  14    4.1309   428.3    5.830      35.434
2015    5        9     2  20    4.1318   428.2    5.834      35.435
2015    5        9     2  26    4.1328   428.1    5.839      35.437
2015    5        9     2  32    4.1337   428.0    5.843      35.439
2015    5        9     2  38    4.1347   427.9    5.848      35.441
2015    5        9     2  44    4.1356   427.9    5.852      35.444
2015    5        9     2  50    4.1366   427.8    5.856      35.446
2015    5        9     2  56    4.1376   427.7    5.861      35.448
2015    5        9     3   2    4.1386   427.6    5.865      35.451
2015    5        9     3   8    4.1397   427.6    5.870      35.453
2015    5        9     3  14    4.1407   427.5    5.874      35.455
2015    5        9     3  20    4.1417   427.4    5.878      35.458
2015    5        9     3  26    4.1428   427.3    5.882      35.460
2015    5        9     3  32    4.1439   427.3    5.887      35.462
2015    5        9     3  38    4.1450   427.2    5.891      35.464
2015    5        9     3  44    4.1461   427.1    5.895      35.466
2015    5        9     3  50    4.1472   427.0    5.899      35.468
2015    5        9     3  56    4.1483   427.0    5.903      35.470
2015    5        9     4   2    4.1494   426.9    5.907      35.472
2015    5        9     4   8    4.1506   426.8    5.911      35.474
2015    5        9     4  14    4.1517   426.8    5.915      35.476
2015    5        9     4  20    4.1529   426.7    5.918      35.477
2015    5        9     4  26    4.1541   426.6    5.922      35.479
2015    5        9     4  32    4.1552   426.5    5.926      35.481
2015    5        9     4  38    4.1564   426.5    5.930      35.482
2015    5        9     4  44    4.1576   426.4    5.934      35.484
2015    5        9     4  50    4.1588   426.3    5.937      35.485
2015    5        9     4  55    4.1600   426.3    5.941      35.486
2015    5        9     5   1    4.1613   426.2    5.944      35.487
2015    5        9     5   7    4.1625   426.1    5.948      35.488
2015    5        9     5  13    4.1638   426.1    5.952      35.489
2015    5        9     5  19    4.1650   426.0    5.955      35.490
2015    5        9     5  25    4.1663   425.9    5.959      35.491
2015    5        9     5  31    4.1676   425.9    5.962      35.492
2015    5        9     5  37    4.1689   425.8    5.966      35.493
2015    5        9     5  43    4.1702   425.7    5.970      35.494
2015    5        9     5  49    4.1715   425.7    5.973      35.495
2015    5        9     5  55    4.1729   425.6    5.977      35.496
2015    5        9     6   1    4.1742   425.5    5.981      35.497
2015    5        9     6   7    4.1756   425.5    5.984      35.498
2015    5        9     6  13    4.1770   425.4    5.988      35.499
2015    5        9     6  19    4.1784   425.3    5.992      35.501
2015    5        9     6  25    4.1798   425.3    5.996      35.502
2015    5        9     6  31    4.1812   425.2    5.999      35.504
2015    5        9     6  37    4.1827   425.1    6.003      35.505
2015    5        9     6  43    4.1841   425.1    6.007      35.507
2015    5        9     6  49    4.1856   425.0    6.011      35.509
2015    5        9     6  55    4.1871   424.9    6.016      35.512
2015    5        9     7   1    4.1887   424.9    6.020      35.514
2015    5        9     7   7    4.1902   424.8    6.024      35.517
2015    5        9     7  13    4.1918   424.8    6.029      35.520
2015    5        9     7  19    4.1933   424.7    6.033      35.524
2015    5        9     7  25    4.1949   424.6    6.038      35.528
2015    5        9     7  31    4.1965   424.6    6.043      35.532
2015    5        9     7  36    4.1981   424.5    6.048      35.538
2015    5        9     7  42    4.1998   424.5    6.053      35.544
2015    5        9     7  48    4.2015   424.4    6.058      35.551
2015    5        9     7  54    4.2032   424.3    6.063      35.558
2015    5        9     8   0    4.2049   424.3    6.068      35.565
2015    5        9     8   6    4.2066   424.2    6.074      35.573
2015    5        9     8  12    4.2084   424.2    6.079      35.581
2015    5        9     8  18    4.2101   424.1    6.085      35.590
2015    5        9     8  24    4.2119   424.1    6.091      35.600
2015    5        9     8  30    4.2136   424.0    6.097      35.611
2015    5        9     8  36    4.2154   424.0    6.102      35.622
2015    5        9     8  42    4.2172   423.9    6.108      35.633
2015    5        9     8  48    4.2190   423.9    6.114      35.646
2015    5        9     8  54    4.2208   423.8    6.120      35.658
2015    5        9     9   0    4.2226   423.8    6.126      35.671
2015    5        9     9   6    4.2243   423.8    6.132      35.683
2015    5        9     9  12    4.2261   423.7    6.138      35.697
2015    5        9     9  18    4.2279   423.7    6.144      35.710
2015    5        9     9  24    4.2297   423.6    6.150      35.724
2015    5        9     9  30    4.2315   423.6    6.155      35.738
2015    5        9     9  36    4.2332   423.6    6.161      35.752
2015    5        9     9  42    4.2350   423.5    6.167      35.767
2015    5        9     9  48    4.2367   423.5    6.172      35.781
2015    5        9     9  54    4.2385   423.5    6.178      35.795
2015    5        9    10   0    4.2402   423.4    6.183      35.809
2015    5        9    10   6    4.2419   423.4    6.189      35.822
2015    5        9    10  12    4.2436   423.4    6.194      35.836
2015    5        9    10  18    4.2454   423.3    6.199      35.849
2015    5        9    10  23    4.2471   423.3    6.204      35.861
2015    5        9    10  29    4.2488   423.3    6.209      35.874
2015    5        9    10  35    4.2505   423.2    6.215      35.886
2015    5        9    10  41    4.2522   423.2    6.220      35.898
2015    5        9    10  47    4.2538   423.2    6.224      35.910
2015    5        9    10  53    4.2555   423.2    6.229      35.922
2015    5        9    10  59    4.2572   423.1    6.234      35.933
2015    5        9    11   5    4.2589   423.1    6.239      35.944
2015    5        9    11  11    4.2605   423.1    6.244      35.955
2015    5        9    11  17    4.2622   423.0    6.248      35.965
2015    5        9    11  23    4.2638   423.0    6.253      35.976
2015    5        9    11  29    4.2655   423.0    6.258      35.986
2015    5        9    11  35    4.2671   423.0    6.262      35.997
2015    5        9    11  41    4.2687   422.9    6.267      36.007
2015    5        9    11  47    4.2703   422.9    6.271      36.017
2015    5        9    11  53    4.2720   422.9    6.275      36.027
2015    5        9    11  59    4.2736   422.9    6.280      36.036
2015    5        9    12   5    4.2752   422.8    6.284      36.046
2015    5        9    12  11    4.2768   422.8    6.289      36.056
2015    5        9    12  17    4.2784   422.8    6.293      36.066
2015    5        9    12  23    4.2800   422.8    6.297      36.076
2015    5        9    12  29    4.2816   422.7    6.302      36.085
2015    5        9    12  35    4.2832   422.7    6.306      36.095
2015    5        9    12  41    4.2849   422.7    6.310      36.105
2015    5        9    12  47    4.2865   422.6    6.315      36.115
2015    5        9    12  53    4.2881   422.6    6.319      36.126
2015    5        9    12  59    4.2898   422.6    6.324      36.136
2015    5        9    13   4    4.2915   422.6    6.328      36.147
2015    5        9    13  10    4.2932   422.5    6.333      36.158
2015    5        9    13  16    4.2949   422.5    6.337      36.169
2015    5        9    13  22    4.2966   422.5    6.342      36.181
2015    5        9    13  28    4.2984   422.4    6.347      36.193
2015    5        9    13  34    4.3002   422.4    6.352      36.205
2015    5        9    13  40    4.3020   422.4    6.357      36.219
2015    5        9    13  46    4.3039   422.4    6.362      36.233
2015    5        9    13  52    4.3057   422.3    6.367      36.248
2015    5        9    13  58    4.3076   422.3    6.372      36.264
2015    5        9    14   4    4.3096   422.3    6.377      36.280
2015    5        9    14  10    4.3115   422.3    6.383      36.297
2015    5        9    14  16    4.3134   422.3    6.388      36.315
2015    5        9    14  22    4.3153   422.2    6.393      36.333
2015    5        9    14  28    4.3172   422.2    6.399      36.351
2015    5        9    14  34    4.3192   422.2    6.404      36.369
2015    5        9    14  40    4.3211   422.2    6.409      36.388
2015    5        9    14  46    4.3230   422.2    6.415      36.407
2015    5        9    14  52    4.3249   422.2    6.420      36.426
2015    5        9    14  58    4.3268   422.2    6.426      36.445
2015    5        9    15   4    4.3287   422.2    6.431      36.466
2015    5        9    15  10    4.3305   422.2    6.437      36.486
2015    5        9    15  16    4.3324   422.2    6.442      36.507
2015    5        9    15  22    4.3342   422.2    6.448      36.528
2015    5        9    15  28    4.3360   422.2    6.453      36.548
2015    5        9    15  34    4.3378   422.2    6.458      36.569
2015    5        9    15  40    4.3395   422.2    6.463      36.590
2015    5        9    15  45    4.3412   422.2    6.469      36.611
2015    5        9    15  51    4.3429   422.2    6.474      36.632
2015    5        9    15  57    4.3445   422.2    6.478      36.652
2015    5        9    16   3    4.3461   422.2    6.483      36.673
2015    5        9    16   9    4.3476   422.2    6.488      36.693
2015    5        9    16  15    4.3491   422.2    6.492      36.712
2015    5        9    16  21    4.3505   422.2    6.496      36.731
2015    5        9    16  27    4.3520   422.3    6.500      36.749
2015    5        9    16  33    4.3534   422.3    6.504      36.767
2015    5        9    16  39    4.3547   422.3    6.508      36.783
2015    5        9    16  45    4.3561   422.3    6.511      36.800
2015    5        9    16  51    4.3574   422.3    6.515      36.815
2015    5        9    16  57    4.3586   422.3    6.518      36.830
2015    5        9    17   3    4.3599   422.3    6.521      36.845
2015    5        9    17   9    4.3611   422.3    6.524      36.859
2015    5        9    17  15    4.3624   422.3    6.527      36.872
2015    5        9    17  21    4.3636   422.3    6.530      36.885
2015    5        9    17  27    4.3648   422.3    6.533      36.898
2015    5        9    17  33    4.3659   422.3    6.536      36.910
2015    5        9    17  39    4.3671   422.4    6.539      36.921
2015    5        9    17  45    4.3683   422.4    6.541      36.933
2015    5        9    17  51    4.3694   422.4    6.544      36.944
2015    5        9    17  57    4.3706   422.4    6.547      36.954
2015    5        9    18   3    4.3717   422.4    6.549      36.964
2015    5        9    18   9    4.3728   422.4    6.552      36.974
2015    5        9    18  15    4.3740   422.4    6.554      36.983
2015    5        9    18  21    4.3751   422.4    6.557      36.993
2015    5        9    18  26    4.3762   422.4    6.559      37.002
2015    5        9    18  32    4.3773   422.4    6.561      37.010
2015    5        9    18  38    4.3784   422.4    6.564      37.019
2015    5        9    18  44    4.3795   422.4    6.566      37.028
2015    5        9    18  50    4.3807   422.4    6.569      37.036
2015    5        9    18  56    4.3818   422.4    6.571      37.044
2015    5        9    19   2    4.3829   422.5    6.574      37.053
2015    5        9    19   8    4.3840   422.5    6.576      37.061
2015    5        9    19  14    4.3852   422.5    6.579      37.070
2015    5        9    19  20    4.3863   422.5    6.582      37.078
2015    5        9    19  26    4.3874   422.5    6.584      37.087
2015    5        9    19  32    4.3885   422.5    6.587      37.096
2015    5        9    19  38    4.3896   422.5    6.590      37.105
2015    5        9    19  44    4.3908   422.5    6.593      37.115
2015    5        9    19  50    4.3919   422.5    6.596      37.125
2015    5        9    19  56    4.3930   422.5    6.599      37.136
2015    5        9    20   2    4.3941   422.5    6.602      37.148
2015    5        9    20   8    4.3952   422.5    6.605      37.160
2015    5        9    20  14    4.3964   422.5    6.608      37.173
2015    5        9    20  20    4.3975   422.5    6.610      37.186
2015    5        9    20  26    4.3986   422.6    6.613      37.200
2015    5        9    20  32    4.3998   422.6    6.617      37.215
2015    5        9    20  38    4.4009   422.6    6.620      37.230
2015    5        9    20  44    4.4021   422.6    6.623      37.245
2015    5        9    20  50    4.4032   422.6    6.626      37.260
2015    5        9    20  56    4.4044   422.6    6.629      37.276
2015    5        9    21   2    4.4055   422.6    6.632      37.293
2015    5        9    21   7    4.4067   422.7    6.635      37.310
2015    5        9    21  13    4.4078   422.7    6.638      37.328
2015    5        9    21  19    4.4089   422.7    6.641      37.346
2015    5        9    21  25    4.4100   422.7    6.643      37.364
2015    5        9    21  31    4.4110   422.7    6.646      37.382
2015    5        9    21  37    4.4121   422.8    6.648      37.400
2015    5        9    21  43    4.4131   422.8    6.651      37.418
2015    5        9    21  49    4.4141   422.8    6.653      37.435
2015    5        9    21  55    4.4151   422.8    6.655      37.452
2015    5        9    22   1    4.4160   422.8    6.657      37.468
2015    5        9    22   7    4.4169   422.9    6.660      37.484
2015    5        9    22  13    4.4178   422.9    6.661      37.499
2015    5        9    22  19    4.4187   422.9    6.663      37.514
2015    5        9    22  25    4.4195   422.9    6.665      37.528
2015    5        9    22  31    4.4203   423.0    6.667      37.543
2015    5        9    22  37    4.4210   423.0    6.669      37.556
2015    5        9    22  43    4.4218   423.0    6.670      37.570
2015    5        9    22  49    4.4225   423.1    6.672      37.583
2015    5        9    22  55    4.4232   423.1    6.673      37.595
2015    5        9    23   1    4.4238   423.1    6.674      37.607
2015    5        9    23   7    4.4245   423.1    6.676      37.619
2015    5        9    23  13    4.4251   423.2    6.677      37.629
2015    5        9    23  19    4.4256   423.2    6.678      37.640
2015    5        9    23  25    4.4262   423.2    6.679      37.649
2015    5        9    23  31    4.4267   423.2    6.680      37.659
2015    5        9    23  37    4.4273   423.3    6.680      37.667
2015    5        9    23  43    4.4278   423.3    6.681      37.675
2015    5        9    23  48    4.4282   423.3    6.682      37.683
2015    5        9    23  54    4.4287   423.4    6.683      37.691
2015    5       10     0   0    4.4292   423.4    6.683      37.697
2015    5       10     0   6    4.4296   423.4    6.684      37.704
2015    5       10     0  12    4.4300   423.4    6.684      37.710
2015    5       10     0  18    4.4305   423.5    6.685      37.716
2015    5       10     0  24    4.4309   423.5    6.685      37.721
2015    5       10     0  30    4.4313   423.5    6.686      37.727
2015    5       10     0  36    4.4317   423.5    6.686      37.732
2015    5       10     0  42    4.4320   423.6    6.687      37.736
2015    5       10     0  48    4.4324   423.6    6.687      37.740
2015    5       10     0  54    4.4328   423.6    6.688      37.745
2015    5       10     1   0    4.4332   423.6    6.688      37.748
2015    5       10     1   6    4.4335   423.7    6.689      37.752
2015    5       10     1  12    4.4339   423.7    6.690      37.756
2015    5       10     1  18    4.4343   423.7    6.690      37.759
2015    5       10     1  24    4.4347   423.7    6.691      37.762
2015    5       10     1  30    4.4350   423.8    6.692      37.765
2015    5       10     1  36    4.4354   423.8    6.692      37.768
2015    5       10     1  42    4.4358   423.8    6.693      37.771
2015    5       10     1  48    4.4362   423.8    6.694      37.774
2015    5       10     1  54    4.4366   423.9    6.695      37.777
2015    5       10     2   0    4.4370   423.9    6.697      37.780
2015    5       10     2   6    4.4374   423.9    6.698      37.783
2015    5       10     2  12    4.4378   423.9    6.699      37.787
2015    5       10     2  18    4.4383   424.0    6.701      37.790
2015    5       10     2  24    4.4388   424.0    6.702      37.794
2015    5       10     2  30    4.4392   424.0    6.704      37.798
2015    5       10     2  35    4.4397   424.0    6.706      37.802
2015    5       10     2  41    4.4402   424.1    6.708      37.808
2015    5       10     2  47    4.4407   424.1    6.710      37.814
2015    5       10     2  53    4.4411   424.1    6.712      37.821
2015    5       10     2  59    4.4416   424.2    6.714      37.830
2015    5       10     3   5    4.4420   424.2    6.716      37.840
2015    5       10     3  11    4.4424   424.2    6.718      37.851
2015    5       10     3  17    4.4428   424.3    6.720      37.863
2015    5       10     3  23    4.4432   424.3    6.721      37.875
2015    5       10     3  29    4.4436   424.3    6.723      37.887
2015    5       10     3  35    4.4440   424.4    6.725      37.900
2015    5       10     3  41    4.4443   424.4    6.726      37.913
2015    5       10     3  47    4.4446   424.5    6.727      37.926
2015    5       10     3  53    4.4448   424.5    6.728      37.939
2015    5       10     3  59    4.4451   424.5    6.729      37.952
2015    5       10     4   5    4.4453   424.6    6.730      37.964
2015    5       10     4  11    4.4455   424.6    6.731      37.977
2015    5       10     4  17    4.4456   424.7    6.731      37.989
2015    5       10     4  23    4.4458   424.7    6.732      38.000
2015    5       10     4  29    4.4459   424.8    6.732      38.011
2015    5       10     4  35    4.4459   424.8    6.732      38.022
2015    5       10     4  41    4.4460   424.8    6.732      38.031
2015    5       10     4  47    4.4460   424.9    6.732      38.040
2015    5       10     4  53    4.4460   424.9    6.732      38.049
2015    5       10     4  59    4.4460   425.0    6.731      38.057
2015    5       10     5   5    4.4459   425.0    6.731      38.065
2015    5       10     5  11    4.4458   425.1    6.730      38.072
2015    5       10     5  16    4.4457   425.1    6.730      38.078
2015    5       10     5  22    4.4456   425.1    6.729      38.084
2015    5       10     5  28    4.4455   425.2    6.728      38.090
2015    5       10     5  34    4.4453   425.2    6.727      38.095
2015    5       10     5  40    4.4452   425.3    6.727      38.100
2015    5       10     5  46    4.4450   425.3    6.726      38.104
2015    5       10     5  52    4.4448   425.3    6.725      38.108
2015    5       10     5  58    4.4445   425.4    6.724      38.111
2015    5       10     6   4    4.4443   425.4    6.723      38.115
2015    5       10     6  10    4.4441   425.5    6.721      38.117
2015    5       10     6  16    4.4438   425.5    6.720      38.120
2015    5       10     6  22    4.4435   425.5    6.719      38.122
2015    5       10     6  28    4.4432   425.6    6.718      38.123
2015    5       10     6  34    4.4429   425.6    6.716      38.125
2015    5       10     6  40    4.4426   425.6    6.715      38.126
2015    5       10     6  46    4.4422   425.7    6.714      38.126
2015    5       10     6  52    4.4419   425.7    6.712      38.127
2015    5       10     6  58    4.4415   425.8    6.711      38.127
2015    5       10     7   4    4.4411   425.8    6.709      38.126
2015    5       10     7  10    4.4407   425.8    6.708      38.126
2015    5       10     7  16    4.4403   425.9    6.707      38.125
2015    5       10     7  22    4.4399   425.9    6.705      38.124
2015    5       10     7  28    4.4395   425.9    6.704      38.122
2015    5       10     7  34    4.4391   426.0    6.702      38.121
2015    5       10     7  40    4.4387   426.0    6.701      38.119
2015    5       10     7  46    4.4382   426.0    6.699      38.117
2015    5       10     7  52    4.4378   426.1    6.698      38.114
2015    5       10     7  57    4.4373   426.1    6.696      38.112
2015    5       10     8   3    4.4369   426.1    6.695      38.109
2015    5       10     8   9    4.4364   426.2    6.693      38.106
2015    5       10     8  15    4.4360   426.2    6.692      38.102
2015    5       10     8  21    4.4355   426.2    6.690      38.099
2015    5       10     8  27    4.4350   426.3    6.689      38.095
2015    5       10     8  33    4.4346   426.3    6.688      38.092
2015    5       10     8  39    4.4341   426.3    6.686      38.088
2015    5       10     8  45    4.4336   426.4    6.685      38.084
2015    5       10     8  51    4.4331   426.4    6.684      38.080
2015    5       10     8  57    4.4327   426.4    6.683      38.075
2015    5       10     9   3    4.4322   426.5    6.682      38.071
2015    5       10     9   9    4.4317   426.5    6.681      38.067
2015    5       10     9  15    4.4313   426.5    6.680      38.063
2015    5       10     9  21    4.4308   426.5    6.679      38.058
2015    5       10     9  27    4.4304   426.6    6.678      38.054
2015    5       10     9  33    4.4299   426.6    6.677      38.049
2015    5       10     9  39    4.4295   426.6    6.677      38.045
2015    5       10     9  45    4.4291   426.7    6.676      38.041
2015    5       10     9  51    4.4286   426.7    6.676      38.037
2015    5       10     9  57    4.4282   426.7    6.675      38.035
2015    5       10    10   3    4.4278   426.7    6.675      38.032
2015    5       10    10   9    4.4273   426.8    6.674      38.031
2015    5       10    10  15    4.4269   426.8    6.673      38.030
2015    5       10    10  21    4.4264   426.8    6.673      38.029
2015    5       10    10  27    4.4259   426.9    6.672      38.029
2015    5       10    10  33    4.4254   426.9    6.671      38.029
2015    5       10    10  38    4.4249   426.9    6.670      38.029
2015    5       10    10  44    4.4244   427.0    6.670      38.029
2015    5       10    10  50    4.4239   427.0    6.669      38.029
2015    5       10    10  56    4.4234   427.0    6.668      38.029
2015    5       10    11   2    4.4229   427.1    6.667      38.028
2015    5       10    11   8    4.4223   427.1    6.665      38.028
2015    5       10    11  14    4.4218   427.1    6.664      38.027
2015    5       10    11  20    4.4212   427.2    6.663      38.027
2015    5       10    11  26    4.4207   427.2    6.662      38.026
2015    5       10    11  32    4.4201   427.2    6.660      38.025
2015    5       10    11  38    4.4195   427.3    6.659      38.024
2015    5       10    11  44    4.4189   427.3    6.658      38.022
2015    5       10    11  50    4.4184   427.3    6.656      38.021
2015    5       10    11  56    4.4178   427.3    6.655      38.020
2015    5       10    12   2    4.4172   427.4    6.653      38.018
2015    5       10    12   8    4.4166   427.4    6.652      38.017
2015    5       10    12  14    4.4160   427.4    6.650      38.015
2015    5       10    12  20    4.4153   427.5    6.648      38.013
2015    5       10    12  26    4.4147   427.5    6.647      38.011
2015    5       10    12  32    4.4141   427.5    6.645      38.009
2015    5       10    12  38    4.4134   427.6    6.643      38.007
2015    5       10    12  44    4.4127   427.6    6.642      38.005
2015    5       10    12  50    4.4121   427.6    6.640      38.002
2015    5       10    12  56    4.4114   427.7    6.638      38.000
2015    5       10    13   2    4.4107   427.7    6.636      37.997
2015    5       10    13   8    4.4100   427.7    6.634      37.995
2015    5       10    13  14    4.4093   427.7    6.632      37.992
2015    5       10    13  19    4.4086   427.8    6.631      37.989
2015    5       10    13  25    4.4079   427.8    6.629      37.987
2015    5       10    13  31    4.4072   427.8    6.627      37.984
2015    5       10    13  37    4.4065   427.9    6.625      37.981
2015    5       10    13  43    4.4058   427.9    6.623      37.977
2015    5       10    13  49    4.4050   427.9    6.621      37.974
2015    5       10    13  55    4.4043   427.9    6.619      37.971
2015    5       10    14   1    4.4036   428.0    6.617      37.967
2015    5       10    14   7    4.4029   428.0    6.615      37.964
2015    5       10    14  13    4.4021   428.0    6.613      37.960
2015    5       10    14  19    4.4014   428.1    6.611      37.957
2015    5       10    14  25    4.4007   428.1    6.610      37.953
2015    5       10    14  31    4.3999   428.1    6.608      37.949
2015    5       10    14  37    4.3992   428.1    6.606      37.945
2015    5       10    14  43    4.3985   428.2    6.604      37.941
2015    5       10    14  49    4.3978   428.2    6.602      37.937
2015    5       10    14  55    4.3971   428.2    6.600      37.933
2015    5       10    15   1    4.3964   428.2    6.599      37.929
2015    5       10    15   7    4.3957   428.3    6.597      37.925
2015    5       10    15  13    4.3950   428.3    6.595      37.921
2015    5       10    15  19    4.3943   428.3    6.593      37.917
2015    5       10    15  25    4.3936   428.3    6.592      37.912
2015    5       10    15  31    4.3930   428.4    6.590      37.908
2015    5       10    15  37    4.3923   428.4    6.588      37.904
2015    5       10    15  43    4.3916   428.4    6.587      37.899
2015    5       10    15  49    4.3909   428.4    6.585      37.894
2015    5       10    15  55    4.3902   428.5    6.584      37.890
2015    5       10    16   0    4.3896   428.5    6.582      37.885
2015    5       10    16   6    4.3889   428.5    6.580      37.880
2015    5       10    16  12    4.3882   428.5    6.579      37.875
2015    5       10    16  18    4.3876   428.5    6.577      37.870
2015    5       10    16  24    4.3869   428.6    6.576      37.865
2015    5       10    16  30    4.3862   428.6    6.574      37.860
2015    5       10    16  36    4.3856   428.6    6.573      37.854
2015    5       10    16  42    4.3849   428.6    6.571      37.848
2015    5       10    16  48    4.3842   428.6    6.569      37.842
2015    5       10    16  54    4.3836   428.7    6.568      37.836
2015    5       10    17   0    4.3829   428.7    6.566      37.829
2015    5       10    17   6    4.3823   428.7    6.565      37.823
2015    5       10    17  12    4.3816   428.7    6.563      37.816
2015    5       10    17  18    4.3810   428.7    6.561      37.809
2015    5       10    17  24    4.3803   428.8    6.560      37.802
2015    5       10    17  30    4.3797   428.8    6.558      37.795
2015    5       10    17  36    4.3791   428.8    6.556      37.788
2015    5       10    17  42    4.3784   428.8    6.555      37.781
2015    5       10    17  48    4.3778   428.8    6.553      37.773
2015    5       10    17  54    4.3772   428.8    6.551      37.766
2015    5       10    18   0    4.3766   428.8    6.550      37.759
2015    5       10    18   6    4.3760   428.9    6.548      37.751
2015    5       10    18  12    4.3754   428.9    6.546      37.744
2015    5       10    18  18    4.3748   428.9    6.545      37.736
2015    5       10    18  24    4.3742   428.9    6.543      37.729
2015    5       10    18  30    4.3736   428.9    6.541      37.721
2015    5       10    18  36    4.3730   428.9    6.539      37.714
2015    5       10    18  41    4.3724   428.9    6.538      37.706
2015    5       10    18  47    4.3718   428.9    6.536      37.699
2015    5       10    18  53    4.3713   429.0    6.534      37.691
2015    5       10    18  59    4.3707   429.0    6.533      37.684
2015    5       10    19   5    4.3701   429.0    6.531      37.677
2015    5       10    19  11    4.3696   429.0    6.529      37.669
2015    5       10    19  17    4.3690   429.0    6.528      37.662
2015    5       10    19  23    4.3685   429.0    6.526      37.655
2015    5       10    19  29    4.3679   429.0    6.525      37.648
2015    5       10    19  35    4.3674   429.0    6.523      37.641
2015    5       10    19  41    4.3669   429.0    6.521      37.634
2015    5       10    19  47    4.3663   429.1    6.520      37.628
2015    5       10    19  53    4.3658   429.1    6.518      37.621
2015    5       10    19  59    4.3653   429.1    6.517      37.615
2015    5       10    20   5    4.3648   429.1    6.515      37.608
2015    5       10    20  11    4.3643   429.1    6.514      37.602
2015    5       10    20  17    4.3638   429.1    6.512      37.596
2015    5       10    20  23    4.3633   429.1    6.511      37.590
2015    5       10    20  29    4.3628   429.1    6.510      37.584
2015    5       10    20  35    4.3623   429.1    6.508      37.578
2015    5       10    20  41    4.3618   429.1    6.507      37.573
2015    5       10    20  47    4.3614   429.1    6.506      37.567
2015    5       10    20  53    4.3610   429.1    6.505      37.562
2015    5       10    20  59    4.3605   429.1    6.504      37.557
2015    5       10    21   5    4.3601   429.1    6.503      37.552
2015    5       10    21  11    4.3597   429.1    6.502      37.547
2015    5       10    21  17    4.3593   429.1    6.501      37.542
2015    5       10    21  22    4.3590   429.1    6.500      37.537
2015    5       10    21  28    4.3586   429.1    6.499      37.533
2015    5       10    21  34    4.3583   429.1    6.498      37.529
2015    5       10    21  40    4.3580   429.1    6.497      37.525
2015    5       10    21  46    4.3577   429.1    6.497      37.521
2015    5       10    21  52    4.3574   429.1    6.496      37.517
2015    5       10    21  58    4.3571   429.1    6.496      37.514
2015    5       10    22   4    4.3569   429.2    6.495      37.511
2015    5       10    22  10    4.3567   429.2    6.495      37.508
2015    5       10    22  16    4.3565   429.2    6.495      37.505
2015    5       10    22  22    4.3563   429.2    6.494      37.502
2015    5       10    22  28    4.3561   429.2    6.494      37.499
2015    5       10    22  34    4.3560   429.2    6.494      37.497
2015    5       10    22  40    4.3558   429.2    6.494      37.494
2015    5       10    22  46    4.3557   429.2    6.494      37.492
2015    5       10    22  52    4.3556   429.2    6.494      37.490
2015    5       10    22  58    4.3554   429.2    6.494      37.488
2015    5       10    23   4    4.3553   429.2    6.495      37.486
2015    5       10    23  10    4.3553   429.2    6.495      37.484
2015    5       10    23  16    4.3552   429.2    6.495      37.483
2015    5       10    23  22    4.3551   429.2    6.495      37.481
2015    5       10    23  28    4.3551   429.2    6.496      37.479
2015    5       10    23  34    4.3550   429.2    6.496      37.477
2015    5       10    23  40    4.3550   429.2    6.496      37.475
2015    5       10    23  46    4.3549   429.2    6.496      37.474
2015    5       10    23  52    4.3549   429.2    6.496      37.471
2015    5       10    23  58    4.3549   429.2    6.497      37.469
2015    5       11     0   4    4.3548   429.2    6.497      37.467
