year    month   day   hour  minute  B_enl V_enl   n_enl       T_enl
[year] [month] [day] [hour][minute] [nT]  [km/s]  [cm-3]      [kK]
2014   11       18     0   3    7.5104   559.4    4.409      61.456
2014   11       18     0   9    7.5088   559.5    4.406      61.481
2014   11       18     0  14    7.5073   559.6    4.403      61.505
2014   11       18     0  19    7.5057   559.7    4.399      61.529
2014   11       18     0  24    7.5042   559.8    4.396      61.553
2014   11       18     0  29    7.5025   559.9    4.393      61.577
2014   11       18     0  35    7.5009   560.0    4.389      61.600
2014   11       18     0  40    7.4993   560.1    4.386      61.624
2014   11       18     0  45    7.4977   560.2    4.383      61.648
2014   11       18     0  50    7.4960   560.3    4.380      61.672
2014   11       18     0  55    7.4943   560.4    4.377      61.696
2014   11       18     1   1    7.4926   560.5    4.374      61.720
2014   11       18     1   6    7.4908   560.6    4.371      61.744
2014   11       18     1  11    7.4890   560.7    4.368      61.768
2014   11       18     1  16    7.4872   560.8    4.365      61.792
2014   11       18     1  21    7.4853   560.9    4.362      61.816
2014   11       18     1  26    7.4835   561.0    4.359      61.840
2014   11       18     1  32    7.4815   561.2    4.356      61.865
2014   11       18     1  37    7.4796   561.3    4.353      61.889
2014   11       18     1  42    7.4777   561.4    4.350      61.913
2014   11       18     1  47    7.4756   561.5    4.348      61.937
2014   11       18     1  52    7.4736   561.6    4.345      61.961
2014   11       18     1  58    7.4715   561.7    4.342      61.985
2014   11       18     2   3    7.4695   561.8    4.340      62.009
2014   11       18     2   8    7.4673   561.9    4.337      62.033
2014   11       18     2  13    7.4652   562.0    4.334      62.057
2014   11       18     2  18    7.4631   562.1    4.332      62.081
2014   11       18     2  23    7.4609   562.2    4.329      62.105
2014   11       18     2  29    7.4586   562.3    4.327      62.128
2014   11       18     2  34    7.4565   562.4    4.324      62.152
2014   11       18     2  39    7.4542   562.5    4.322      62.175
2014   11       18     2  44    7.4520   562.6    4.319      62.198
2014   11       18     2  49    7.4497   562.7    4.317      62.221
2014   11       18     2  54    7.4474   562.8    4.314      62.244
2014   11       18     3   0    7.4451   562.9    4.312      62.267
2014   11       18     3   5    7.4428   563.0    4.309      62.290
2014   11       18     3  10    7.4405   563.1    4.307      62.312
2014   11       18     3  15    7.4381   563.2    4.304      62.334
2014   11       18     3  20    7.4358   563.3    4.302      62.356
2014   11       18     3  25    7.4335   563.4    4.299      62.378
2014   11       18     3  30    7.4311   563.5    4.296      62.400
2014   11       18     3  36    7.4287   563.6    4.294      62.421
2014   11       18     3  41    7.4263   563.7    4.291      62.443
2014   11       18     3  46    7.4239   563.8    4.289      62.465
2014   11       18     3  51    7.4215   563.9    4.286      62.487
2014   11       18     3  56    7.4191   564.0    4.283      62.509
2014   11       18     4   1    7.4168   564.1    4.280      62.531
2014   11       18     4   6    7.4143   564.2    4.278      62.553
2014   11       18     4  12    7.4119   564.3    4.275      62.576
2014   11       18     4  17    7.4095   564.4    4.272      62.599
2014   11       18     4  22    7.4071   564.5    4.269      62.622
2014   11       18     4  27    7.4048   564.6    4.266      62.645
2014   11       18     4  32    7.4024   564.7    4.263      62.669
2014   11       18     4  37    7.4000   564.7    4.260      62.692
2014   11       18     4  43    7.3976   564.8    4.257      62.716
2014   11       18     4  48    7.3952   564.9    4.254      62.740
2014   11       18     4  53    7.3928   565.0    4.251      62.765
2014   11       18     4  58    7.3905   565.1    4.248      62.789
2014   11       18     5   3    7.3881   565.2    4.245      62.814
2014   11       18     5   8    7.3858   565.3    4.242      62.838
2014   11       18     5  13    7.3834   565.4    4.239      62.863
2014   11       18     5  19    7.3811   565.5    4.236      62.888
2014   11       18     5  24    7.3787   565.6    4.232      62.912
2014   11       18     5  29    7.3765   565.6    4.229      62.937
2014   11       18     5  34    7.3741   565.7    4.226      62.961
2014   11       18     5  39    7.3718   565.8    4.223      62.986
2014   11       18     5  44    7.3694   565.9    4.220      63.010
2014   11       18     5  50    7.3672   566.0    4.216      63.035
2014   11       18     5  55    7.3648   566.1    4.213      63.059
2014   11       18     6   0    7.3626   566.2    4.210      63.083
2014   11       18     6   5    7.3602   566.2    4.207      63.107
2014   11       18     6  10    7.3579   566.3    4.203      63.131
2014   11       18     6  16    7.3556   566.4    4.200      63.155
2014   11       18     6  21    7.3533   566.5    4.197      63.178
2014   11       18     6  26    7.3510   566.6    4.194      63.202
2014   11       18     6  31    7.3488   566.7    4.190      63.226
2014   11       18     6  36    7.3464   566.8    4.187      63.249
2014   11       18     6  41    7.3441   566.8    4.184      63.273
2014   11       18     6  47    7.3418   566.9    4.181      63.296
2014   11       18     6  52    7.3396   567.0    4.178      63.319
2014   11       18     6  57    7.3373   567.1    4.175      63.343
2014   11       18     7   2    7.3350   567.2    4.172      63.366
2014   11       18     7   7    7.3328   567.3    4.169      63.389
2014   11       18     7  13    7.3305   567.3    4.166      63.412
2014   11       18     7  18    7.3282   567.4    4.163      63.436
2014   11       18     7  23    7.3259   567.5    4.160      63.459
2014   11       18     7  28    7.3236   567.6    4.157      63.483
2014   11       18     7  33    7.3214   567.7    4.154      63.506
2014   11       18     7  39    7.3190   567.8    4.151      63.530
2014   11       18     7  44    7.3167   567.8    4.148      63.554
2014   11       18     7  49    7.3145   567.9    4.146      63.577
2014   11       18     7  54    7.3121   568.0    4.143      63.601
2014   11       18     7  59    7.3097   568.1    4.140      63.625
2014   11       18     8   4    7.3073   568.2    4.138      63.650
2014   11       18     8  10    7.3049   568.3    4.135      63.674
2014   11       18     8  15    7.3024   568.3    4.133      63.698
2014   11       18     8  20    7.3000   568.4    4.131      63.722
2014   11       18     8  25    7.2975   568.5    4.128      63.747
2014   11       18     8  30    7.2950   568.6    4.126      63.771
2014   11       18     8  36    7.2924   568.7    4.124      63.796
2014   11       18     8  41    7.2898   568.8    4.121      63.820
2014   11       18     8  46    7.2872   568.8    4.119      63.845
2014   11       18     8  51    7.2846   568.9    4.117      63.870
2014   11       18     8  56    7.2819   569.0    4.115      63.894
2014   11       18     9   2    7.2792   569.1    4.113      63.919
2014   11       18     9   7    7.2765   569.2    4.111      63.943
2014   11       18     9  12    7.2737   569.3    4.109      63.968
2014   11       18     9  17    7.2710   569.4    4.107      63.992
2014   11       18     9  22    7.2682   569.4    4.105      64.016
2014   11       18     9  27    7.2654   569.5    4.103      64.040
2014   11       18     9  33    7.2626   569.6    4.101      64.064
2014   11       18     9  38    7.2597   569.7    4.099      64.087
2014   11       18     9  43    7.2568   569.8    4.097      64.110
2014   11       18     9  48    7.2540   569.9    4.095      64.132
2014   11       18     9  53    7.2510   569.9    4.093      64.154
2014   11       18     9  58    7.2481   570.0    4.091      64.176
2014   11       18    10   4    7.2452   570.1    4.089      64.197
2014   11       18    10   9    7.2423   570.2    4.087      64.217
2014   11       18    10  14    7.2394   570.3    4.084      64.237
2014   11       18    10  19    7.2364   570.3    4.082      64.257
2014   11       18    10  24    7.2334   570.4    4.080      64.275
2014   11       18    10  29    7.2305   570.5    4.078      64.294
2014   11       18    10  35    7.2276   570.5    4.075      64.312
2014   11       18    10  40    7.2246   570.6    4.073      64.329
2014   11       18    10  45    7.2216   570.7    4.070      64.347
2014   11       18    10  50    7.2187   570.8    4.068      64.363
2014   11       18    10  55    7.2157   570.8    4.065      64.380
2014   11       18    11   0    7.2128   570.9    4.063      64.395
2014   11       18    11   5    7.2099   571.0    4.060      64.411
2014   11       18    11  11    7.2070   571.0    4.058      64.426
2014   11       18    11  16    7.2040   571.1    4.055      64.441
2014   11       18    11  21    7.2011   571.2    4.053      64.456
2014   11       18    11  26    7.1982   571.2    4.050      64.470
2014   11       18    11  31    7.1952   571.3    4.047      64.484
2014   11       18    11  36    7.1923   571.4    4.044      64.498
2014   11       18    11  41    7.1894   571.4    4.042      64.512
2014   11       18    11  47    7.1865   571.5    4.039      64.525
2014   11       18    11  52    7.1836   571.6    4.036      64.538
2014   11       18    11  57    7.1807   571.6    4.033      64.552
2014   11       18    12   2    7.1778   571.7    4.031      64.565
2014   11       18    12   7    7.1749   571.8    4.028      64.578
2014   11       18    12  12    7.1719   571.8    4.025      64.590
2014   11       18    12  17    7.1690   571.9    4.022      64.603
2014   11       18    12  23    7.1662   571.9    4.019      64.615
2014   11       18    12  28    7.1632   572.0    4.016      64.628
2014   11       18    12  33    7.1603   572.1    4.013      64.640
2014   11       18    12  38    7.1574   572.1    4.010      64.653
2014   11       18    12  43    7.1545   572.2    4.007      64.665
2014   11       18    12  48    7.1516   572.2    4.005      64.677
2014   11       18    12  54    7.1487   572.3    4.002      64.690
2014   11       18    12  59    7.1458   572.3    3.999      64.702
2014   11       18    13   4    7.1429   572.4    3.996      64.715
2014   11       18    13   9    7.1400   572.5    3.993      64.727
2014   11       18    13  14    7.1371   572.5    3.990      64.740
2014   11       18    13  20    7.1342   572.6    3.987      64.752
2014   11       18    13  25    7.1314   572.6    3.984      64.765
2014   11       18    13  30    7.1285   572.7    3.981      64.778
2014   11       18    13  35    7.1256   572.7    3.979      64.792
2014   11       18    13  40    7.1228   572.8    3.976      64.805
2014   11       18    13  45    7.1199   572.8    3.973      64.819
2014   11       18    13  51    7.1170   572.9    3.970      64.833
2014   11       18    13  56    7.1142   572.9    3.968      64.847
2014   11       18    14   1    7.1113   573.0    3.965      64.862
2014   11       18    14   6    7.1085   573.1    3.962      64.877
2014   11       18    14  11    7.1057   573.1    3.960      64.892
2014   11       18    14  17    7.1029   573.2    3.957      64.908
2014   11       18    14  22    7.1001   573.2    3.955      64.924
2014   11       18    14  27    7.0973   573.3    3.952      64.940
2014   11       18    14  32    7.0945   573.3    3.950      64.957
2014   11       18    14  37    7.0917   573.4    3.948      64.974
2014   11       18    14  42    7.0889   573.4    3.945      64.991
2014   11       18    14  48    7.0861   573.5    3.943      65.009
2014   11       18    14  53    7.0833   573.5    3.941      65.027
2014   11       18    14  58    7.0806   573.6    3.939      65.046
2014   11       18    15   3    7.0778   573.6    3.937      65.065
2014   11       18    15   8    7.0750   573.7    3.935      65.084
2014   11       18    15  14    7.0723   573.7    3.933      65.104
2014   11       18    15  19    7.0695   573.8    3.931      65.124
2014   11       18    15  24    7.0667   573.8    3.929      65.144
2014   11       18    15  29    7.0639   573.9    3.927      65.165
2014   11       18    15  34    7.0611   573.9    3.926      65.186
2014   11       18    15  40    7.0583   574.0    3.924      65.207
2014   11       18    15  45    7.0554   574.1    3.922      65.228
2014   11       18    15  50    7.0526   574.1    3.921      65.249
2014   11       18    15  55    7.0497   574.2    3.919      65.271
2014   11       18    16   0    7.0469   574.2    3.917      65.292
2014   11       18    16   6    7.0440   574.3    3.916      65.313
2014   11       18    16  11    7.0411   574.3    3.914      65.335
2014   11       18    16  16    7.0382   574.4    3.913      65.356
2014   11       18    16  21    7.0353   574.4    3.911      65.377
2014   11       18    16  26    7.0324   574.5    3.910      65.399
2014   11       18    16  31    7.0295   574.5    3.908      65.420
2014   11       18    16  37    7.0265   574.6    3.907      65.440
2014   11       18    16  42    7.0236   574.6    3.905      65.461
2014   11       18    16  47    7.0206   574.7    3.904      65.481
2014   11       18    16  52    7.0177   574.7    3.902      65.501
2014   11       18    16  57    7.0147   574.7    3.901      65.520
2014   11       18    17   2    7.0118   574.8    3.899      65.538
2014   11       18    17   8    7.0088   574.8    3.898      65.557
2014   11       18    17  13    7.0059   574.9    3.896      65.575
2014   11       18    17  18    7.0029   574.9    3.894      65.592
2014   11       18    17  23    7.0000   575.0    3.893      65.609
2014   11       18    17  28    6.9971   575.0    3.891      65.625
2014   11       18    17  33    6.9942   575.0    3.889      65.640
2014   11       18    17  39    6.9913   575.1    3.888      65.655
2014   11       18    17  44    6.9884   575.1    3.886      65.670
2014   11       18    17  49    6.9855   575.1    3.884      65.684
2014   11       18    17  54    6.9826   575.2    3.883      65.697
2014   11       18    17  59    6.9798   575.2    3.881      65.710
2014   11       18    18   4    6.9770   575.2    3.879      65.722
2014   11       18    18  10    6.9741   575.3    3.877      65.734
2014   11       18    18  15    6.9713   575.3    3.875      65.745
2014   11       18    18  20    6.9685   575.3    3.874      65.756
2014   11       18    18  25    6.9657   575.4    3.872      65.766
2014   11       18    18  30    6.9628   575.4    3.870      65.775
2014   11       18    18  35    6.9600   575.4    3.868      65.784
2014   11       18    18  40    6.9572   575.5    3.866      65.793
2014   11       18    18  45    6.9544   575.5    3.864      65.801
2014   11       18    18  51    6.9515   575.5    3.862      65.808
2014   11       18    18  56    6.9487   575.6    3.861      65.816
2014   11       18    19   1    6.9459   575.6    3.859      65.822
2014   11       18    19   6    6.9430   575.6    3.857      65.828
2014   11       18    19  11    6.9401   575.6    3.855      65.834
2014   11       18    19  16    6.9374   575.7    3.853      65.840
2014   11       18    19  21    6.9345   575.7    3.851      65.845
2014   11       18    19  26    6.9316   575.7    3.849      65.850
2014   11       18    19  32    6.9288   575.7    3.847      65.854
2014   11       18    19  37    6.9260   575.8    3.845      65.859
2014   11       18    19  42    6.9230   575.8    3.844      65.863
2014   11       18    19  47    6.9203   575.8    3.842      65.867
2014   11       18    19  52    6.9174   575.8    3.840      65.871
2014   11       18    19  57    6.9145   575.9    3.838      65.875
2014   11       18    20   2    6.9116   575.9    3.836      65.879
2014   11       18    20   7    6.9088   575.9    3.834      65.883
2014   11       18    20  13    6.9059   575.9    3.832      65.887
2014   11       18    20  18    6.9030   575.9    3.831      65.891
2014   11       18    20  23    6.9002   576.0    3.829      65.896
2014   11       18    20  28    6.8974   576.0    3.827      65.901
2014   11       18    20  33    6.8944   576.0    3.825      65.905
2014   11       18    20  38    6.8917   576.0    3.823      65.911
2014   11       18    20  43    6.8888   576.0    3.822      65.916
2014   11       18    20  49    6.8859   576.1    3.820      65.922
2014   11       18    20  54    6.8831   576.1    3.818      65.928
2014   11       18    20  59    6.8803   576.1    3.816      65.935
2014   11       18    21   4    6.8775   576.1    3.815      65.942
2014   11       18    21   9    6.8747   576.1    3.813      65.949
2014   11       18    21  14    6.8719   576.2    3.811      65.957
2014   11       18    21  20    6.8692   576.2    3.810      65.965
2014   11       18    21  25    6.8664   576.2    3.808      65.974
2014   11       18    21  30    6.8636   576.2    3.806      65.983
2014   11       18    21  35    6.8608   576.3    3.805      65.993
2014   11       18    21  40    6.8581   576.3    3.803      66.003
2014   11       18    21  45    6.8554   576.3    3.801      66.013
2014   11       18    21  51    6.8526   576.3    3.800      66.024
2014   11       18    21  56    6.8499   576.3    3.798      66.035
2014   11       18    22   1    6.8472   576.4    3.797      66.046
2014   11       18    22   6    6.8445   576.4    3.795      66.058
2014   11       18    22  11    6.8418   576.4    3.794      66.070
2014   11       18    22  17    6.8391   576.4    3.792      66.082
2014   11       18    22  22    6.8364   576.4    3.790      66.094
2014   11       18    22  27    6.8337   576.5    3.789      66.106
2014   11       18    22  32    6.8310   576.5    3.787      66.118
2014   11       18    22  37    6.8283   576.5    3.786      66.130
2014   11       18    22  42    6.8256   576.5    3.784      66.142
2014   11       18    22  48    6.8229   576.5    3.782      66.154
2014   11       18    22  53    6.8202   576.5    3.781      66.166
2014   11       18    22  58    6.8175   576.6    3.779      66.178
2014   11       18    23   3    6.8148   576.6    3.778      66.189
2014   11       18    23   8    6.8121   576.6    3.776      66.201
2014   11       18    23  13    6.8095   576.6    3.774      66.213
2014   11       18    23  19    6.8069   576.6    3.773      66.224
2014   11       18    23  24    6.8042   576.6    3.771      66.235
2014   11       18    23  29    6.8015   576.7    3.769      66.246
2014   11       18    23  34    6.7989   576.7    3.768      66.256
2014   11       18    23  39    6.7962   576.7    3.766      66.266
2014   11       18    23  44    6.7935   576.7    3.764      66.275
2014   11       18    23  50    6.7909   576.7    3.763      66.285
2014   11       18    23  55    6.7883   576.7    3.761      66.294
2014   11       19     0   0    6.7855   576.7    3.759      66.302
2014   11       19     0   5    6.7830   576.8    3.758      66.311
2014   11       19     0  10    6.7803   576.8    3.756      66.319
2014   11       19     0  15    6.7776   576.8    3.754      66.327
2014   11       19     0  21    6.7750   576.8    3.753      66.334
2014   11       19     0  26    6.7724   576.8    3.751      66.341
2014   11       19     0  31    6.7698   576.8    3.749      66.348
2014   11       19     0  36    6.7672   576.8    3.747      66.355
2014   11       19     0  41    6.7646   576.8    3.746      66.361
2014   11       19     0  46    6.7620   576.8    3.744      66.368
2014   11       19     0  52    6.7594   576.8    3.743      66.374
2014   11       19     0  57    6.7568   576.8    3.741      66.380
2014   11       19     1   2    6.7542   576.9    3.739      66.385
2014   11       19     1   7    6.7517   576.9    3.738      66.391
2014   11       19     1  12    6.7491   576.9    3.736      66.397
2014   11       19     1  17    6.7465   576.9    3.735      66.403
2014   11       19     1  23    6.7439   576.9    3.733      66.408
2014   11       19     1  28    6.7413   576.9    3.732      66.414
2014   11       19     1  33    6.7387   576.9    3.730      66.419
2014   11       19     1  38    6.7361   576.9    3.729      66.425
2014   11       19     1  43    6.7335   576.9    3.728      66.430
2014   11       19     1  48    6.7309   576.9    3.726      66.436
2014   11       19     1  53    6.7283   576.9    3.725      66.441
2014   11       19     1  59    6.7257   576.9    3.724      66.447
2014   11       19     2   4    6.7230   576.9    3.723      66.453
2014   11       19     2   9    6.7204   576.9    3.721      66.458
2014   11       19     2  14    6.7177   576.9    3.720      66.464
2014   11       19     2  19    6.7151   576.9    3.719      66.469
2014   11       19     2  24    6.7124   576.9    3.718      66.475
2014   11       19     2  29    6.7097   576.9    3.717      66.480
2014   11       19     2  34    6.7070   576.9    3.716      66.486
2014   11       19     2  40    6.7043   576.9    3.715      66.491
2014   11       19     2  45    6.7017   576.9    3.714      66.497
2014   11       19     2  50    6.6989   576.9    3.713      66.502
2014   11       19     2  55    6.6963   576.9    3.712      66.507
2014   11       19     3   0    6.6935   576.9    3.711      66.513
2014   11       19     3   5    6.6908   576.9    3.710      66.518
2014   11       19     3  10    6.6881   576.9    3.709      66.524
2014   11       19     3  15    6.6854   576.9    3.708      66.529
2014   11       19     3  20    6.6826   576.9    3.707      66.535
2014   11       19     3  26    6.6799   576.9    3.706      66.540
2014   11       19     3  31    6.6772   576.9    3.705      66.545
2014   11       19     3  36    6.6745   576.9    3.704      66.550
2014   11       19     3  41    6.6718   576.9    3.703      66.556
2014   11       19     3  46    6.6691   576.9    3.702      66.561
2014   11       19     3  51    6.6664   576.9    3.701      66.566
2014   11       19     3  57    6.6637   576.9    3.700      66.571
2014   11       19     4   2    6.6610   576.9    3.699      66.576
2014   11       19     4   7    6.6584   576.9    3.698      66.581
2014   11       19     4  12    6.6557   576.9    3.697      66.587
2014   11       19     4  17    6.6530   576.9    3.696      66.592
2014   11       19     4  22    6.6504   576.8    3.695      66.597
2014   11       19     4  27    6.6477   576.8    3.694      66.602
2014   11       19     4  33    6.6451   576.8    3.693      66.607
2014   11       19     4  38    6.6424   576.8    3.692      66.612
2014   11       19     4  43    6.6397   576.8    3.691      66.617
2014   11       19     4  48    6.6371   576.8    3.689      66.622
2014   11       19     4  53    6.6345   576.8    3.688      66.626
2014   11       19     4  59    6.6319   576.8    3.687      66.630
2014   11       19     5   4    6.6292   576.8    3.686      66.635
2014   11       19     5   9    6.6266   576.8    3.685      66.638
2014   11       19     5  14    6.6240   576.8    3.683      66.642
2014   11       19     5  19    6.6214   576.8    3.682      66.645
2014   11       19     5  24    6.6188   576.8    3.681      66.648
2014   11       19     5  30    6.6162   576.7    3.679      66.651
2014   11       19     5  35    6.6135   576.7    3.678      66.653
2014   11       19     5  40    6.6109   576.7    3.677      66.655
2014   11       19     5  45    6.6083   576.7    3.675      66.657
2014   11       19     5  50    6.6057   576.7    3.674      66.659
2014   11       19     5  55    6.6031   576.7    3.673      66.660
2014   11       19     6   1    6.6005   576.7    3.671      66.661
2014   11       19     6   6    6.5979   576.7    3.670      66.662
2014   11       19     6  11    6.5953   576.7    3.668      66.662
2014   11       19     6  16    6.5927   576.6    3.667      66.663
2014   11       19     6  21    6.5901   576.6    3.666      66.663
2014   11       19     6  27    6.5875   576.6    3.664      66.663
2014   11       19     6  32    6.5849   576.6    3.663      66.663
2014   11       19     6  37    6.5823   576.6    3.662      66.662
2014   11       19     6  42    6.5797   576.6    3.660      66.662
2014   11       19     6  47    6.5771   576.5    3.659      66.661
2014   11       19     6  52    6.5745   576.5    3.658      66.661
2014   11       19     6  58    6.5719   576.5    3.656      66.660
2014   11       19     7   3    6.5694   576.5    3.655      66.660
2014   11       19     7   8    6.5668   576.5    3.654      66.659
2014   11       19     7  13    6.5643   576.4    3.653      66.659
2014   11       19     7  18    6.5617   576.4    3.651      66.658
2014   11       19     7  23    6.5591   576.4    3.650      66.657
2014   11       19     7  29    6.5566   576.4    3.649      66.657
2014   11       19     7  34    6.5541   576.4    3.648      66.657
2014   11       19     7  39    6.5515   576.3    3.647      66.657
2014   11       19     7  44    6.5490   576.3    3.646      66.657
2014   11       19     7  49    6.5465   576.3    3.645      66.657
2014   11       19     7  54    6.5439   576.3    3.644      66.657
2014   11       19     8   0    6.5414   576.3    3.643      66.658
2014   11       19     8   5    6.5388   576.2    3.642      66.658
2014   11       19     8  10    6.5363   576.2    3.641      66.659
2014   11       19     8  15    6.5338   576.2    3.640      66.660
2014   11       19     8  20    6.5313   576.2    3.639      66.661
2014   11       19     8  26    6.5288   576.1    3.639      66.662
2014   11       19     8  31    6.5263   576.1    3.638      66.664
2014   11       19     8  36    6.5237   576.1    3.637      66.665
2014   11       19     8  41    6.5213   576.1    3.637      66.667
2014   11       19     8  46    6.5187   576.0    3.636      66.669
2014   11       19     8  51    6.5162   576.0    3.635      66.671
2014   11       19     8  57    6.5137   576.0    3.635      66.673
2014   11       19     9   2    6.5112   576.0    3.634      66.675
2014   11       19     9   7    6.5087   575.9    3.633      66.678
2014   11       19     9  12    6.5062   575.9    3.633      66.681
2014   11       19     9  17    6.5037   575.9    3.632      66.684
2014   11       19     9  22    6.5013   575.8    3.632      66.687
2014   11       19     9  28    6.4988   575.8    3.631      66.690
2014   11       19     9  33    6.4963   575.8    3.631      66.693
2014   11       19     9  38    6.4938   575.8    3.630      66.697
2014   11       19     9  43    6.4914   575.7    3.630      66.701
2014   11       19     9  48    6.4889   575.7    3.630      66.704
2014   11       19     9  53    6.4865   575.7    3.629      66.708
2014   11       19     9  59    6.4840   575.7    3.629      66.712
2014   11       19    10   4    6.4816   575.6    3.628      66.716
2014   11       19    10   9    6.4791   575.6    3.628      66.721
2014   11       19    10  14    6.4767   575.6    3.628      66.725
2014   11       19    10  19    6.4743   575.5    3.627      66.730
2014   11       19    10  24    6.4719   575.5    3.627      66.735
2014   11       19    10  29    6.4695   575.5    3.626      66.740
2014   11       19    10  35    6.4671   575.5    3.626      66.745
2014   11       19    10  40    6.4646   575.4    3.626      66.751
2014   11       19    10  45    6.4622   575.4    3.625      66.756
2014   11       19    10  50    6.4598   575.4    3.625      66.761
2014   11       19    10  55    6.4574   575.4    3.624      66.767
2014   11       19    11   0    6.4550   575.3    3.624      66.772
2014   11       19    11   5    6.4526   575.3    3.623      66.777
2014   11       19    11  11    6.4502   575.3    3.623      66.782
2014   11       19    11  16    6.4478   575.2    3.622      66.787
2014   11       19    11  21    6.4454   575.2    3.621      66.791
2014   11       19    11  26    6.4430   575.2    3.621      66.795
2014   11       19    11  31    6.4405   575.2    3.620      66.799
2014   11       19    11  36    6.4381   575.1    3.619      66.802
2014   11       19    11  42    6.4357   575.1    3.618      66.805
2014   11       19    11  47    6.4333   575.1    3.618      66.807
2014   11       19    11  52    6.4309   575.0    3.617      66.809
2014   11       19    11  57    6.4285   575.0    3.616      66.810
2014   11       19    12   2    6.4261   575.0    3.615      66.811
2014   11       19    12   7    6.4236   574.9    3.614      66.811
2014   11       19    12  13    6.4212   574.9    3.613      66.811
2014   11       19    12  18    6.4188   574.9    3.613      66.811
2014   11       19    12  23    6.4163   574.8    3.612      66.809
2014   11       19    12  28    6.4139   574.8    3.611      66.808
2014   11       19    12  33    6.4114   574.8    3.610      66.805
2014   11       19    12  39    6.4090   574.7    3.609      66.803
2014   11       19    12  44    6.4065   574.7    3.608      66.799
2014   11       19    12  49    6.4041   574.7    3.607      66.796
2014   11       19    12  54    6.4016   574.6    3.606      66.792
2014   11       19    12  59    6.3992   574.6    3.605      66.788
2014   11       19    13   4    6.3967   574.5    3.604      66.784
2014   11       19    13  10    6.3942   574.5    3.603      66.779
2014   11       19    13  15    6.3918   574.5    3.602      66.774
2014   11       19    13  20    6.3893   574.4    3.601      66.769
2014   11       19    13  25    6.3868   574.4    3.600      66.764
2014   11       19    13  30    6.3844   574.3    3.599      66.758
2014   11       19    13  35    6.3819   574.3    3.598      66.753
2014   11       19    13  41    6.3794   574.3    3.597      66.747
2014   11       19    13  46    6.3769   574.2    3.596      66.741
2014   11       19    13  51    6.3745   574.2    3.595      66.736
2014   11       19    13  56    6.3720   574.1    3.594      66.730
2014   11       19    14   1    6.3695   574.1    3.594      66.724
2014   11       19    14   7    6.3670   574.1    3.593      66.719
2014   11       19    14  12    6.3645   574.0    3.592      66.713
2014   11       19    14  17    6.3621   574.0    3.591      66.708
2014   11       19    14  22    6.3596   573.9    3.590      66.703
2014   11       19    14  27    6.3571   573.9    3.590      66.698
2014   11       19    14  32    6.3546   573.9    3.589      66.694
2014   11       19    14  38    6.3521   573.8    3.588      66.689
2014   11       19    14  43    6.3496   573.8    3.587      66.685
2014   11       19    14  48    6.3471   573.7    3.587      66.681
2014   11       19    14  53    6.3446   573.7    3.586      66.677
2014   11       19    14  58    6.3422   573.7    3.585      66.673
2014   11       19    15   3    6.3397   573.6    3.585      66.669
2014   11       19    15   9    6.3372   573.6    3.584      66.665
2014   11       19    15  14    6.3347   573.5    3.583      66.662
2014   11       19    15  19    6.3322   573.5    3.583      66.658
2014   11       19    15  24    6.3297   573.5    3.582      66.654
2014   11       19    15  29    6.3272   573.4    3.581      66.651
2014   11       19    15  34    6.3247   573.4    3.581      66.647
2014   11       19    15  40    6.3222   573.3    3.580      66.644
2014   11       19    15  45    6.3198   573.3    3.579      66.640
2014   11       19    15  50    6.3173   573.3    3.579      66.636
2014   11       19    15  55    6.3148   573.2    3.578      66.632
2014   11       19    16   0    6.3123   573.2    3.577      66.629
2014   11       19    16   5    6.3098   573.1    3.577      66.625
2014   11       19    16  11    6.3073   573.1    3.576      66.621
2014   11       19    16  16    6.3049   573.1    3.575      66.617
2014   11       19    16  21    6.3024   573.0    3.575      66.613
2014   11       19    16  26    6.2999   573.0    3.574      66.609
2014   11       19    16  31    6.2974   572.9    3.573      66.604
2014   11       19    16  36    6.2949   572.9    3.572      66.600
2014   11       19    16  42    6.2924   572.9    3.572      66.595
2014   11       19    16  47    6.2899   572.8    3.571      66.590
2014   11       19    16  52    6.2874   572.8    3.570      66.585
2014   11       19    16  57    6.2848   572.7    3.569      66.580
2014   11       19    17   2    6.2823   572.7    3.568      66.574
2014   11       19    17   7    6.2798   572.6    3.568      66.569
2014   11       19    17  13    6.2772   572.6    3.567      66.563
2014   11       19    17  18    6.2747   572.6    3.566      66.557
2014   11       19    17  23    6.2722   572.5    3.565      66.550
2014   11       19    17  28    6.2696   572.5    3.564      66.544
2014   11       19    17  33    6.2671   572.4    3.563      66.538
2014   11       19    17  38    6.2645   572.4    3.562      66.531
2014   11       19    17  44    6.2620   572.3    3.561      66.525
2014   11       19    17  49    6.2594   572.3    3.561      66.518
2014   11       19    17  54    6.2569   572.2    3.560      66.512
2014   11       19    17  59    6.2543   572.2    3.559      66.505
2014   11       19    18   4    6.2518   572.1    3.558      66.498
2014   11       19    18   9    6.2493   572.0    3.557      66.492
2014   11       19    18  14    6.2467   572.0    3.556      66.485
2014   11       19    18  20    6.2442   571.9    3.556      66.479
2014   11       19    18  25    6.2416   571.9    3.555      66.472
2014   11       19    18  30    6.2391   571.8    3.554      66.466
2014   11       19    18  35    6.2366   571.8    3.553      66.460
2014   11       19    18  40    6.2341   571.7    3.553      66.454
2014   11       19    18  45    6.2315   571.6    3.552      66.448
2014   11       19    18  51    6.2290   571.6    3.552      66.442
2014   11       19    18  56    6.2265   571.5    3.551      66.437
2014   11       19    19   1    6.2240   571.5    3.550      66.431
2014   11       19    19   6    6.2215   571.4    3.550      66.426
2014   11       19    19  11    6.2190   571.3    3.549      66.421
2014   11       19    19  16    6.2165   571.3    3.549      66.416
2014   11       19    19  22    6.2141   571.2    3.549      66.411
2014   11       19    19  27    6.2116   571.1    3.548      66.407
2014   11       19    19  32    6.2092   571.1    3.548      66.403
2014   11       19    19  37    6.2068   571.0    3.548      66.399
2014   11       19    19  42    6.2044   571.0    3.547      66.395
2014   11       19    19  47    6.2020   570.9    3.547      66.391
2014   11       19    19  53    6.1996   570.8    3.547      66.388
2014   11       19    19  58    6.1973   570.8    3.547      66.384
2014   11       19    20   3    6.1949   570.7    3.547      66.380
2014   11       19    20   8    6.1926   570.6    3.546      66.376
2014   11       19    20  13    6.1903   570.6    3.546      66.372
2014   11       19    20  18    6.1880   570.5    3.546      66.367
2014   11       19    20  24    6.1857   570.4    3.546      66.363
2014   11       19    20  29    6.1835   570.4    3.546      66.359
2014   11       19    20  34    6.1812   570.3    3.546      66.354
2014   11       19    20  39    6.1790   570.3    3.546      66.349
2014   11       19    20  44    6.1767   570.2    3.545      66.344
2014   11       19    20  50    6.1745   570.1    3.545      66.338
2014   11       19    20  55    6.1723   570.1    3.545      66.332
2014   11       19    21   0    6.1700   570.0    3.545      66.326
2014   11       19    21   5    6.1679   569.9    3.544      66.320
2014   11       19    21  10    6.1657   569.9    3.544      66.313
2014   11       19    21  15    6.1634   569.8    3.544      66.306
2014   11       19    21  21    6.1612   569.8    3.543      66.299
2014   11       19    21  26    6.1590   569.7    3.543      66.291
2014   11       19    21  31    6.1567   569.6    3.542      66.283
2014   11       19    21  36    6.1544   569.6    3.542      66.275
2014   11       19    21  41    6.1522   569.5    3.541      66.266
2014   11       19    21  46    6.1499   569.4    3.541      66.256
2014   11       19    21  52    6.1476   569.4    3.540      66.246
2014   11       19    21  57    6.1454   569.3    3.540      66.236
2014   11       19    22   2    6.1430   569.3    3.539      66.225
2014   11       19    22   7    6.1407   569.2    3.538      66.213
2014   11       19    22  12    6.1384   569.1    3.537      66.202
2014   11       19    22  17    6.1360   569.1    3.537      66.189
2014   11       19    22  23    6.1337   569.0    3.536      66.177
2014   11       19    22  28    6.1313   568.9    3.535      66.163
2014   11       19    22  33    6.1289   568.9    3.534      66.150
2014   11       19    22  38    6.1265   568.8    3.533      66.136
2014   11       19    22  43    6.1240   568.7    3.532      66.121
2014   11       19    22  48    6.1216   568.7    3.531      66.107
2014   11       19    22  54    6.1191   568.6    3.531      66.092
2014   11       19    22  59    6.1166   568.5    3.530      66.076
2014   11       19    23   4    6.1141   568.5    3.529      66.061
2014   11       19    23   9    6.1116   568.4    3.528      66.045
2014   11       19    23  14    6.1091   568.3    3.527      66.029
2014   11       19    23  20    6.1066   568.2    3.526      66.013
2014   11       19    23  25    6.1040   568.2    3.525      65.997
2014   11       19    23  30    6.1014   568.1    3.524      65.981
2014   11       19    23  35    6.0988   568.0    3.523      65.964
2014   11       19    23  40    6.0962   567.9    3.522      65.948
2014   11       19    23  45    6.0936   567.9    3.521      65.931
2014   11       19    23  51    6.0910   567.8    3.520      65.915
2014   11       19    23  56    6.0884   567.7    3.519      65.899
2014   11       20     0   1    6.0857   567.6    3.518      65.883
2014   11       20     0   6    6.0831   567.6    3.517      65.868
2014   11       20     0  11    6.0804   567.5    3.516      65.853
2014   11       20     0  16    6.0778   567.4    3.515      65.837
2014   11       20     0  21    6.0751   567.3    3.515      65.823
2014   11       20     0  27    6.0725   567.2    3.514      65.808
2014   11       20     0  32    6.0698   567.2    3.513      65.795
2014   11       20     0  37    6.0671   567.1    3.512      65.781
2014   11       20     0  42    6.0645   567.0    3.512      65.769
2014   11       20     0  47    6.0618   566.9    3.511      65.756
2014   11       20     0  52    6.0592   566.8    3.511      65.744
2014   11       20     0  58    6.0565   566.7    3.510      65.732
2014   11       20     1   3    6.0538   566.7    3.509      65.722
2014   11       20     1   8    6.0512   566.6    3.509      65.711
2014   11       20     1  13    6.0485   566.5    3.509      65.701
2014   11       20     1  18    6.0458   566.4    3.508      65.691
2014   11       20     1  23    6.0432   566.3    3.508      65.681
2014   11       20     1  28    6.0405   566.2    3.507      65.672
2014   11       20     1  34    6.0379   566.2    3.507      65.663
2014   11       20     1  39    6.0352   566.1    3.507      65.655
2014   11       20     1  44    6.0326   566.0    3.507      65.647
2014   11       20     1  49    6.0300   565.9    3.506      65.639
2014   11       20     1  54    6.0273   565.8    3.506      65.631
2014   11       20     1  59    6.0247   565.7    3.506      65.624
2014   11       20     2   5    6.0221   565.6    3.506      65.616
2014   11       20     2  10    6.0195   565.6    3.506      65.609
2014   11       20     2  15    6.0169   565.5    3.505      65.602
2014   11       20     2  20    6.0143   565.4    3.505      65.594
2014   11       20     2  25    6.0117   565.3    3.505      65.587
2014   11       20     2  30    6.0092   565.2    3.505      65.579
2014   11       20     2  36    6.0066   565.1    3.505      65.571
2014   11       20     2  41    6.0041   565.0    3.505      65.564
2014   11       20     2  46    6.0016   564.9    3.505      65.556
2014   11       20     2  51    5.9992   564.9    3.505      65.548
2014   11       20     2  56    5.9967   564.8    3.504      65.541
2014   11       20     3   1    5.9943   564.7    3.504      65.533
2014   11       20     3   7    5.9920   564.6    3.504      65.525
2014   11       20     3  12    5.9897   564.5    3.504      65.517
2014   11       20     3  17    5.9874   564.4    3.504      65.509
2014   11       20     3  22    5.9851   564.3    3.504      65.501
2014   11       20     3  27    5.9828   564.2    3.505      65.493
2014   11       20     3  32    5.9806   564.1    3.505      65.484
2014   11       20     3  38    5.9785   564.1    3.505      65.476
2014   11       20     3  43    5.9763   564.0    3.505      65.468
2014   11       20     3  48    5.9742   563.9    3.505      65.460
2014   11       20     3  53    5.9720   563.8    3.505      65.452
2014   11       20     3  58    5.9699   563.7    3.505      65.443
2014   11       20     4   4    5.9678   563.6    3.505      65.435
2014   11       20     4   9    5.9656   563.5    3.506      65.426
2014   11       20     4  14    5.9635   563.4    3.506      65.417
2014   11       20     4  19    5.9613   563.4    3.506      65.407
2014   11       20     4  24    5.9592   563.3    3.506      65.397
2014   11       20     4  29    5.9570   563.2    3.506      65.387
2014   11       20     4  35    5.9547   563.1    3.506      65.376
2014   11       20     4  40    5.9525   563.0    3.506      65.364
2014   11       20     4  45    5.9502   562.9    3.506      65.352
2014   11       20     4  50    5.9480   562.8    3.506      65.339
2014   11       20     4  55    5.9457   562.7    3.506      65.326
2014   11       20     5   0    5.9433   562.6    3.505      65.312
2014   11       20     5   6    5.9410   562.5    3.505      65.298
2014   11       20     5  11    5.9386   562.5    3.505      65.283
2014   11       20     5  16    5.9362   562.4    3.505      65.267
2014   11       20     5  21    5.9338   562.3    3.504      65.251
2014   11       20     5  26    5.9314   562.2    3.504      65.235
2014   11       20     5  31    5.9290   562.1    3.504      65.218
2014   11       20     5  37    5.9265   562.0    3.503      65.201
2014   11       20     5  42    5.9241   561.9    3.503      65.183
2014   11       20     5  47    5.9216   561.8    3.503      65.165
2014   11       20     5  52    5.9191   561.7    3.502      65.147
2014   11       20     5  57    5.9166   561.6    3.502      65.129
2014   11       20     6   2    5.9141   561.5    3.501      65.110
2014   11       20     6   8    5.9116   561.4    3.501      65.091
2014   11       20     6  13    5.9090   561.3    3.500      65.072
2014   11       20     6  18    5.9065   561.2    3.500      65.053
2014   11       20     6  23    5.9039   561.1    3.499      65.034
2014   11       20     6  28    5.9013   561.0    3.499      65.015
2014   11       20     6  34    5.8987   560.9    3.498      64.996
2014   11       20     6  39    5.8962   560.8    3.498      64.977
2014   11       20     6  44    5.8936   560.7    3.497      64.958
2014   11       20     6  49    5.8910   560.6    3.497      64.939
2014   11       20     6  54    5.8883   560.5    3.496      64.920
2014   11       20     6  59    5.8857   560.4    3.496      64.901
2014   11       20     7   5    5.8831   560.3    3.495      64.883
2014   11       20     7  10    5.8804   560.2    3.495      64.864
2014   11       20     7  15    5.8778   560.1    3.494      64.846
2014   11       20     7  20    5.8751   560.0    3.493      64.828
2014   11       20     7  25    5.8725   559.9    3.493      64.810
2014   11       20     7  30    5.8698   559.8    3.492      64.792
2014   11       20     7  35    5.8671   559.7    3.492      64.774
2014   11       20     7  41    5.8644   559.6    3.491      64.756
2014   11       20     7  46    5.8617   559.5    3.491      64.739
2014   11       20     7  51    5.8590   559.5    3.490      64.721
2014   11       20     7  56    5.8563   559.4    3.489      64.703
2014   11       20     8   1    5.8535   559.3    3.489      64.685
2014   11       20     8   6    5.8508   559.2    3.488      64.667
2014   11       20     8  12    5.8480   559.1    3.488      64.648
2014   11       20     8  17    5.8453   559.0    3.487      64.630
2014   11       20     8  22    5.8425   558.9    3.486      64.611
2014   11       20     8  27    5.8397   558.8    3.486      64.593
2014   11       20     8  32    5.8369   558.6    3.485      64.573
2014   11       20     8  37    5.8341   558.5    3.484      64.554
2014   11       20     8  42    5.8312   558.4    3.484      64.534
2014   11       20     8  48    5.8285   558.3    3.483      64.515
2014   11       20     8  53    5.8256   558.2    3.482      64.495
2014   11       20     8  58    5.8228   558.1    3.482      64.475
2014   11       20     9   3    5.8200   558.0    3.481      64.454
2014   11       20     9   8    5.8172   557.9    3.480      64.433
2014   11       20     9  13    5.8144   557.8    3.480      64.412
2014   11       20     9  18    5.8116   557.7    3.479      64.392
2014   11       20     9  24    5.8087   557.6    3.479      64.371
2014   11       20     9  29    5.8060   557.5    3.478      64.350
2014   11       20     9  34    5.8032   557.4    3.477      64.328
2014   11       20     9  39    5.8004   557.2    3.477      64.307
2014   11       20     9  44    5.7976   557.1    3.476      64.287
2014   11       20     9  49    5.7949   557.0    3.476      64.266
2014   11       20     9  55    5.7922   556.9    3.475      64.246
2014   11       20    10   0    5.7896   556.8    3.475      64.225
2014   11       20    10   5    5.7869   556.6    3.475      64.206
2014   11       20    10  10    5.7843   556.5    3.474      64.186
2014   11       20    10  15    5.7817   556.4    3.474      64.167
2014   11       20    10  21    5.7791   556.3    3.474      64.149
2014   11       20    10  26    5.7766   556.1    3.474      64.130
2014   11       20    10  31    5.7740   556.0    3.474      64.113
2014   11       20    10  36    5.7716   555.9    3.474      64.096
2014   11       20    10  41    5.7691   555.8    3.474      64.079
2014   11       20    10  46    5.7667   555.7    3.474      64.063
2014   11       20    10  52    5.7642   555.5    3.474      64.047
2014   11       20    10  57    5.7618   555.4    3.474      64.032
2014   11       20    11   2    5.7594   555.3    3.474      64.017
2014   11       20    11   7    5.7570   555.1    3.474      64.002
2014   11       20    11  12    5.7547   555.0    3.474      63.987
2014   11       20    11  17    5.7523   554.9    3.474      63.973
2014   11       20    11  23    5.7499   554.8    3.474      63.959
2014   11       20    11  28    5.7476   554.6    3.475      63.944
2014   11       20    11  33    5.7452   554.5    3.475      63.930
2014   11       20    11  38    5.7428   554.4    3.475      63.915
2014   11       20    11  43    5.7404   554.2    3.475      63.901
2014   11       20    11  48    5.7380   554.1    3.475      63.886
2014   11       20    11  54    5.7356   554.0    3.475      63.871
2014   11       20    11  59    5.7331   553.8    3.475      63.856
2014   11       20    12   4    5.7307   553.7    3.475      63.840
2014   11       20    12   9    5.7283   553.6    3.475      63.824
2014   11       20    12  14    5.7258   553.5    3.475      63.808
2014   11       20    12  20    5.7233   553.3    3.475      63.791
2014   11       20    12  25    5.7209   553.2    3.475      63.774
2014   11       20    12  30    5.7184   553.0    3.475      63.756
2014   11       20    12  35    5.7159   552.9    3.475      63.738
2014   11       20    12  40    5.7134   552.8    3.475      63.720
2014   11       20    12  45    5.7109   552.6    3.474      63.701
2014   11       20    12  51    5.7084   552.5    3.474      63.682
2014   11       20    12  56    5.7059   552.4    3.474      63.663
2014   11       20    13   1    5.7034   552.2    3.474      63.643
2014   11       20    13   6    5.7009   552.1    3.474      63.623
2014   11       20    13  11    5.6983   552.0    3.474      63.603
2014   11       20    13  16    5.6958   551.8    3.474      63.583
2014   11       20    13  22    5.6933   551.7    3.473      63.562
2014   11       20    13  27    5.6907   551.5    3.473      63.541
2014   11       20    13  32    5.6882   551.4    3.473      63.521
2014   11       20    13  37    5.6857   551.3    3.473      63.500
2014   11       20    13  42    5.6831   551.1    3.473      63.479
2014   11       20    13  47    5.6806   551.0    3.473      63.459
2014   11       20    13  53    5.6781   550.9    3.473      63.438
2014   11       20    13  58    5.6756   550.7    3.473      63.419
2014   11       20    14   3    5.6731   550.6    3.473      63.399
2014   11       20    14   8    5.6706   550.4    3.473      63.380
2014   11       20    14  13    5.6682   550.3    3.473      63.361
2014   11       20    14  18    5.6657   550.2    3.474      63.343
2014   11       20    14  24    5.6633   550.0    3.474      63.325
2014   11       20    14  29    5.6609   549.9    3.474      63.308
2014   11       20    14  34    5.6585   549.8    3.475      63.292
2014   11       20    14  39    5.6562   549.6    3.475      63.277
2014   11       20    14  44    5.6538   549.5    3.476      63.263
2014   11       20    14  49    5.6515   549.4    3.476      63.249
2014   11       20    14  55    5.6491   549.2    3.477      63.236
2014   11       20    15   0    5.6468   549.1    3.478      63.224
2014   11       20    15   5    5.6444   549.0    3.478      63.211
2014   11       20    15  10    5.6421   548.9    3.479      63.200
2014   11       20    15  15    5.6397   548.7    3.480      63.187
2014   11       20    15  20    5.6374   548.6    3.480      63.176
2014   11       20    15  25    5.6350   548.5    3.481      63.163
2014   11       20    15  31    5.6326   548.4    3.482      63.151
2014   11       20    15  36    5.6301   548.3    3.482      63.139
2014   11       20    15  41    5.6277   548.1    3.483      63.126
2014   11       20    15  46    5.6252   548.0    3.483      63.112
2014   11       20    15  51    5.6227   547.9    3.484      63.098
2014   11       20    15  56    5.6202   547.8    3.484      63.083
2014   11       20    16   1    5.6177   547.6    3.485      63.068
2014   11       20    16   7    5.6152   547.5    3.485      63.052
2014   11       20    16  12    5.6126   547.4    3.486      63.036
2014   11       20    16  17    5.6101   547.2    3.486      63.019
2014   11       20    16  22    5.6075   547.1    3.486      63.001
2014   11       20    16  27    5.6049   547.0    3.487      62.983
2014   11       20    16  32    5.6023   546.8    3.487      62.965
2014   11       20    16  38    5.5997   546.7    3.487      62.945
2014   11       20    16  43    5.5971   546.6    3.488      62.926
2014   11       20    16  48    5.5945   546.4    3.488      62.906
2014   11       20    16  53    5.5918   546.3    3.488      62.885
2014   11       20    16  58    5.5892   546.1    3.488      62.865
2014   11       20    17   3    5.5866   546.0    3.489      62.844
2014   11       20    17   9    5.5840   545.8    3.489      62.824
2014   11       20    17  14    5.5815   545.7    3.489      62.803
2014   11       20    17  19    5.5789   545.6    3.489      62.782
2014   11       20    17  24    5.5764   545.4    3.490      62.762
2014   11       20    17  29    5.5738   545.3    3.490      62.741
2014   11       20    17  34    5.5713   545.1    3.490      62.720
2014   11       20    17  40    5.5688   545.0    3.490      62.699
2014   11       20    17  45    5.5663   544.8    3.490      62.678
2014   11       20    17  50    5.5638   544.7    3.490      62.657
2014   11       20    17  55    5.5613   544.6    3.490      62.635
2014   11       20    18   0    5.5588   544.4    3.490      62.613
2014   11       20    18   5    5.5562   544.3    3.490      62.591
2014   11       20    18  11    5.5537   544.1    3.490      62.568
2014   11       20    18  16    5.5513   544.0    3.490      62.545
2014   11       20    18  21    5.5488   543.8    3.489      62.521
2014   11       20    18  26    5.5462   543.7    3.489      62.497
2014   11       20    18  31    5.5437   543.5    3.489      62.472
2014   11       20    18  37    5.5411   543.4    3.489      62.446
2014   11       20    18  42    5.5386   543.2    3.488      62.420
2014   11       20    18  47    5.5360   543.1    3.488      62.394
2014   11       20    18  52    5.5334   543.0    3.487      62.367
2014   11       20    18  57    5.5309   542.8    3.487      62.340
2014   11       20    19   2    5.5283   542.6    3.487      62.313
2014   11       20    19   8    5.5257   542.5    3.486      62.285
2014   11       20    19  13    5.5231   542.3    3.486      62.257
2014   11       20    19  18    5.5205   542.2    3.485      62.229
2014   11       20    19  23    5.5179   542.0    3.485      62.201
2014   11       20    19  28    5.5153   541.9    3.484      62.174
2014   11       20    19  33    5.5127   541.7    3.484      62.146
2014   11       20    19  39    5.5101   541.6    3.483      62.118
2014   11       20    19  44    5.5075   541.4    3.483      62.091
2014   11       20    19  49    5.5049   541.3    3.483      62.064
2014   11       20    19  54    5.5023   541.1    3.482      62.037
2014   11       20    19  59    5.4998   540.9    3.482      62.010
2014   11       20    20   4    5.4972   540.8    3.482      61.983
2014   11       20    20  10    5.4946   540.6    3.482      61.957
2014   11       20    20  15    5.4921   540.5    3.482      61.931
2014   11       20    20  20    5.4895   540.3    3.481      61.906
2014   11       20    20  25    5.4870   540.1    3.481      61.880
2014   11       20    20  30    5.4844   540.0    3.481      61.855
2014   11       20    20  35    5.4819   539.8    3.481      61.830
2014   11       20    20  41    5.4793   539.7    3.481      61.805
2014   11       20    20  46    5.4768   539.5    3.481      61.779
2014   11       20    20  51    5.4742   539.3    3.481      61.754
2014   11       20    20  56    5.4716   539.2    3.481      61.729
2014   11       20    21   1    5.4690   539.0    3.481      61.704
2014   11       20    21   7    5.4665   538.9    3.482      61.679
2014   11       20    21  12    5.4639   538.7    3.482      61.654
2014   11       20    21  17    5.4613   538.5    3.482      61.628
2014   11       20    21  22    5.4587   538.4    3.482      61.603
2014   11       20    21  27    5.4561   538.2    3.482      61.577
2014   11       20    21  32    5.4535   538.0    3.483      61.552
2014   11       20    21  37    5.4509   537.8    3.483      61.526
2014   11       20    21  43    5.4483   537.7    3.483      61.501
2014   11       20    21  48    5.4458   537.5    3.484      61.475
2014   11       20    21  53    5.4432   537.3    3.484      61.450
2014   11       20    21  58    5.4407   537.1    3.485      61.424
2014   11       20    22   3    5.4382   536.9    3.485      61.399
2014   11       20    22   8    5.4357   536.8    3.486      61.374
2014   11       20    22  14    5.4333   536.6    3.487      61.349
2014   11       20    22  19    5.4309   536.4    3.487      61.326
2014   11       20    22  24    5.4285   536.2    3.488      61.303
2014   11       20    22  29    5.4262   536.0    3.489      61.281
2014   11       20    22  34    5.4240   535.8    3.490      61.260
2014   11       20    22  39    5.4217   535.7    3.491      61.239
2014   11       20    22  44    5.4196   535.5    3.492      61.219
2014   11       20    22  50    5.4174   535.3    3.493      61.201
2014   11       20    22  55    5.4154   535.1    3.494      61.183
2014   11       20    23   0    5.4134   534.9    3.496      61.166
2014   11       20    23   5    5.4114   534.8    3.497      61.150
2014   11       20    23  10    5.4095   534.6    3.498      61.135
2014   11       20    23  15    5.4076   534.4    3.500      61.120
2014   11       20    23  20    5.4057   534.2    3.501      61.107
2014   11       20    23  26    5.4039   534.0    3.503      61.094
2014   11       20    23  31    5.4020   533.9    3.504      61.082
2014   11       20    23  36    5.4002   533.7    3.506      61.070
2014   11       20    23  41    5.3984   533.5    3.508      61.058
2014   11       20    23  46    5.3965   533.3    3.509      61.047
2014   11       20    23  51    5.3947   533.2    3.511      61.036
2014   11       20    23  56    5.3928   533.0    3.513      61.025
2014   11       21     0   2    5.3909   532.8    3.514      61.014
2014   11       21     0   7    5.3891   532.7    3.516      61.004
2014   11       21     0  12    5.3872   532.5    3.517      60.994
2014   11       21     0  17    5.3852   532.3    3.519      60.983
2014   11       21     0  22    5.3833   532.2    3.521      60.973
2014   11       21     0  28    5.3814   532.0    3.522      60.962
2014   11       21     0  33    5.3793   531.8    3.524      60.951
2014   11       21     0  38    5.3774   531.7    3.525      60.939
2014   11       21     0  43    5.3753   531.5    3.526      60.927
2014   11       21     0  48    5.3733   531.3    3.528      60.915
2014   11       21     0  53    5.3713   531.2    3.529      60.903
2014   11       21     0  59    5.3693   531.0    3.530      60.889
2014   11       21     1   4    5.3671   530.8    3.532      60.876
2014   11       21     1   9    5.3651   530.6    3.533      60.862
2014   11       21     1  14    5.3630   530.5    3.534      60.847
2014   11       21     1  19    5.3609   530.3    3.535      60.832
2014   11       21     1  24    5.3588   530.1    3.536      60.816
2014   11       21     1  30    5.3567   530.0    3.537      60.799
2014   11       21     1  35    5.3545   529.8    3.538      60.782
2014   11       21     1  40    5.3524   529.6    3.539      60.765
2014   11       21     1  45    5.3502   529.5    3.540      60.747
2014   11       21     1  50    5.3481   529.3    3.541      60.728
2014   11       21     1  55    5.3459   529.1    3.542      60.709
2014   11       21     2   1    5.3438   529.0    3.542      60.690
2014   11       21     2   6    5.3416   528.8    3.543      60.670
2014   11       21     2  11    5.3394   528.6    3.544      60.650
2014   11       21     2  16    5.3372   528.5    3.545      60.629
2014   11       21     2  21    5.3349   528.3    3.545      60.607
2014   11       21     2  27    5.3327   528.1    3.546      60.585
2014   11       21     2  32    5.3305   528.0    3.547      60.563
2014   11       21     2  37    5.3283   527.8    3.547      60.540
2014   11       21     2  42    5.3259   527.6    3.548      60.517
2014   11       21     2  47    5.3237   527.5    3.548      60.493
2014   11       21     2  52    5.3215   527.3    3.549      60.468
2014   11       21     2  58    5.3192   527.1    3.549      60.444
2014   11       21     3   3    5.3169   526.9    3.550      60.419
2014   11       21     3   8    5.3146   526.8    3.550      60.393
2014   11       21     3  13    5.3123   526.6    3.550      60.367
2014   11       21     3  18    5.3100   526.4    3.551      60.341
2014   11       21     3  23    5.3076   526.3    3.551      60.314
2014   11       21     3  29    5.3053   526.1    3.551      60.287
2014   11       21     3  34    5.3030   525.9    3.552      60.260
2014   11       21     3  39    5.3006   525.7    3.552      60.232
2014   11       21     3  44    5.2983   525.5    3.552      60.204
2014   11       21     3  49    5.2960   525.4    3.553      60.176
2014   11       21     3  54    5.2937   525.2    3.553      60.148
2014   11       21     4   0    5.2913   525.0    3.553      60.119
2014   11       21     4   5    5.2890   524.8    3.554      60.091
2014   11       21     4  10    5.2867   524.6    3.554      60.062
2014   11       21     4  15    5.2845   524.5    3.554      60.033
2014   11       21     4  20    5.2822   524.3    3.555      60.004
2014   11       21     4  25    5.2800   524.1    3.555      59.975
2014   11       21     4  31    5.2777   523.9    3.555      59.946
2014   11       21     4  36    5.2755   523.7    3.556      59.918
2014   11       21     4  41    5.2733   523.5    3.556      59.889
2014   11       21     4  46    5.2711   523.3    3.556      59.861
2014   11       21     4  51    5.2688   523.1    3.557      59.832
2014   11       21     4  56    5.2667   522.9    3.557      59.804
2014   11       21     5   2    5.2646   522.7    3.558      59.776
2014   11       21     5   7    5.2625   522.6    3.559      59.748
2014   11       21     5  12    5.2604   522.4    3.559      59.720
2014   11       21     5  17    5.2584   522.2    3.560      59.693
2014   11       21     5  22    5.2564   522.0    3.561      59.665
2014   11       21     5  27    5.2544   521.8    3.561      59.638
2014   11       21     5  32    5.2523   521.6    3.562      59.611
2014   11       21     5  38    5.2504   521.4    3.563      59.585
2014   11       21     5  43    5.2485   521.2    3.564      59.559
2014   11       21     5  48    5.2466   521.0    3.564      59.533
2014   11       21     5  53    5.2448   520.8    3.565      59.507
2014   11       21     5  58    5.2429   520.6    3.566      59.482
2014   11       21     6   3    5.2410   520.4    3.567      59.457
2014   11       21     6   8    5.2393   520.2    3.568      59.433
2014   11       21     6  14    5.2375   520.0    3.569      59.409
2014   11       21     6  19    5.2358   519.8    3.571      59.385
2014   11       21     6  24    5.2341   519.6    3.572      59.362
2014   11       21     6  29    5.2324   519.4    3.573      59.339
2014   11       21     6  34    5.2307   519.2    3.574      59.317
2014   11       21     6  39    5.2290   519.0    3.575      59.295
2014   11       21     6  44    5.2274   518.8    3.577      59.273
2014   11       21     6  50    5.2257   518.6    3.578      59.252
2014   11       21     6  55    5.2241   518.4    3.579      59.230
2014   11       21     7   0    5.2226   518.2    3.581      59.210
2014   11       21     7   5    5.2210   518.0    3.582      59.189
2014   11       21     7  10    5.2194   517.8    3.584      59.169
2014   11       21     7  15    5.2178   517.6    3.585      59.149
2014   11       21     7  21    5.2162   517.4    3.587      59.129
2014   11       21     7  26    5.2146   517.2    3.588      59.109
2014   11       21     7  31    5.2130   517.0    3.590      59.090
2014   11       21     7  36    5.2115   516.8    3.591      59.070
2014   11       21     7  41    5.2098   516.6    3.593      59.051
2014   11       21     7  46    5.2082   516.4    3.595      59.032
2014   11       21     7  52    5.2066   516.2    3.596      59.013
2014   11       21     7  57    5.2049   516.0    3.598      58.994
2014   11       21     8   2    5.2032   515.8    3.600      58.975
2014   11       21     8   7    5.2015   515.6    3.601      58.956
2014   11       21     8  12    5.1998   515.4    3.603      58.938
2014   11       21     8  17    5.1981   515.2    3.605      58.919
2014   11       21     8  23    5.1964   515.0    3.607      58.901
2014   11       21     8  28    5.1946   514.8    3.608      58.883
2014   11       21     8  33    5.1929   514.6    3.610      58.865
2014   11       21     8  38    5.1911   514.4    3.612      58.847
2014   11       21     8  43    5.1893   514.2    3.614      58.829
2014   11       21     8  48    5.1875   514.0    3.616      58.812
2014   11       21     8  54    5.1858   513.8    3.618      58.794
2014   11       21     8  59    5.1840   513.6    3.619      58.778
2014   11       21     9   4    5.1823   513.4    3.621      58.761
2014   11       21     9   9    5.1805   513.2    3.623      58.746
2014   11       21     9  14    5.1788   513.0    3.625      58.730
2014   11       21     9  20    5.1771   512.7    3.627      58.715
2014   11       21     9  25    5.1754   512.5    3.629      58.701
2014   11       21     9  30    5.1737   512.3    3.631      58.687
2014   11       21     9  35    5.1720   512.1    3.633      58.673
2014   11       21     9  40    5.1704   511.9    3.636      58.659
2014   11       21     9  45    5.1688   511.7    3.638      58.646
2014   11       21     9  51    5.1673   511.5    3.640      58.633
2014   11       21     9  56    5.1658   511.3    3.642      58.620
2014   11       21    10   1    5.1643   511.1    3.644      58.608
2014   11       21    10   6    5.1628   510.9    3.646      58.595
2014   11       21    10  11    5.1614   510.7    3.649      58.583
2014   11       21    10  16    5.1600   510.5    3.651      58.571
2014   11       21    10  22    5.1586   510.3    3.653      58.559
2014   11       21    10  27    5.1573   510.1    3.656      58.547
2014   11       21    10  32    5.1560   509.9    3.658      58.535
2014   11       21    10  37    5.1547   509.7    3.660      58.523
2014   11       21    10  42    5.1535   509.5    3.663      58.511
2014   11       21    10  47    5.1522   509.3    3.665      58.499
2014   11       21    10  53    5.1510   509.1    3.668      58.487
2014   11       21    10  58    5.1497   508.9    3.670      58.475
2014   11       21    11   3    5.1485   508.7    3.672      58.463
2014   11       21    11   8    5.1473   508.5    3.675      58.451
2014   11       21    11  13    5.1461   508.3    3.677      58.440
2014   11       21    11  18    5.1448   508.1    3.679      58.428
2014   11       21    11  24    5.1436   507.9    3.682      58.416
2014   11       21    11  29    5.1424   507.7    3.684      58.404
2014   11       21    11  34    5.1411   507.5    3.686      58.392
2014   11       21    11  39    5.1398   507.3    3.688      58.379
2014   11       21    11  44    5.1386   507.1    3.691      58.366
2014   11       21    11  49    5.1373   506.9    3.693      58.353
2014   11       21    11  55    5.1360   506.7    3.695      58.340
2014   11       21    12   0    5.1347   506.5    3.697      58.326
2014   11       21    12   5    5.1334   506.4    3.699      58.312
2014   11       21    12  10    5.1321   506.2    3.701      58.297
2014   11       21    12  15    5.1308   506.0    3.703      58.282
2014   11       21    12  20    5.1294   505.8    3.704      58.267
2014   11       21    12  25    5.1280   505.6    3.706      58.251
2014   11       21    12  31    5.1268   505.4    3.708      58.235
2014   11       21    12  36    5.1254   505.2    3.710      58.217
2014   11       21    12  41    5.1241   505.0    3.711      58.200
2014   11       21    12  46    5.1227   504.8    3.713      58.181
2014   11       21    12  51    5.1213   504.6    3.714      58.163
2014   11       21    12  56    5.1200   504.4    3.716      58.143
2014   11       21    13   1    5.1186   504.2    3.717      58.123
2014   11       21    13   7    5.1172   504.1    3.719      58.103
2014   11       21    13  12    5.1158   503.9    3.720      58.082
2014   11       21    13  17    5.1144   503.7    3.722      58.060
2014   11       21    13  22    5.1130   503.5    3.723      58.038
2014   11       21    13  27    5.1116   503.3    3.725      58.016
2014   11       21    13  32    5.1101   503.1    3.726      57.993
2014   11       21    13  37    5.1087   502.9    3.727      57.969
2014   11       21    13  42    5.1073   502.7    3.729      57.946
2014   11       21    13  48    5.1059   502.5    3.730      57.921
2014   11       21    13  53    5.1045   502.3    3.731      57.897
2014   11       21    13  58    5.1031   502.1    3.732      57.872
2014   11       21    14   3    5.1017   501.9    3.734      57.847
2014   11       21    14   8    5.1002   501.7    3.735      57.822
2014   11       21    14  13    5.0988   501.5    3.736      57.797
2014   11       21    14  19    5.0974   501.3    3.738      57.771
2014   11       21    14  24    5.0961   501.1    3.739      57.746
2014   11       21    14  29    5.0947   500.9    3.740      57.721
2014   11       21    14  34    5.0933   500.7    3.742      57.696
2014   11       21    14  39    5.0920   500.5    3.743      57.670
2014   11       21    14  44    5.0907   500.3    3.745      57.646
2014   11       21    14  50    5.0894   500.1    3.746      57.621
2014   11       21    14  55    5.0881   499.9    3.748      57.597
2014   11       21    15   0    5.0869   499.7    3.749      57.573
2014   11       21    15   5    5.0856   499.5    3.751      57.550
2014   11       21    15  10    5.0844   499.3    3.753      57.527
2014   11       21    15  15    5.0833   499.1    3.754      57.505
2014   11       21    15  20    5.0821   498.9    3.756      57.483
2014   11       21    15  26    5.0810   498.7    3.758      57.462
2014   11       21    15  31    5.0799   498.5    3.760      57.442
2014   11       21    15  36    5.0789   498.3    3.762      57.422
2014   11       21    15  41    5.0778   498.1    3.764      57.402
2014   11       21    15  46    5.0768   497.9    3.766      57.384
2014   11       21    15  51    5.0759   497.7    3.768      57.366
2014   11       21    15  57    5.0749   497.5    3.771      57.348
2014   11       21    16   2    5.0740   497.3    3.773      57.331
2014   11       21    16   7    5.0731   497.1    3.775      57.315
2014   11       21    16  12    5.0723   496.9    3.778      57.299
2014   11       21    16  17    5.0714   496.8    3.780      57.284
2014   11       21    16  22    5.0705   496.6    3.783      57.269
2014   11       21    16  27    5.0697   496.4    3.785      57.254
2014   11       21    16  33    5.0689   496.2    3.788      57.240
2014   11       21    16  38    5.0681   496.0    3.791      57.227
2014   11       21    16  43    5.0673   495.8    3.793      57.213
2014   11       21    16  48    5.0665   495.6    3.796      57.200
2014   11       21    16  53    5.0657   495.4    3.799      57.187
2014   11       21    16  58    5.0649   495.2    3.802      57.175
2014   11       21    17   4    5.0642   495.0    3.804      57.162
2014   11       21    17   9    5.0634   494.8    3.807      57.150
2014   11       21    17  14    5.0627   494.6    3.810      57.138
2014   11       21    17  19    5.0619   494.4    3.813      57.126
2014   11       21    17  24    5.0611   494.2    3.816      57.114
2014   11       21    17  29    5.0604   494.1    3.818      57.102
2014   11       21    17  34    5.0596   493.9    3.821      57.090
2014   11       21    17  40    5.0588   493.7    3.824      57.077
2014   11       21    17  45    5.0580   493.5    3.827      57.065
2014   11       21    17  50    5.0573   493.3    3.830      57.053
2014   11       21    17  55    5.0565   493.1    3.832      57.041
2014   11       21    18   0    5.0557   492.9    3.835      57.029
2014   11       21    18   5    5.0550   492.7    3.838      57.016
2014   11       21    18  10    5.0542   492.5    3.841      57.004
2014   11       21    18  16    5.0535   492.3    3.843      56.991
2014   11       21    18  21    5.0528   492.1    3.846      56.978
2014   11       21    18  26    5.0520   491.9    3.848      56.965
2014   11       21    18  31    5.0513   491.7    3.851      56.951
2014   11       21    18  36    5.0504   491.5    3.854      56.938
2014   11       21    18  41    5.0498   491.3    3.856      56.924
2014   11       21    18  47    5.0489   491.1    3.859      56.910
2014   11       21    18  52    5.0482   490.9    3.861      56.895
2014   11       21    18  57    5.0474   490.7    3.863      56.880
2014   11       21    19   2    5.0466   490.6    3.866      56.865
2014   11       21    19   7    5.0459   490.4    3.868      56.850
2014   11       21    19  12    5.0452   490.2    3.870      56.834
2014   11       21    19  17    5.0443   490.0    3.873      56.818
2014   11       21    19  23    5.0436   489.8    3.875      56.801
2014   11       21    19  28    5.0428   489.6    3.877      56.785
2014   11       21    19  33    5.0421   489.4    3.879      56.768
2014   11       21    19  38    5.0413   489.2    3.882      56.750
2014   11       21    19  43    5.0405   489.0    3.884      56.733
2014   11       21    19  48    5.0397   488.8    3.886      56.715
2014   11       21    19  53    5.0389   488.6    3.888      56.697
2014   11       21    19  59    5.0381   488.4    3.890      56.678
2014   11       21    20   4    5.0374   488.2    3.892      56.660
2014   11       21    20   9    5.0367   488.0    3.894      56.641
2014   11       21    20  14    5.0358   487.8    3.896      56.622
2014   11       21    20  19    5.0351   487.6    3.898      56.602
2014   11       21    20  24    5.0344   487.5    3.900      56.583
2014   11       21    20  29    5.0335   487.3    3.902      56.563
2014   11       21    20  34    5.0328   487.1    3.903      56.544
2014   11       21    20  40    5.0320   486.9    3.905      56.523
2014   11       21    20  45    5.0312   486.7    3.907      56.503
2014   11       21    20  50    5.0305   486.5    3.909      56.483
2014   11       21    20  55    5.0297   486.3    3.911      56.462
2014   11       21    21   0    5.0289   486.1    3.913      56.441
2014   11       21    21   5    5.0281   485.9    3.915      56.420
2014   11       21    21  10    5.0274   485.7    3.916      56.399
2014   11       21    21  15    5.0266   485.5    3.918      56.379
2014   11       21    21  21    5.0258   485.3    3.920      56.357
2014   11       21    21  26    5.0251   485.1    3.922      56.336
2014   11       21    21  31    5.0243   484.9    3.924      56.315
2014   11       21    21  36    5.0235   484.7    3.926      56.294
2014   11       21    21  41    5.0228   484.5    3.928      56.273
2014   11       21    21  46    5.0221   484.3    3.930      56.252
2014   11       21    21  51    5.0213   484.1    3.932      56.232
2014   11       21    21  57    5.0206   483.9    3.933      56.211
2014   11       21    22   2    5.0199   483.7    3.935      56.191
2014   11       21    22   7    5.0191   483.5    3.937      56.171
2014   11       21    22  12    5.0184   483.3    3.940      56.151
2014   11       21    22  17    5.0177   483.2    3.942      56.131
2014   11       21    22  22    5.0171   483.0    3.944      56.112
2014   11       21    22  28    5.0164   482.8    3.946      56.093
2014   11       21    22  33    5.0158   482.6    3.948      56.074
2014   11       21    22  38    5.0152   482.4    3.950      56.056
2014   11       21    22  43    5.0145   482.2    3.953      56.038
2014   11       21    22  48    5.0140   482.0    3.955      56.020
2014   11       21    22  53    5.0134   481.8    3.957      56.002
2014   11       21    22  58    5.0128   481.6    3.960      55.985
2014   11       21    23   3    5.0123   481.4    3.962      55.969
2014   11       21    23   9    5.0117   481.2    3.965      55.952
2014   11       21    23  14    5.0112   481.0    3.967      55.936
2014   11       21    23  19    5.0107   480.8    3.970      55.920
2014   11       21    23  24    5.0102   480.6    3.973      55.904
2014   11       21    23  29    5.0097   480.4    3.975      55.889
2014   11       21    23  34    5.0093   480.2    3.978      55.874
2014   11       21    23  39    5.0088   480.0    3.981      55.859
2014   11       21    23  45    5.0084   479.8    3.983      55.844
2014   11       21    23  50    5.0079   479.6    3.986      55.830
2014   11       21    23  55    5.0075   479.4    3.989      55.815
2014   11       22     0   0    5.0071   479.2    3.992      55.801
2014   11       22     0   5    5.0066   479.0    3.995      55.787
2014   11       22     0  10    5.0062   478.8    3.998      55.773
2014   11       22     0  15    5.0058   478.7    4.000      55.758
2014   11       22     0  20    5.0054   478.5    4.003      55.744
2014   11       22     0  26    5.0049   478.3    4.006      55.730
2014   11       22     0  31    5.0045   478.1    4.009      55.715
2014   11       22     0  36    5.0041   477.9    4.012      55.701
2014   11       22     0  41    5.0036   477.7    4.015      55.686
2014   11       22     0  46    5.0031   477.5    4.017      55.672
2014   11       22     0  51    5.0027   477.3    4.020      55.657
2014   11       22     0  56    5.0022   477.1    4.023      55.641
2014   11       22     1   2    5.0017   476.9    4.026      55.626
2014   11       22     1   7    5.0012   476.7    4.028      55.610
2014   11       22     1  12    5.0008   476.5    4.031      55.594
2014   11       22     1  17    5.0002   476.3    4.034      55.578
2014   11       22     1  22    4.9997   476.1    4.036      55.562
2014   11       22     1  27    4.9992   475.9    4.039      55.545
2014   11       22     1  32    4.9987   475.7    4.042      55.528
2014   11       22     1  37    4.9981   475.5    4.044      55.511
2014   11       22     1  43    4.9976   475.3    4.047      55.493
2014   11       22     1  48    4.9970   475.1    4.049      55.475
2014   11       22     1  53    4.9965   475.0    4.052      55.457
2014   11       22     1  58    4.9959   474.8    4.054      55.439
2014   11       22     2   3    4.9953   474.6    4.057      55.420
2014   11       22     2   8    4.9947   474.4    4.059      55.401
2014   11       22     2  13    4.9941   474.2    4.061      55.382
2014   11       22     2  19    4.9935   474.0    4.064      55.363
2014   11       22     2  24    4.9929   473.8    4.066      55.343
2014   11       22     2  29    4.9923   473.6    4.068      55.323
2014   11       22     2  34    4.9917   473.4    4.071      55.303
2014   11       22     2  39    4.9911   473.2    4.073      55.283
2014   11       22     2  44    4.9905   473.0    4.075      55.263
2014   11       22     2  49    4.9898   472.8    4.078      55.242
2014   11       22     2  54    4.9892   472.6    4.080      55.221
2014   11       22     3   0    4.9886   472.4    4.082      55.200
2014   11       22     3   5    4.9880   472.2    4.084      55.180
2014   11       22     3  10    4.9873   472.0    4.086      55.158
2014   11       22     3  15    4.9867   471.8    4.089      55.138
2014   11       22     3  20    4.9861   471.6    4.091      55.117
2014   11       22     3  25    4.9855   471.4    4.093      55.096
2014   11       22     3  30    4.9848   471.2    4.095      55.074
2014   11       22     3  35    4.9842   471.0    4.097      55.054
2014   11       22     3  41    4.9836   470.8    4.100      55.033
2014   11       22     3  46    4.9830   470.6    4.102      55.012
2014   11       22     3  51    4.9824   470.4    4.104      54.991
2014   11       22     3  56    4.9818   470.2    4.106      54.971
2014   11       22     4   1    4.9812   470.0    4.109      54.950
2014   11       22     4   6    4.9807   469.8    4.111      54.930
2014   11       22     4  11    4.9801   469.6    4.113      54.910
2014   11       22     4  16    4.9796   469.4    4.115      54.890
2014   11       22     4  22    4.9790   469.2    4.118      54.870
2014   11       22     4  27    4.9785   469.0    4.120      54.850
2014   11       22     4  32    4.9780   468.8    4.123      54.831
2014   11       22     4  37    4.9775   468.6    4.125      54.812
2014   11       22     4  42    4.9770   468.4    4.128      54.793
2014   11       22     4  47    4.9765   468.2    4.130      54.775
2014   11       22     4  52    4.9760   468.0    4.133      54.756
2014   11       22     4  57    4.9756   467.8    4.135      54.738
2014   11       22     5   3    4.9751   467.6    4.138      54.720
2014   11       22     5   8    4.9747   467.4    4.141      54.703
2014   11       22     5  13    4.9743   467.2    4.144      54.685
2014   11       22     5  18    4.9738   467.0    4.146      54.668
2014   11       22     5  23    4.9734   466.8    4.149      54.651
2014   11       22     5  28    4.9730   466.6    4.152      54.634
2014   11       22     5  33    4.9726   466.4    4.155      54.617
2014   11       22     5  39    4.9723   466.2    4.158      54.601
2014   11       22     5  44    4.9719   466.0    4.160      54.584
2014   11       22     5  49    4.9715   465.8    4.163      54.568
2014   11       22     5  54    4.9711   465.6    4.166      54.552
2014   11       22     5  59    4.9708   465.4    4.169      54.536
2014   11       22     6   4    4.9704   465.2    4.172      54.520
2014   11       22     6   9    4.9701   465.0    4.175      54.504
2014   11       22     6  14    4.9697   464.8    4.178      54.488
2014   11       22     6  20    4.9694   464.6    4.181      54.472
2014   11       22     6  25    4.9691   464.4    4.184      54.456
2014   11       22     6  30    4.9687   464.2    4.187      54.441
2014   11       22     6  35    4.9684   464.0    4.190      54.425
2014   11       22     6  40    4.9680   463.8    4.193      54.409
2014   11       22     6  45    4.9677   463.6    4.197      54.393
2014   11       22     6  50    4.9674   463.4    4.200      54.377
2014   11       22     6  55    4.9671   463.2    4.203      54.361
2014   11       22     7   0    4.9668   463.0    4.206      54.345
2014   11       22     7   6    4.9664   462.8    4.209      54.329
2014   11       22     7  11    4.9661   462.6    4.212      54.313
2014   11       22     7  16    4.9658   462.4    4.215      54.297
2014   11       22     7  21    4.9655   462.2    4.218      54.281
2014   11       22     7  26    4.9652   462.0    4.221      54.265
2014   11       22     7  31    4.9649   461.8    4.224      54.249
2014   11       22     7  36    4.9646   461.6    4.228      54.233
2014   11       22     7  41    4.9643   461.5    4.231      54.217
2014   11       22     7  47    4.9640   461.3    4.234      54.200
2014   11       22     7  52    4.9637   461.1    4.237      54.184
2014   11       22     7  57    4.9634   460.9    4.240      54.167
2014   11       22     8   2    4.9631   460.7    4.243      54.151
2014   11       22     8   7    4.9629   460.5    4.246      54.135
2014   11       22     8  12    4.9626   460.3    4.249      54.118
2014   11       22     8  17    4.9623   460.1    4.253      54.101
2014   11       22     8  22    4.9620   459.9    4.256      54.085
2014   11       22     8  27    4.9618   459.7    4.259      54.068
2014   11       22     8  33    4.9615   459.5    4.262      54.051
2014   11       22     8  38    4.9613   459.3    4.265      54.035
2014   11       22     8  43    4.9610   459.1    4.268      54.018
2014   11       22     8  48    4.9608   458.9    4.271      54.001
2014   11       22     8  53    4.9606   458.7    4.274      53.984
2014   11       22     8  58    4.9603   458.5    4.278      53.967
2014   11       22     9   3    4.9601   458.3    4.281      53.951
2014   11       22     9   8    4.9599   458.1    4.284      53.934
2014   11       22     9  13    4.9597   457.9    4.287      53.917
2014   11       22     9  19    4.9595   457.7    4.290      53.900
2014   11       22     9  24    4.9593   457.5    4.293      53.883
2014   11       22     9  29    4.9591   457.3    4.296      53.867
2014   11       22     9  34    4.9589   457.1    4.300      53.850
2014   11       22     9  39    4.9587   456.9    4.303      53.833
2014   11       22     9  44    4.9585   456.7    4.306      53.816
2014   11       22     9  49    4.9584   456.5    4.309      53.800
2014   11       22     9  54    4.9582   456.3    4.312      53.783
2014   11       22    10   0    4.9580   456.1    4.316      53.767
2014   11       22    10   5    4.9579   455.9    4.319      53.750
2014   11       22    10  10    4.9578   455.7    4.322      53.734
2014   11       22    10  15    4.9576   455.5    4.325      53.717
2014   11       22    10  20    4.9575   455.3    4.329      53.701
2014   11       22    10  25    4.9574   455.1    4.332      53.684
2014   11       22    10  30    4.9572   454.9    4.335      53.668
2014   11       22    10  35    4.9571   454.7    4.338      53.652
2014   11       22    10  41    4.9570   454.5    4.342      53.636
2014   11       22    10  46    4.9569   454.3    4.345      53.620
2014   11       22    10  51    4.9568   454.1    4.348      53.603
2014   11       22    10  56    4.9567   453.9    4.352      53.587
2014   11       22    11   1    4.9566   453.7    4.355      53.571
2014   11       22    11   6    4.9565   453.5    4.358      53.555
2014   11       22    11  11    4.9565   453.3    4.362      53.539
2014   11       22    11  16    4.9564   453.1    4.365      53.523
2014   11       22    11  21    4.9563   452.9    4.368      53.507
2014   11       22    11  27    4.9562   452.7    4.372      53.491
2014   11       22    11  32    4.9562   452.5    4.375      53.475
2014   11       22    11  37    4.9561   452.3    4.378      53.459
2014   11       22    11  42    4.9561   452.1    4.382      53.443
2014   11       22    11  47    4.9560   451.9    4.385      53.427
2014   11       22    11  52    4.9559   451.7    4.388      53.411
2014   11       22    11  57    4.9559   451.5    4.392      53.395
2014   11       22    12   2    4.9559   451.3    4.395      53.379
2014   11       22    12   7    4.9559   451.1    4.399      53.363
2014   11       22    12  13    4.9558   450.9    4.402      53.347
2014   11       22    12  18    4.9558   450.7    4.405      53.331
2014   11       22    12  23    4.9558   450.5    4.409      53.315
2014   11       22    12  28    4.9558   450.3    4.412      53.299
2014   11       22    12  33    4.9557   450.1    4.416      53.283
2014   11       22    12  38    4.9557   449.9    4.419      53.267
2014   11       22    12  43    4.9557   449.7    4.422      53.251
2014   11       22    12  48    4.9557   449.5    4.426      53.235
2014   11       22    12  53    4.9557   449.3    4.429      53.219
2014   11       22    12  59    4.9557   449.1    4.433      53.203
2014   11       22    13   4    4.9558   448.9    4.436      53.187
2014   11       22    13   9    4.9558   448.7    4.439      53.171
2014   11       22    13  14    4.9558   448.5    4.443      53.154
2014   11       22    13  19    4.9559   448.3    4.446      53.138
2014   11       22    13  24    4.9559   448.1    4.450      53.122
2014   11       22    13  29    4.9559   447.9    4.453      53.106
2014   11       22    13  34    4.9560   447.7    4.456      53.090
2014   11       22    13  39    4.9561   447.5    4.460      53.074
2014   11       22    13  45    4.9561   447.3    4.463      53.058
2014   11       22    13  50    4.9562   447.1    4.467      53.041
2014   11       22    13  55    4.9563   446.9    4.470      53.025
2014   11       22    14   0    4.9564   446.7    4.474      53.009
2014   11       22    14   5    4.9565   446.5    4.477      52.993
2014   11       22    14  10    4.9566   446.3    4.481      52.977
2014   11       22    14  15    4.9568   446.1    4.484      52.960
2014   11       22    14  20    4.9569   445.9    4.487      52.944
2014   11       22    14  25    4.9570   445.7    4.491      52.928
2014   11       22    14  31    4.9572   445.5    4.494      52.911
2014   11       22    14  36    4.9573   445.3    4.498      52.895
2014   11       22    14  41    4.9575   445.1    4.501      52.878
2014   11       22    14  46    4.9577   444.9    4.505      52.862
2014   11       22    14  51    4.9579   444.7    4.508      52.845
2014   11       22    14  56    4.9581   444.5    4.512      52.829
2014   11       22    15   1    4.9584   444.3    4.516      52.812
2014   11       22    15   6    4.9585   444.1    4.519      52.796
2014   11       22    15  11    4.9588   443.9    4.523      52.779
2014   11       22    15  16    4.9590   443.8    4.526      52.762
2014   11       22    15  22    4.9593   443.6    4.530      52.746
2014   11       22    15  27    4.9595   443.4    4.533      52.729
2014   11       22    15  32    4.9598   443.2    4.537      52.712
2014   11       22    15  37    4.9601   443.0    4.541      52.695
2014   11       22    15  42    4.9604   442.8    4.544      52.678
2014   11       22    15  47    4.9607   442.6    4.548      52.661
2014   11       22    15  52    4.9611   442.4    4.551      52.644
2014   11       22    15  57    4.9614   442.2    4.555      52.627
2014   11       22    16   2    4.9617   442.0    4.559      52.609
2014   11       22    16   7    4.9620   441.8    4.562      52.592
2014   11       22    16  13    4.9624   441.6    4.566      52.575
2014   11       22    16  18    4.9627   441.4    4.570      52.557
2014   11       22    16  23    4.9631   441.2    4.573      52.540
2014   11       22    16  28    4.9635   441.0    4.577      52.522
2014   11       22    16  33    4.9639   440.8    4.581      52.504
2014   11       22    16  38    4.9643   440.6    4.585      52.486
2014   11       22    16  43    4.9647   440.4    4.588      52.469
2014   11       22    16  48    4.9651   440.2    4.592      52.451
2014   11       22    16  53    4.9656   440.0    4.596      52.433
2014   11       22    16  59    4.9660   439.8    4.600      52.415
2014   11       22    17   4    4.9665   439.7    4.603      52.397
2014   11       22    17   9    4.9669   439.5    4.607      52.378
2014   11       22    17  14    4.9674   439.3    4.611      52.360
2014   11       22    17  19    4.9678   439.1    4.615      52.342
2014   11       22    17  24    4.9683   438.9    4.619      52.323
2014   11       22    17  29    4.9688   438.7    4.622      52.305
2014   11       22    17  34    4.9693   438.5    4.626      52.286
2014   11       22    17  39    4.9698   438.3    4.630      52.268
2014   11       22    17  45    4.9703   438.1    4.634      52.249
2014   11       22    17  50    4.9709   437.9    4.638      52.230
2014   11       22    17  55    4.9714   437.7    4.642      52.212
2014   11       22    18   0    4.9720   437.5    4.646      52.193
2014   11       22    18   5    4.9725   437.3    4.650      52.174
2014   11       22    18  10    4.9731   437.1    4.653      52.155
2014   11       22    18  15    4.9736   436.9    4.657      52.136
2014   11       22    18  20    4.9742   436.8    4.661      52.117
2014   11       22    18  25    4.9748   436.6    4.665      52.098
2014   11       22    18  30    4.9755   436.4    4.669      52.079
2014   11       22    18  36    4.9761   436.2    4.673      52.060
2014   11       22    18  41    4.9767   436.0    4.677      52.041
2014   11       22    18  46    4.9774   435.8    4.681      52.022
2014   11       22    18  51    4.9780   435.6    4.685      52.003
2014   11       22    18  56    4.9787   435.4    4.689      51.983
2014   11       22    19   1    4.9793   435.2    4.693      51.964
2014   11       22    19   6    4.9799   435.0    4.698      51.945
2014   11       22    19  11    4.9806   434.8    4.702      51.926
2014   11       22    19  16    4.9814   434.6    4.706      51.906
2014   11       22    19  22    4.9821   434.5    4.710      51.887
2014   11       22    19  27    4.9828   434.3    4.714      51.868
2014   11       22    19  32    4.9835   434.1    4.718      51.848
2014   11       22    19  37    4.9843   433.9    4.722      51.829
2014   11       22    19  42    4.9850   433.7    4.726      51.810
2014   11       22    19  47    4.9858   433.5    4.730      51.790
2014   11       22    19  52    4.9865   433.3    4.735      51.771
2014   11       22    19  57    4.9874   433.1    4.739      51.752
2014   11       22    20   2    4.9882   432.9    4.743      51.732
2014   11       22    20   7    4.9890   432.7    4.747      51.713
2014   11       22    20  13    4.9897   432.5    4.751      51.694
2014   11       22    20  18    4.9906   432.4    4.755      51.674
2014   11       22    20  23    4.9914   432.2    4.760      51.655
2014   11       22    20  28    4.9923   432.0    4.764      51.636
2014   11       22    20  33    4.9932   431.8    4.768      51.616
2014   11       22    20  38    4.9941   431.6    4.772      51.597
2014   11       22    20  43    4.9950   431.4    4.777      51.578
2014   11       22    20  48    4.9959   431.2    4.781      51.559
2014   11       22    20  53    4.9968   431.0    4.785      51.539
2014   11       22    20  58    4.9978   430.8    4.789      51.520
2014   11       22    21   4    4.9987   430.6    4.794      51.501
2014   11       22    21   9    4.9998   430.4    4.798      51.482
2014   11       22    21  14    5.0008   430.3    4.802      51.462
2014   11       22    21  19    5.0017   430.1    4.807      51.443
2014   11       22    21  24    5.0028   429.9    4.811      51.424
2014   11       22    21  29    5.0038   429.7    4.815      51.405
2014   11       22    21  34    5.0050   429.5    4.820      51.386
2014   11       22    21  39    5.0060   429.3    4.824      51.367
2014   11       22    21  44    5.0070   429.1    4.828      51.347
2014   11       22    21  49    5.0082   428.9    4.833      51.328
2014   11       22    21  54    5.0093   428.7    4.837      51.309
2014   11       22    22   0    5.0104   428.6    4.842      51.290
2014   11       22    22   5    5.0117   428.4    4.846      51.271
2014   11       22    22  10    5.0129   428.2    4.850      51.252
2014   11       22    22  15    5.0141   428.0    4.855      51.232
2014   11       22    22  20    5.0153   427.8    4.859      51.213
2014   11       22    22  25    5.0165   427.6    4.864      51.194
2014   11       22    22  30    5.0178   427.4    4.868      51.175
2014   11       22    22  35    5.0190   427.2    4.873      51.156
2014   11       22    22  40    5.0203   427.0    4.877      51.136
2014   11       22    22  45    5.0216   426.9    4.882      51.117
2014   11       22    22  50    5.0229   426.7    4.886      51.098
2014   11       22    22  56    5.0242   426.5    4.891      51.079
2014   11       22    23   1    5.0256   426.3    4.895      51.060
2014   11       22    23   6    5.0270   426.1    4.900      51.041
2014   11       22    23  11    5.0284   425.9    4.904      51.021
2014   11       22    23  16    5.0297   425.7    4.909      51.002
2014   11       22    23  21    5.0313   425.5    4.913      50.983
2014   11       22    23  26    5.0326   425.4    4.918      50.964
2014   11       22    23  31    5.0342   425.2    4.922      50.944
2014   11       22    23  36    5.0357   425.0    4.927      50.925
2014   11       22    23  41    5.0372   424.8    4.932      50.906
2014   11       22    23  46    5.0386   424.6    4.936      50.887
2014   11       22    23  52    5.0403   424.4    4.941      50.867
2014   11       22    23  57    5.0418   424.2    4.946      50.848
2014   11       23     0   2    5.0433   424.1    4.950      50.829
2014   11       23     0   7    5.0449   423.9    4.955      50.810
2014   11       23     0  12    5.0465   423.7    4.960      50.790
2014   11       23     0  17    5.0482   423.5    4.965      50.771
2014   11       23     0  22    5.0499   423.3    4.969      50.752
2014   11       23     0  27    5.0515   423.1    4.974      50.733
2014   11       23     0  32    5.0533   422.9    4.979      50.714
2014   11       23     0  37    5.0549   422.8    4.984      50.694
2014   11       23     0  43    5.0566   422.6    4.989      50.675
2014   11       23     0  48    5.0584   422.4    4.993      50.656
2014   11       23     0  53    5.0602   422.2    4.998      50.637
2014   11       23     0  58    5.0620   422.0    5.003      50.618
2014   11       23     1   3    5.0638   421.8    5.008      50.599
2014   11       23     1   8    5.0656   421.6    5.013      50.580
2014   11       23     1  13    5.0674   421.5    5.018      50.561
2014   11       23     1  18    5.0693   421.3    5.023      50.542
2014   11       23     1  23    5.0710   421.1    5.028      50.524
2014   11       23     1  28    5.0729   420.9    5.033      50.505
2014   11       23     1  34    5.0749   420.7    5.038      50.486
2014   11       23     1  39    5.0767   420.5    5.043      50.467
2014   11       23     1  44    5.0788   420.4    5.048      50.449
2014   11       23     1  49    5.0807   420.2    5.053      50.430
2014   11       23     1  54    5.0826   420.0    5.059      50.411
2014   11       23     1  59    5.0846   419.8    5.064      50.393
2014   11       23     2   4    5.0865   419.6    5.069      50.374
2014   11       23     2   9    5.0887   419.4    5.074      50.356
2014   11       23     2  14    5.0907   419.3    5.079      50.337
2014   11       23     2  19    5.0926   419.1    5.085      50.319
2014   11       23     2  24    5.0947   418.9    5.090      50.301
2014   11       23     2  30    5.0967   418.7    5.095      50.282
2014   11       23     2  35    5.0988   418.5    5.101      50.264
2014   11       23     2  40    5.1009   418.3    5.106      50.246
2014   11       23     2  45    5.1030   418.2    5.111      50.228
2014   11       23     2  50    5.1052   418.0    5.117      50.210
2014   11       23     2  55    5.1074   417.8    5.122      50.192
2014   11       23     3   0    5.1094   417.6    5.128      50.174
2014   11       23     3   5    5.1116   417.4    5.133      50.157
2014   11       23     3  10    5.1138   417.3    5.139      50.139
2014   11       23     3  15    5.1160   417.1    5.144      50.121
2014   11       23     3  21    5.1182   416.9    5.150      50.104
2014   11       23     3  26    5.1205   416.7    5.156      50.086
2014   11       23     3  31    5.1228   416.5    5.161      50.069
2014   11       23     3  36    5.1249   416.4    5.167      50.051
2014   11       23     3  41    5.1272   416.2    5.173      50.034
2014   11       23     3  46    5.1295   416.0    5.178      50.017
2014   11       23     3  51    5.1319   415.8    5.184      50.000
2014   11       23     3  56    5.1341   415.6    5.190      49.983
2014   11       23     4   1    5.1365   415.5    5.195      49.966
2014   11       23     4   6    5.1388   415.3    5.201      49.949
2014   11       23     4  11    5.1413   415.1    5.207      49.932
2014   11       23     4  16    5.1435   414.9    5.213      49.915
2014   11       23     4  22    5.1460   414.8    5.219      49.898
2014   11       23     4  27    5.1483   414.6    5.225      49.882
2014   11       23     4  32    5.1507   414.4    5.231      49.865
2014   11       23     4  37    5.1532   414.2    5.237      49.849
2014   11       23     4  42    5.1556   414.0    5.242      49.833
2014   11       23     4  47    5.1582   413.9    5.248      49.816
2014   11       23     4  52    5.1606   413.7    5.254      49.800
2014   11       23     4  57    5.1632   413.5    5.260      49.784
2014   11       23     5   2    5.1657   413.3    5.266      49.768
2014   11       23     5   7    5.1683   413.2    5.273      49.752
2014   11       23     5  12    5.1707   413.0    5.279      49.736
2014   11       23     5  17    5.1734   412.8    5.285      49.720
2014   11       23     5  23    5.1760   412.6    5.291      49.704
2014   11       23     5  28    5.1786   412.5    5.297      49.688
2014   11       23     5  33    5.1811   412.3    5.303      49.673
2014   11       23     5  38    5.1838   412.1    5.309      49.657
2014   11       23     5  43    5.1865   411.9    5.316      49.642
2014   11       23     5  48    5.1893   411.8    5.322      49.626
2014   11       23     5  53    5.1919   411.6    5.328      49.611
2014   11       23     5  58    5.1946   411.4    5.334      49.596
2014   11       23     6   3    5.1974   411.3    5.340      49.581
2014   11       23     6   8    5.2001   411.1    5.347      49.565
2014   11       23     6  13    5.2029   410.9    5.353      49.550
2014   11       23     6  18    5.2057   410.7    5.359      49.535
2014   11       23     6  24    5.2087   410.6    5.366      49.520
2014   11       23     6  29    5.2115   410.4    5.372      49.505
2014   11       23     6  34    5.2144   410.2    5.379      49.491
2014   11       23     6  39    5.2172   410.1    5.385      49.476
2014   11       23     6  44    5.2202   409.9    5.391      49.461
2014   11       23     6  49    5.2230   409.7    5.398      49.447
2014   11       23     6  54    5.2261   409.6    5.404      49.432
2014   11       23     6  59    5.2290   409.4    5.411      49.418
2014   11       23     7   4    5.2321   409.2    5.417      49.403
2014   11       23     7   9    5.2351   409.1    5.424      49.389
2014   11       23     7  14    5.2382   408.9    5.430      49.375
2014   11       23     7  19    5.2412   408.7    5.437      49.361
2014   11       23     7  25    5.2443   408.5    5.443      49.346
2014   11       23     7  30    5.2473   408.4    5.450      49.332
2014   11       23     7  35    5.2505   408.2    5.456      49.318
2014   11       23     7  40    5.2536   408.1    5.463      49.304
2014   11       23     7  45    5.2568   407.9    5.470      49.290
2014   11       23     7  50    5.2600   407.7    5.476      49.277
2014   11       23     7  55    5.2634   407.6    5.483      49.263
2014   11       23     8   0    5.2665   407.4    5.490      49.249
2014   11       23     8   5    5.2698   407.2    5.496      49.236
2014   11       23     8  10    5.2731   407.1    5.503      49.222
2014   11       23     8  15    5.2765   406.9    5.510      49.209
2014   11       23     8  20    5.2800   406.7    5.517      49.196
2014   11       23     8  26    5.2832   406.6    5.523      49.182
2014   11       23     8  31    5.2866   406.4    5.530      49.169
2014   11       23     8  36    5.2901   406.3    5.537      49.156
2014   11       23     8  41    5.2937   406.1    5.544      49.143
2014   11       23     8  46    5.2970   405.9    5.551      49.130
2014   11       23     8  51    5.3007   405.8    5.558      49.117
2014   11       23     8  56    5.3042   405.6    5.565      49.105
2014   11       23     9   1    5.3077   405.5    5.572      49.092
2014   11       23     9   6    5.3113   405.3    5.579      49.080
2014   11       23     9  11    5.3149   405.1    5.586      49.068
2014   11       23     9  16    5.3187   405.0    5.593      49.055
2014   11       23     9  22    5.3224   404.8    5.600      49.043
2014   11       23     9  27    5.3261   404.7    5.607      49.031
2014   11       23     9  32    5.3299   404.5    5.614      49.020
2014   11       23     9  37    5.3335   404.4    5.621      49.008
2014   11       23     9  42    5.3374   404.2    5.628      48.996
2014   11       23     9  47    5.3412   404.1    5.636      48.985
2014   11       23     9  52    5.3449   403.9    5.643      48.974
2014   11       23     9  57    5.3488   403.7    5.650      48.962
2014   11       23    10   2    5.3527   403.6    5.658      48.951
2014   11       23    10   7    5.3567   403.4    5.665      48.941
2014   11       23    10  12    5.3607   403.3    5.672      48.930
2014   11       23    10  18    5.3647   403.1    5.680      48.919
2014   11       23    10  23    5.3687   403.0    5.687      48.909
2014   11       23    10  28    5.3729   402.8    5.695      48.899
2014   11       23    10  33    5.3770   402.7    5.703      48.889
2014   11       23    10  38    5.3810   402.5    5.710      48.879
2014   11       23    10  43    5.3851   402.4    5.718      48.870
2014   11       23    10  48    5.3895   402.2    5.726      48.860
2014   11       23    10  53    5.3935   402.1    5.733      48.851
2014   11       23    10  58    5.3978   401.9    5.741      48.842
2014   11       23    11   3    5.4022   401.8    5.749      48.833
2014   11       23    11   8    5.4064   401.6    5.757      48.824
2014   11       23    11  13    5.4107   401.5    5.765      48.816
2014   11       23    11  18    5.4153   401.3    5.773      48.808
2014   11       23    11  24    5.4197   401.2    5.781      48.800
2014   11       23    11  29    5.4241   401.1    5.789      48.792
2014   11       23    11  34    5.4284   400.9    5.798      48.785
2014   11       23    11  39    5.4331   400.8    5.806      48.777
2014   11       23    11  44    5.4377   400.6    5.814      48.770
2014   11       23    11  49    5.4421   400.5    5.823      48.764
2014   11       23    11  54    5.4469   400.3    5.831      48.758
2014   11       23    11  59    5.4514   400.2    5.839      48.751
2014   11       23    12   4    5.4561   400.1    5.848      48.746
2014   11       23    12   9    5.4610   399.9    5.857      48.740
2014   11       23    12  14    5.4656   399.8    5.865      48.735
2014   11       23    12  19    5.4704   399.6    5.874      48.730
2014   11       23    12  24    5.4753   399.5    5.883      48.725
2014   11       23    12  29    5.4802   399.4    5.891      48.721
2014   11       23    12  35    5.4851   399.2    5.900      48.716
2014   11       23    12  40    5.4901   399.1    5.909      48.712
2014   11       23    12  45    5.4951   399.0    5.918      48.709
2014   11       23    12  50    5.5001   398.8    5.927      48.705
2014   11       23    12  55    5.5054   398.7    5.936      48.702
2014   11       23    13   0    5.5105   398.6    5.945      48.699
2014   11       23    13   5    5.5156   398.4    5.954      48.696
2014   11       23    13  10    5.5206   398.3    5.963      48.693
2014   11       23    13  15    5.5258   398.2    5.973      48.690
2014   11       23    13  20    5.5310   398.0    5.982      48.687
2014   11       23    13  25    5.5364   397.9    5.991      48.685
2014   11       23    13  30    5.5417   397.8    6.000      48.682
2014   11       23    13  35    5.5468   397.7    6.009      48.680
2014   11       23    13  40    5.5523   397.5    6.018      48.678
2014   11       23    13  46    5.5577   397.4    6.028      48.675
2014   11       23    13  51    5.5630   397.3    6.037      48.673
2014   11       23    13  56    5.5682   397.2    6.046      48.671
2014   11       23    14   1    5.5738   397.0    6.055      48.669
2014   11       23    14   6    5.5792   396.9    6.064      48.666
2014   11       23    14  11    5.5845   396.8    6.073      48.664
2014   11       23    14  16    5.5899   396.7    6.082      48.661
2014   11       23    14  21    5.5956   396.6    6.091      48.659
2014   11       23    14  26    5.6011   396.4    6.100      48.656
2014   11       23    14  31    5.6064   396.3    6.109      48.654
2014   11       23    14  36    5.6122   396.2    6.118      48.651
2014   11       23    14  41    5.6177   396.1    6.127      48.648
2014   11       23    14  46    5.6233   396.0    6.136      48.645
2014   11       23    14  52    5.6289   395.8    6.145      48.642
2014   11       23    14  57    5.6343   395.7    6.154      48.639
2014   11       23    15   2    5.6399   395.6    6.162      48.635
2014   11       23    15   7    5.6458   395.5    6.171      48.632
2014   11       23    15  12    5.6512   395.4    6.180      48.628
2014   11       23    15  17    5.6571   395.3    6.189      48.624
2014   11       23    15  22    5.6626   395.1    6.197      48.620
2014   11       23    15  27    5.6686   395.0    6.206      48.616
2014   11       23    15  32    5.6741   394.9    6.215      48.612
2014   11       23    15  37    5.6799   394.8    6.223      48.608
2014   11       23    15  42    5.6857   394.7    6.232      48.603
2014   11       23    15  47    5.6915   394.6    6.241      48.599
2014   11       23    15  52    5.6976   394.5    6.249      48.594
2014   11       23    15  58    5.7034   394.4    6.258      48.590
2014   11       23    16   3    5.7093   394.3    6.266      48.585
2014   11       23    16   8    5.7152   394.2    6.275      48.580
2014   11       23    16  13    5.7211   394.1    6.284      48.575
2014   11       23    16  18    5.7268   393.9    6.292      48.571
2014   11       23    16  23    5.7327   393.8    6.301      48.566
2014   11       23    16  28    5.7387   393.7    6.309      48.561
2014   11       23    16  33    5.7449   393.6    6.318      48.556
2014   11       23    16  38    5.7507   393.5    6.327      48.551
2014   11       23    16  43    5.7570   393.4    6.335      48.547
2014   11       23    16  48    5.7630   393.3    6.344      48.542
2014   11       23    16  53    5.7691   393.2    6.353      48.537
2014   11       23    16  59    5.7752   393.1    6.361      48.532
2014   11       23    17   4    5.7811   393.0    6.370      48.528
2014   11       23    17   9    5.7874   392.9    6.379      48.523
2014   11       23    17  14    5.7934   392.8    6.388      48.519
2014   11       23    17  19    5.7998   392.7    6.396      48.515
2014   11       23    17  24    5.8059   392.6    6.405      48.511
2014   11       23    17  29    5.8121   392.5    6.414      48.507
2014   11       23    17  34    5.8182   392.4    6.423      48.503
2014   11       23    17  39    5.8244   392.3    6.432      48.499
2014   11       23    17  44    5.8309   392.2    6.441      48.496
2014   11       23    17  49    5.8372   392.2    6.450      48.492
2014   11       23    17  54    5.8433   392.1    6.459      48.489
2014   11       23    17  59    5.8496   392.0    6.469      48.486
2014   11       23    18   4    5.8562   391.9    6.478      48.484
2014   11       23    18  10    5.8623   391.8    6.487      48.481
2014   11       23    18  15    5.8687   391.7    6.496      48.479
2014   11       23    18  20    5.8751   391.6    6.506      48.477
2014   11       23    18  25    5.8815   391.5    6.515      48.475
2014   11       23    18  30    5.8879   391.4    6.525      48.474
2014   11       23    18  35    5.8944   391.4    6.535      48.473
2014   11       23    18  40    5.9011   391.3    6.544      48.472
2014   11       23    18  45    5.9076   391.2    6.554      48.471
2014   11       23    18  50    5.9141   391.1    6.564      48.471
2014   11       23    18  55    5.9205   391.0    6.574      48.471
2014   11       23    19   0    5.9270   390.9    6.584      48.472
2014   11       23    19   5    5.9336   390.9    6.594      48.472
2014   11       23    19  10    5.9402   390.8    6.605      48.474
2014   11       23    19  15    5.9471   390.7    6.615      48.475
2014   11       23    19  21    5.9537   390.6    6.625      48.477
2014   11       23    19  26    5.9602   390.5    6.636      48.479
2014   11       23    19  31    5.9669   390.5    6.646      48.481
2014   11       23    19  36    5.9738   390.4    6.657      48.484
2014   11       23    19  41    5.9806   390.3    6.668      48.487
2014   11       23    19  46    5.9874   390.2    6.679      48.491
2014   11       23    19  51    5.9940   390.2    6.689      48.495
2014   11       23    19  56    6.0010   390.1    6.700      48.499
2014   11       23    20   1    6.0078   390.0    6.712      48.504
2014   11       23    20   6    6.0145   389.9    6.723      48.508
2014   11       23    20  11    6.0214   389.9    6.734      48.513
2014   11       23    20  16    6.0283   389.8    6.745      48.519
2014   11       23    20  21    6.0352   389.7    6.757      48.524
2014   11       23    20  26    6.0423   389.7    6.768      48.530
2014   11       23    20  31    6.0491   389.6    6.779      48.536
2014   11       23    20  36    6.0561   389.5    6.791      48.543
2014   11       23    20  41    6.0633   389.5    6.803      48.549
2014   11       23    20  47    6.0701   389.4    6.814      48.556
2014   11       23    20  52    6.0771   389.4    6.826      48.563
2014   11       23    20  57    6.0843   389.3    6.838      48.570
2014   11       23    21   2    6.0914   389.2    6.849      48.578
2014   11       23    21   7    6.0984   389.2    6.861      48.585
2014   11       23    21  12    6.1055   389.1    6.873      48.593
2014   11       23    21  17    6.1124   389.1    6.885      48.600
2014   11       23    21  22    6.1197   389.0    6.897      48.608
2014   11       23    21  27    6.1268   388.9    6.909      48.616
2014   11       23    21  32    6.1339   388.9    6.921      48.624
2014   11       23    21  37    6.1410   388.8    6.933      48.632
2014   11       23    21  42    6.1480   388.8    6.945      48.641
2014   11       23    21  47    6.1554   388.7    6.957      48.649
2014   11       23    21  52    6.1624   388.7    6.969      48.658
2014   11       23    21  57    6.1698   388.6    6.981      48.666
2014   11       23    22   3    6.1770   388.6    6.993      48.675
2014   11       23    22   8    6.1841   388.5    7.005      48.684
2014   11       23    22  13    6.1915   388.5    7.017      48.694
2014   11       23    22  18    6.1986   388.4    7.029      48.703
2014   11       23    22  23    6.2059   388.4    7.041      48.713
2014   11       23    22  28    6.2132   388.3    7.052      48.724
2014   11       23    22  33    6.2207   388.3    7.064      48.734
2014   11       23    22  38    6.2279   388.2    7.076      48.745
2014   11       23    22  43    6.2352   388.2    7.088      48.756
2014   11       23    22  48    6.2426   388.1    7.099      48.767
2014   11       23    22  53    6.2498   388.1    7.111      48.778
2014   11       23    22  58    6.2572   388.0    7.122      48.789
2014   11       23    23   3    6.2645   388.0    7.134      48.800
2014   11       23    23   8    6.2718   387.9    7.145      48.811
2014   11       23    23  14    6.2793   387.9    7.156      48.822
2014   11       23    23  19    6.2864   387.9    7.167      48.834
2014   11       23    23  24    6.2937   387.8    7.178      48.845
2014   11       23    23  29    6.3010   387.8    7.189      48.856
2014   11       23    23  34    6.3084   387.7    7.200      48.867
2014   11       23    23  39    6.3156   387.7    7.211      48.878
2014   11       23    23  44    6.3228   387.7    7.222      48.889
2014   11       23    23  49    6.3302   387.6    7.233      48.900
2014   11       23    23  54    6.3373   387.6    7.243      48.910
2014   11       23    23  59    6.3446   387.6    7.254      48.920
2014   11       24     0   4    6.3519   387.5    7.264      48.930
2014   11       24     0   9    6.3591   387.5    7.274      48.939
2014   11       24     0  14    6.3663   387.5    7.285      48.949
2014   11       24     0  19    6.3735   387.4    7.295      48.958
2014   11       24     0  25    6.3806   387.4    7.305      48.967
2014   11       24     0  30    6.3877   387.4    7.315      48.975
2014   11       24     0  35    6.3949   387.3    7.325      48.984
2014   11       24     0  40    6.4020   387.3    7.335      48.992
2014   11       24     0  45    6.4090   387.3    7.345      49.001
2014   11       24     0  50    6.4161   387.3    7.355      49.009
2014   11       24     0  55    6.4233   387.2    7.365      49.017
2014   11       24     1   0    6.4303   387.2    7.374      49.025
2014   11       24     1   5    6.4374   387.2    7.384      49.032
2014   11       24     1  10    6.4444   387.1    7.394      49.040
2014   11       24     1  15    6.4515   387.1    7.403      49.047
2014   11       24     1  20    6.4585   387.1    7.413      49.055
2014   11       24     1  25    6.4656   387.1    7.422      49.062
2014   11       24     1  30    6.4726   387.1    7.432      49.069
2014   11       24     1  35    6.4796   387.0    7.442      49.076
2014   11       24     1  41    6.4866   387.0    7.451      49.083
2014   11       24     1  46    6.4936   387.0    7.460      49.090
2014   11       24     1  51    6.5006   387.0    7.470      49.097
2014   11       24     1  56    6.5076   386.9    7.479      49.104
2014   11       24     2   1    6.5145   386.9    7.489      49.110
2014   11       24     2   6    6.5215   386.9    7.498      49.117
2014   11       24     2  11    6.5285   386.9    7.507      49.124
2014   11       24     2  16    6.5354   386.9    7.517      49.130
2014   11       24     2  21    6.5424   386.9    7.526      49.137
2014   11       24     2  26    6.5493   386.8    7.535      49.144
2014   11       24     2  31    6.5563   386.8    7.545      49.150
2014   11       24     2  36    6.5632   386.8    7.554      49.157
2014   11       24     2  41    6.5701   386.8    7.563      49.163
2014   11       24     2  46    6.5770   386.8    7.573      49.170
2014   11       24     2  51    6.5840   386.8    7.582      49.176
2014   11       24     2  56    6.5909   386.8    7.591      49.182
2014   11       24     3   1    6.5978   386.7    7.601      49.189
2014   11       24     3   7    6.6047   386.7    7.610      49.195
2014   11       24     3  12    6.6116   386.7    7.619      49.202
2014   11       24     3  17    6.6185   386.7    7.629      49.208
2014   11       24     3  22    6.6255   386.7    7.638      49.215
2014   11       24     3  27    6.6324   386.7    7.647      49.221
2014   11       24     3  32    6.6393   386.7    7.657      49.228
2014   11       24     3  37    6.6462   386.7    7.666      49.235
2014   11       24     3  42    6.6531   386.7    7.676      49.241
2014   11       24     3  47    6.6600   386.6    7.685      49.248
2014   11       24     3  52    6.6670   386.6    7.694      49.255
2014   11       24     3  57    6.6739   386.6    7.704      49.262
2014   11       24     4   2    6.6808   386.6    7.713      49.269
2014   11       24     4   7    6.6878   386.6    7.723      49.276
2014   11       24     4  12    6.6947   386.6    7.732      49.283
2014   11       24     4  17    6.7017   386.6    7.742      49.291
2014   11       24     4  22    6.7086   386.6    7.752      49.298
2014   11       24     4  27    6.7156   386.6    7.761      49.306
2014   11       24     4  32    6.7226   386.6    7.771      49.314
2014   11       24     4  38    6.7296   386.6    7.781      49.322
2014   11       24     4  43    6.7366   386.6    7.791      49.330
2014   11       24     4  48    6.7437   386.6    7.800      49.339
2014   11       24     4  53    6.7507   386.6    7.810      49.348
2014   11       24     4  58    6.7578   386.6    7.820      49.357
2014   11       24     5   3    6.7649   386.6    7.830      49.366
2014   11       24     5   8    6.7720   386.6    7.840      49.375
2014   11       24     5  13    6.7791   386.6    7.850      49.385
2014   11       24     5  18    6.7862   386.6    7.860      49.395
2014   11       24     5  23    6.7933   386.6    7.871      49.404
2014   11       24     5  28    6.8005   386.6    7.881      49.415
2014   11       24     5  33    6.8077   386.6    7.891      49.426
2014   11       24     5  38    6.8149   386.6    7.902      49.437
2014   11       24     5  43    6.8221   386.6    7.912      49.449
2014   11       24     5  48    6.8294   386.6    7.922      49.461
2014   11       24     5  53    6.8366   386.6    7.933      49.474
2014   11       24     5  58    6.8439   386.6    7.943      49.487
2014   11       24     6   4    6.8512   386.6    7.954      49.501
2014   11       24     6   9    6.8585   386.6    7.964      49.516
2014   11       24     6  14    6.8658   386.6    7.974      49.530
2014   11       24     6  19    6.8731   386.6    7.985      49.545
2014   11       24     6  24    6.8805   386.6    7.995      49.561
2014   11       24     6  29    6.8879   386.6    8.006      49.577
2014   11       24     6  34    6.8952   386.6    8.016      49.593
2014   11       24     6  39    6.9025   386.6    8.026      49.609
2014   11       24     6  44    6.9099   386.6    8.037      49.626
2014   11       24     6  49    6.9171   386.6    8.047      49.643
2014   11       24     6  54    6.9244   386.6    8.057      49.660
2014   11       24     6  59    6.9318   386.7    8.067      49.678
2014   11       24     7   4    6.9390   386.7    8.077      49.696
2014   11       24     7   9    6.9463   386.7    8.087      49.714
2014   11       24     7  14    6.9535   386.7    8.096      49.732
2014   11       24     7  20    6.9607   386.7    8.106      49.750
2014   11       24     7  25    6.9678   386.7    8.116      49.768
2014   11       24     7  30    6.9750   386.7    8.125      49.786
2014   11       24     7  35    6.9821   386.7    8.134      49.804
2014   11       24     7  40    6.9892   386.8    8.144      49.822
2014   11       24     7  45    6.9963   386.8    8.153      49.840
2014   11       24     7  50    7.0033   386.8    8.162      49.858
2014   11       24     7  55    7.0103   386.8    8.171      49.875
2014   11       24     8   0    7.0173   386.8    8.179      49.893
2014   11       24     8   5    7.0242   386.9    8.188      49.910
2014   11       24     8  10    7.0312   386.9    8.196      49.927
2014   11       24     8  15    7.0381   386.9    8.205      49.944
2014   11       24     8  20    7.0450   386.9    8.213      49.961
2014   11       24     8  25    7.0519   386.9    8.221      49.977
2014   11       24     8  30    7.0586   387.0    8.229      49.992
2014   11       24     8  35    7.0655   387.0    8.237      50.008
2014   11       24     8  41    7.0722   387.0    8.245      50.023
2014   11       24     8  46    7.0790   387.0    8.253      50.038
2014   11       24     8  51    7.0858   387.0    8.261      50.053
2014   11       24     8  56    7.0926   387.1    8.268      50.067
2014   11       24     9   1    7.0993   387.1    8.276      50.081
2014   11       24     9   6    7.1059   387.1    8.283      50.095
2014   11       24     9  11    7.1126   387.1    8.291      50.108
2014   11       24     9  16    7.1193   387.2    8.298      50.122
2014   11       24     9  21    7.1261   387.2    8.305      50.135
2014   11       24     9  26    7.1326   387.2    8.313      50.148
2014   11       24     9  31    7.1394   387.2    8.320      50.161
2014   11       24     9  36    7.1460   387.3    8.327      50.173
2014   11       24     9  41    7.1525   387.3    8.334      50.186
2014   11       24     9  46    7.1591   387.3    8.341      50.198
2014   11       24     9  51    7.1658   387.3    8.348      50.210
2014   11       24     9  56    7.1723   387.4    8.355      50.222
2014   11       24    10   1    7.1790   387.4    8.361      50.233
2014   11       24    10   6    7.1855   387.4    8.368      50.245
2014   11       24    10  11    7.1922   387.4    8.375      50.256
2014   11       24    10  17    7.1986   387.5    8.381      50.268
2014   11       24    10  22    7.2052   387.5    8.388      50.279
2014   11       24    10  27    7.2118   387.5    8.395      50.290
2014   11       24    10  32    7.2184   387.5    8.401      50.301
2014   11       24    10  37    7.2249   387.6    8.408      50.312
2014   11       24    10  42    7.2315   387.6    8.414      50.323
2014   11       24    10  47    7.2381   387.6    8.421      50.334
2014   11       24    10  52    7.2446   387.7    8.427      50.344
2014   11       24    10  57    7.2511   387.7    8.434      50.355
2014   11       24    11   2    7.2577   387.7    8.440      50.366
2014   11       24    11   7    7.2643   387.7    8.447      50.377
2014   11       24    11  12    7.2707   387.8    8.453      50.388
2014   11       24    11  17    7.2774   387.8    8.460      50.399
2014   11       24    11  22    7.2839   387.8    8.466      50.410
2014   11       24    11  27    7.2905   387.9    8.472      50.421
2014   11       24    11  32    7.2971   387.9    8.479      50.432
2014   11       24    11  37    7.3038   387.9    8.485      50.444
2014   11       24    11  42    7.3103   388.0    8.492      50.456
2014   11       24    11  47    7.3169   388.0    8.499      50.468
2014   11       24    11  52    7.3237   388.0    8.505      50.480
2014   11       24    11  58    7.3302   388.1    8.512      50.492
2014   11       24    12   3    7.3369   388.1    8.518      50.505
2014   11       24    12   8    7.3435   388.1    8.525      50.518
2014   11       24    12  13    7.3503   388.2    8.532      50.531
2014   11       24    12  18    7.3569   388.2    8.539      50.545
2014   11       24    12  23    7.3636   388.2    8.546      50.559
2014   11       24    12  28    7.3704   388.3    8.552      50.574
2014   11       24    12  33    7.3770   388.3    8.559      50.588
2014   11       24    12  38    7.3839   388.3    8.567      50.603
2014   11       24    12  43    7.3905   388.4    8.574      50.619
2014   11       24    12  48    7.3972   388.4    8.581      50.635
2014   11       24    12  53    7.4039   388.4    8.588      50.651
2014   11       24    12  58    7.4107   388.5    8.596      50.668
2014   11       24    13   3    7.4174   388.5    8.603      50.686
2014   11       24    13   8    7.4240   388.6    8.610      50.704
2014   11       24    13  13    7.4305   388.6    8.618      50.723
2014   11       24    13  18    7.4372   388.6    8.626      50.742
2014   11       24    13  23    7.4438   388.7    8.633      50.761
2014   11       24    13  29    7.4503   388.7    8.641      50.781
2014   11       24    13  34    7.4567   388.8    8.649      50.802
2014   11       24    13  39    7.4633   388.8    8.657      50.823
2014   11       24    13  44    7.4695   388.9    8.665      50.845
2014   11       24    13  49    7.4759   388.9    8.673      50.867
2014   11       24    13  54    7.4824   388.9    8.680      50.891
2014   11       24    13  59    7.4886   389.0    8.688      50.915
2014   11       24    14   4    7.4949   389.0    8.696      50.940
2014   11       24    14   9    7.5011   389.1    8.704      50.966
2014   11       24    14  14    7.5073   389.1    8.711      50.993
2014   11       24    14  19    7.5133   389.2    8.719      51.020
2014   11       24    14  24    7.5195   389.2    8.726      51.047
2014   11       24    14  29    7.5255   389.3    8.734      51.075
2014   11       24    14  34    7.5315   389.3    8.741      51.104
2014   11       24    14  39    7.5375   389.4    8.748      51.133
2014   11       24    14  44    7.5435   389.4    8.755      51.162
2014   11       24    14  50    7.5493   389.5    8.762      51.191
2014   11       24    14  55    7.5554   389.5    8.769      51.220
2014   11       24    15   0    7.5612   389.6    8.776      51.250
2014   11       24    15   5    7.5671   389.6    8.782      51.279
2014   11       24    15  10    7.5729   389.7    8.789      51.309
2014   11       24    15  15    7.5787   389.7    8.795      51.338
2014   11       24    15  20    7.5844   389.8    8.801      51.367
2014   11       24    15  25    7.5903   389.8    8.807      51.395
2014   11       24    15  30    7.5960   389.9    8.813      51.424
2014   11       24    15  35    7.6018   389.9    8.819      51.452
2014   11       24    15  40    7.6075   390.0    8.825      51.480
2014   11       24    15  45    7.6132   390.0    8.831      51.507
2014   11       24    15  50    7.6189   390.1    8.836      51.535
2014   11       24    15  55    7.6244   390.1    8.842      51.562
2014   11       24    16   0    7.6301   390.2    8.847      51.589
2014   11       24    16   5    7.6359   390.2    8.853      51.616
2014   11       24    16  10    7.6415   390.3    8.858      51.643
2014   11       24    16  15    7.6472   390.3    8.863      51.669
2014   11       24    16  20    7.6528   390.4    8.868      51.696
2014   11       24    16  26    7.6585   390.4    8.873      51.722
2014   11       24    16  31    7.6640   390.5    8.878      51.748
2014   11       24    16  36    7.6698   390.6    8.883      51.774
2014   11       24    16  41    7.6754   390.6    8.887      51.800
2014   11       24    16  46    7.6810   390.7    8.892      51.825
2014   11       24    16  51    7.6866   390.7    8.897      51.851
2014   11       24    16  56    7.6923   390.8    8.901      51.876
2014   11       24    17   1    7.6978   390.8    8.906      51.902
2014   11       24    17   6    7.7035   390.9    8.910      51.927
2014   11       24    17  11    7.7091   390.9    8.914      51.952
2014   11       24    17  16    7.7148   391.0    8.918      51.977
2014   11       24    17  21    7.7204   391.1    8.922      52.002
2014   11       24    17  26    7.7260   391.1    8.927      52.027
2014   11       24    17  31    7.7316   391.2    8.930      52.052
2014   11       24    17  36    7.7371   391.2    8.934      52.077
2014   11       24    17  41    7.7427   391.3    8.938      52.102
2014   11       24    17  46    7.7484   391.4    8.942      52.126
2014   11       24    17  51    7.7539   391.4    8.946      52.150
2014   11       24    17  56    7.7595   391.5    8.949      52.175
2014   11       24    18   1    7.7651   391.5    8.953      52.199
2014   11       24    18   6    7.7706   391.6    8.956      52.223
2014   11       24    18  11    7.7761   391.7    8.960      52.247
2014   11       24    18  16    7.7817   391.7    8.963      52.272
2014   11       24    18  22    7.7872   391.8    8.967      52.296
2014   11       24    18  27    7.7929   391.8    8.970      52.320
2014   11       24    18  32    7.7984   391.9    8.973      52.344
2014   11       24    18  37    7.8040   392.0    8.977      52.368
2014   11       24    18  42    7.8096   392.0    8.980      52.392
2014   11       24    18  47    7.8151   392.1    8.983      52.416
2014   11       24    18  52    7.8206   392.1    8.986      52.440
2014   11       24    18  57    7.8262   392.2    8.989      52.464
2014   11       24    19   2    7.8316   392.3    8.993      52.488
2014   11       24    19   7    7.8373   392.3    8.996      52.512
2014   11       24    19  12    7.8427   392.4    8.999      52.536
2014   11       24    19  17    7.8482   392.5    9.002      52.561
2014   11       24    19  22    7.8537   392.5    9.005      52.585
2014   11       24    19  27    7.8594   392.6    9.009      52.610
2014   11       24    19  32    7.8647   392.7    9.012      52.635
2014   11       24    19  37    7.8703   392.7    9.015      52.660
2014   11       24    19  42    7.8757   392.8    9.018      52.685
2014   11       24    19  47    7.8812   392.9    9.022      52.710
2014   11       24    19  52    7.8865   392.9    9.025      52.736
2014   11       24    19  57    7.8919   393.0    9.028      52.762
2014   11       24    20   2    7.8971   393.1    9.032      52.788
2014   11       24    20   8    7.9024   393.1    9.035      52.815
2014   11       24    20  13    7.9076   393.2    9.038      52.842
2014   11       24    20  18    7.9128   393.3    9.041      52.870
2014   11       24    20  23    7.9180   393.3    9.044      52.899
2014   11       24    20  28    7.9231   393.4    9.048      52.928
2014   11       24    20  33    7.9282   393.5    9.051      52.957
2014   11       24    20  38    7.9333   393.6    9.054      52.986
2014   11       24    20  43    7.9384   393.6    9.056      53.016
2014   11       24    20  48    7.9434   393.7    9.059      53.047
2014   11       24    20  53    7.9484   393.8    9.062      53.077
2014   11       24    20  58    7.9532   393.8    9.065      53.108
2014   11       24    21   3    7.9581   393.9    9.068      53.140
2014   11       24    21   8    7.9629   394.0    9.070      53.171
2014   11       24    21  13    7.9679   394.1    9.073      53.203
2014   11       24    21  18    7.9727   394.1    9.075      53.235
2014   11       24    21  23    7.9775   394.2    9.078      53.267
2014   11       24    21  28    7.9821   394.3    9.080      53.300
2014   11       24    21  33    7.9869   394.3    9.082      53.332
2014   11       24    21  38    7.9917   394.4    9.085      53.365
2014   11       24    21  44    7.9963   394.5    9.087      53.397
2014   11       24    21  49    8.0010   394.6    9.089      53.430
2014   11       24    21  54    8.0058   394.6    9.091      53.463
2014   11       24    21  59    8.0105   394.7    9.093      53.496
2014   11       24    22   4    8.0150   394.8    9.095      53.529
2014   11       24    22   9    8.0198   394.9    9.097      53.562
2014   11       24    22  14    8.0244   394.9    9.100      53.596
2014   11       24    22  19    8.0290   395.0    9.102      53.630
2014   11       24    22  24    8.0335   395.1    9.104      53.664
2014   11       24    22  29    8.0383   395.2    9.106      53.699
2014   11       24    22  34    8.0429   395.2    9.108      53.733
2014   11       24    22  39    8.0475   395.3    9.110      53.768
2014   11       24    22  44    8.0521   395.4    9.112      53.804
2014   11       24    22  49    8.0565   395.5    9.114      53.840
2014   11       24    22  54    8.0611   395.5    9.116      53.876
2014   11       24    22  59    8.0658   395.6    9.118      53.912
2014   11       24    23   4    8.0703   395.7    9.120      53.949
2014   11       24    23   9    8.0748   395.8    9.122      53.986
2014   11       24    23  14    8.0794   395.8    9.124      54.024
2014   11       24    23  20    8.0840   395.9    9.126      54.063
2014   11       24    23  25    8.0885   396.0    9.128      54.102
2014   11       24    23  30    8.0930   396.1    9.130      54.141
2014   11       24    23  35    8.0975   396.2    9.132      54.181
2014   11       24    23  40    8.1021   396.2    9.134      54.221
2014   11       24    23  45    8.1065   396.3    9.136      54.263
2014   11       24    23  50    8.1110   396.4    9.138      54.304
2014   11       24    23  55    8.1154   396.5    9.140      54.346
2014   11       25     0   0    8.1198   396.5    9.142      54.389
2014   11       25     0   5    8.1243   396.6    9.143      54.432
2014   11       25     0  10    8.1286   396.7    9.145      54.476
2014   11       25     0  15    8.1331   396.8    9.147      54.520
2014   11       25     0  20    8.1375   396.9    9.148      54.565
2014   11       25     0  25    8.1419   396.9    9.150      54.611
2014   11       25     0  30    8.1462   397.0    9.151      54.658
2014   11       25     0  35    8.1505   397.1    9.153      54.705
2014   11       25     0  40    8.1549   397.2    9.154      54.752
2014   11       25     0  45    8.1592   397.3    9.155      54.800
2014   11       25     0  50    8.1634   397.3    9.157      54.848
2014   11       25     0  55    8.1677   397.4    9.158      54.896
2014   11       25     1   0    8.1719   397.5    9.159      54.945
2014   11       25     1   5    8.1762   397.6    9.160      54.993
2014   11       25     1  10    8.1805   397.7    9.160      55.042
2014   11       25     1  15    8.1848   397.7    9.161      55.091
2014   11       25     1  21    8.1890   397.8    9.162      55.139
2014   11       25     1  26    8.1931   397.9    9.162      55.188
2014   11       25     1  31    8.1974   398.0    9.163      55.236
2014   11       25     1  36    8.2015   398.1    9.163      55.284
2014   11       25     1  41    8.2058   398.1    9.163      55.332
2014   11       25     1  46    8.2100   398.2    9.164      55.379
2014   11       25     1  51    8.2142   398.3    9.164      55.426
2014   11       25     1  56    8.2183   398.4    9.164      55.472
2014   11       25     2   1    8.2226   398.5    9.164      55.518
2014   11       25     2   6    8.2266   398.5    9.164      55.564
2014   11       25     2  11    8.2308   398.6    9.164      55.609
2014   11       25     2  16    8.2349   398.7    9.164      55.654
2014   11       25     2  21    8.2391   398.8    9.164      55.698
2014   11       25     2  26    8.2433   398.9    9.164      55.742
2014   11       25     2  31    8.2474   398.9    9.163      55.786
2014   11       25     2  36    8.2515   399.0    9.163      55.829
2014   11       25     2  41    8.2556   399.1    9.163      55.872
2014   11       25     2  46    8.2597   399.2    9.162      55.915
2014   11       25     2  51    8.2636   399.3    9.162      55.958
2014   11       25     2  56    8.2677   399.3    9.162      56.000
2014   11       25     3   1    8.2717   399.4    9.161      56.042
2014   11       25     3   6    8.2757   399.5    9.161      56.084
2014   11       25     3  11    8.2799   399.6    9.160      56.125
2014   11       25     3  17    8.2838   399.7    9.160      56.167
2014   11       25     3  22    8.2878   399.8    9.159      56.208
2014   11       25     3  27    8.2919   399.8    9.159      56.249
2014   11       25     3  32    8.2958   399.9    9.158      56.290
2014   11       25     3  37    8.2998   400.0    9.157      56.331
2014   11       25     3  42    8.3038   400.1    9.157      56.373
2014   11       25     3  47    8.3076   400.2    9.156      56.414
2014   11       25     3  52    8.3115   400.2    9.156      56.455
2014   11       25     3  57    8.3155   400.3    9.155      56.496
2014   11       25     4   2    8.3194   400.4    9.155      56.537
2014   11       25     4   7    8.3233   400.5    9.155      56.578
2014   11       25     4  12    8.3272   400.6    9.154      56.620
2014   11       25     4  17    8.3312   400.7    9.154      56.661
2014   11       25     4  22    8.3351   400.7    9.154      56.703
2014   11       25     4  27    8.3391   400.8    9.153      56.745
2014   11       25     4  32    8.3431   400.9    9.153      56.787
2014   11       25     4  37    8.3468   401.0    9.153      56.829
2014   11       25     4  42    8.3508   401.1    9.153      56.872
2014   11       25     4  47    8.3547   401.2    9.153      56.915
2014   11       25     4  53    8.3587   401.3    9.153      56.958
2014   11       25     4  58    8.3626   401.4    9.153      57.001
2014   11       25     5   3    8.3666   401.4    9.153      57.045
2014   11       25     5   8    8.3705   401.5    9.154      57.089
2014   11       25     5  13    8.3745   401.6    9.154      57.133
2014   11       25     5  18    8.3785   401.7    9.155      57.179
2014   11       25     5  23    8.3826   401.8    9.155      57.224
2014   11       25     5  28    8.3865   401.9    9.156      57.270
2014   11       25     5  33    8.3905   402.0    9.157      57.316
2014   11       25     5  38    8.3945   402.1    9.158      57.363
2014   11       25     5  43    8.3985   402.2    9.159      57.411
2014   11       25     5  48    8.4025   402.3    9.160      57.459
2014   11       25     5  53    8.4064   402.4    9.161      57.508
2014   11       25     5  58    8.4103   402.5    9.162      57.559
2014   11       25     6   3    8.4141   402.6    9.163      57.610
2014   11       25     6   8    8.4180   402.7    9.164      57.663
2014   11       25     6  13    8.4219   402.8    9.166      57.718
2014   11       25     6  18    8.4257   402.9    9.167      57.774
2014   11       25     6  23    8.4294   403.0    9.168      57.831
2014   11       25     6  28    8.4331   403.1    9.169      57.890
2014   11       25     6  33    8.4368   403.2    9.170      57.950
2014   11       25     6  39    8.4404   403.3    9.171      58.011
2014   11       25     6  44    8.4439   403.4    9.171      58.073
2014   11       25     6  49    8.4475   403.5    9.172      58.136
2014   11       25     6  54    8.4509   403.7    9.172      58.200
2014   11       25     6  59    8.4544   403.8    9.173      58.266
2014   11       25     7   4    8.4577   403.9    9.173      58.331
2014   11       25     7   9    8.4611   404.0    9.173      58.398
2014   11       25     7  14    8.4644   404.1    9.173      58.465
2014   11       25     7  19    8.4677   404.2    9.172      58.533
2014   11       25     7  24    8.4709   404.3    9.172      58.601
2014   11       25     7  29    8.4741   404.4    9.172      58.669
2014   11       25     7  34    8.4773   404.5    9.171      58.737
2014   11       25     7  39    8.4805   404.6    9.170      58.806
2014   11       25     7  44    8.4835   404.8    9.169      58.874
2014   11       25     7  49    8.4867   404.9    9.168      58.942
2014   11       25     7  54    8.4897   405.0    9.167      59.011
2014   11       25     7  59    8.4927   405.1    9.166      59.079
2014   11       25     8   4    8.4957   405.2    9.164      59.147
2014   11       25     8   9    8.4987   405.3    9.163      59.215
2014   11       25     8  14    8.5018   405.4    9.161      59.284
2014   11       25     8  19    8.5048   405.5    9.160      59.352
2014   11       25     8  24    8.5077   405.6    9.158      59.420
2014   11       25     8  29    8.5106   405.7    9.156      59.488
2014   11       25     8  34    8.5137   405.8    9.154      59.556
2014   11       25     8  39    8.5165   405.9    9.152      59.624
2014   11       25     8  45    8.5195   406.1    9.150      59.692
2014   11       25     8  50    8.5224   406.2    9.147      59.759
2014   11       25     8  55    8.5253   406.3    9.145      59.827
2014   11       25     9   0    8.5281   406.4    9.143      59.894
2014   11       25     9   5    8.5311   406.5    9.140      59.961
2014   11       25     9  10    8.5338   406.6    9.138      60.028
2014   11       25     9  15    8.5368   406.7    9.135      60.094
2014   11       25     9  20    8.5395   406.8    9.132      60.161
2014   11       25     9  25    8.5425   406.9    9.130      60.227
2014   11       25     9  30    8.5452   407.0    9.127      60.293
2014   11       25     9  35    8.5480   407.1    9.124      60.358
2014   11       25     9  40    8.5509   407.2    9.121      60.423
2014   11       25     9  45    8.5536   407.3    9.118      60.488
2014   11       25     9  50    8.5565   407.4    9.115      60.553
2014   11       25     9  55    8.5592   407.6    9.112      60.617
2014   11       25    10   0    8.5619   407.7    9.109      60.681
2014   11       25    10   5    8.5648   407.8    9.105      60.744
2014   11       25    10  10    8.5676   407.9    9.102      60.807
2014   11       25    10  15    8.5702   408.0    9.099      60.870
2014   11       25    10  20    8.5729   408.1    9.096      60.932
2014   11       25    10  25    8.5757   408.2    9.093      60.994
2014   11       25    10  30    8.5784   408.3    9.089      61.055
2014   11       25    10  35    8.5813   408.4    9.086      61.116
2014   11       25    10  41    8.5840   408.5    9.083      61.177
2014   11       25    10  46    8.5868   408.6    9.080      61.237
2014   11       25    10  51    8.5895   408.7    9.076      61.297
2014   11       25    10  56    8.5923   408.8    9.073      61.357
2014   11       25    11   1    8.5949   408.9    9.070      61.416
2014   11       25    11   6    8.5978   409.0    9.067      61.474
2014   11       25    11  11    8.6006   409.1    9.064      61.533
2014   11       25    11  16    8.6032   409.2    9.061      61.591
2014   11       25    11  21    8.6061   409.3    9.058      61.649
2014   11       25    11  26    8.6090   409.4    9.055      61.706
2014   11       25    11  31    8.6118   409.5    9.053      61.764
2014   11       25    11  36    8.6147   409.6    9.050      61.820
2014   11       25    11  41    8.6174   409.7    9.047      61.877
2014   11       25    11  46    8.6205   409.8    9.045      61.934
2014   11       25    11  51    8.6234   409.9    9.043      61.990
2014   11       25    11  56    8.6264   410.1    9.041      62.047
2014   11       25    12   1    8.6295   410.2    9.039      62.103
2014   11       25    12   6    8.6328   410.3    9.037      62.160
2014   11       25    12  11    8.6360   410.4    9.036      62.216
2014   11       25    12  16    8.6390   410.5    9.034      62.273
2014   11       25    12  22    8.6424   410.6    9.033      62.330
2014   11       25    12  27    8.6456   410.7    9.032      62.387
2014   11       25    12  32    8.6491   410.8    9.032      62.446
2014   11       25    12  37    8.6525   410.9    9.031      62.506
2014   11       25    12  42    8.6559   411.0    9.031      62.567
2014   11       25    12  47    8.6593   411.1    9.031      62.630
2014   11       25    12  52    8.6628   411.2    9.031      62.694
2014   11       25    12  57    8.6664   411.3    9.031      62.760
2014   11       25    13   2    8.6699   411.5    9.032      62.828
2014   11       25    13   7    8.6734   411.6    9.032      62.899
2014   11       25    13  12    8.6768   411.7    9.032      62.971
2014   11       25    13  17    8.6804   411.8    9.033      63.046
2014   11       25    13  22    8.6836   412.0    9.033      63.123
2014   11       25    13  27    8.6870   412.1    9.033      63.201
2014   11       25    13  32    8.6905   412.3    9.033      63.281
2014   11       25    13  37    8.6936   412.4    9.033      63.363
2014   11       25    13  42    8.6968   412.5    9.032      63.446
2014   11       25    13  47    8.6999   412.7    9.032      63.530
2014   11       25    13  52    8.7030   412.8    9.031      63.615
2014   11       25    13  57    8.7061   413.0    9.030      63.701
2014   11       25    14   3    8.7090   413.1    9.029      63.786
2014   11       25    14   8    8.7118   413.3    9.027      63.872
2014   11       25    14  13    8.7146   413.4    9.025      63.958
2014   11       25    14  18    8.7172   413.6    9.023      64.044
2014   11       25    14  23    8.7199   413.7    9.021      64.130
2014   11       25    14  28    8.7224   413.9    9.018      64.215
2014   11       25    14  33    8.7249   414.0    9.016      64.300
2014   11       25    14  38    8.7273   414.2    9.013      64.384
2014   11       25    14  43    8.7296   414.3    9.009      64.467
2014   11       25    14  48    8.7319   414.5    9.006      64.549
2014   11       25    14  53    8.7342   414.6    9.002      64.631
2014   11       25    14  58    8.7362   414.8    8.998      64.712
2014   11       25    15   3    8.7385   414.9    8.994      64.792
2014   11       25    15   8    8.7404   415.1    8.990      64.872
2014   11       25    15  13    8.7425   415.2    8.986      64.951
2014   11       25    15  18    8.7445   415.4    8.981      65.030
2014   11       25    15  23    8.7465   415.5    8.977      65.108
2014   11       25    15  28    8.7483   415.7    8.972      65.185
2014   11       25    15  33    8.7503   415.8    8.967      65.261
2014   11       25    15  38    8.7520   416.0    8.962      65.337
2014   11       25    15  43    8.7538   416.1    8.957      65.413
2014   11       25    15  48    8.7557   416.3    8.951      65.488
2014   11       25    15  53    8.7573   416.5    8.946      65.562
2014   11       25    15  58    8.7591   416.6    8.940      65.636
2014   11       25    16   3    8.7607   416.8    8.935      65.709
2014   11       25    16   9    8.7623   416.9    8.929      65.782
2014   11       25    16  14    8.7640   417.1    8.923      65.854
2014   11       25    16  19    8.7655   417.2    8.917      65.925
2014   11       25    16  24    8.7671   417.4    8.911      65.997
2014   11       25    16  29    8.7686   417.5    8.905      66.067
2014   11       25    16  34    8.7701   417.7    8.899      66.138
2014   11       25    16  39    8.7715   417.8    8.893      66.207
2014   11       25    16  44    8.7730   418.0    8.887      66.277
2014   11       25    16  49    8.7745   418.2    8.881      66.346
2014   11       25    16  54    8.7759   418.3    8.875      66.414
2014   11       25    16  59    8.7772   418.5    8.868      66.482
2014   11       25    17   4    8.7785   418.6    8.862      66.550
2014   11       25    17   9    8.7800   418.8    8.855      66.617
2014   11       25    17  14    8.7813   418.9    8.849      66.684
2014   11       25    17  19    8.7826   419.1    8.843      66.751
2014   11       25    17  24    8.7838   419.2    8.836      66.817
2014   11       25    17  29    8.7850   419.4    8.830      66.883
2014   11       25    17  34    8.7863   419.5    8.823      66.949
2014   11       25    17  39    8.7875   419.7    8.817      67.015
2014   11       25    17  44    8.7886   419.9    8.810      67.080
2014   11       25    17  49    8.7897   420.0    8.803      67.145
2014   11       25    17  54    8.7910   420.2    8.797      67.210
2014   11       25    17  59    8.7920   420.3    8.790      67.274
2014   11       25    18   4    8.7931   420.5    8.784      67.338
2014   11       25    18  10    8.7942   420.6    8.777      67.402
2014   11       25    18  15    8.7954   420.8    8.771      67.466
2014   11       25    18  20    8.7963   420.9    8.764      67.529
2014   11       25    18  25    8.7975   421.1    8.758      67.593
2014   11       25    18  30    8.7985   421.3    8.751      67.656
2014   11       25    18  35    8.7995   421.4    8.745      67.719
2014   11       25    18  40    8.8005   421.6    8.738      67.782
2014   11       25    18  45    8.8016   421.7    8.732      67.845
2014   11       25    18  50    8.8026   421.9    8.726      67.908
2014   11       25    18  55    8.8034   422.0    8.719      67.971
2014   11       25    19   0    8.8044   422.2    8.713      68.033
2014   11       25    19   5    8.8054   422.3    8.707      68.096
2014   11       25    19  10    8.8066   422.5    8.701      68.158
2014   11       25    19  15    8.8074   422.6    8.695      68.221
2014   11       25    19  20    8.8084   422.8    8.690      68.283
2014   11       25    19  25    8.8094   423.0    8.684      68.346
2014   11       25    19  30    8.8104   423.1    8.678      68.410
2014   11       25    19  35    8.8116   423.3    8.673      68.474
2014   11       25    19  41    8.8124   423.4    8.667      68.539
2014   11       25    19  46    8.8134   423.6    8.661      68.605
2014   11       25    19  51    8.8144   423.8    8.656      68.671
2014   11       25    19  56    8.8153   423.9    8.650      68.738
2014   11       25    20   1    8.8165   424.1    8.645      68.805
2014   11       25    20   6    8.8172   424.2    8.639      68.873
2014   11       25    20  11    8.8181   424.4    8.634      68.942
2014   11       25    20  16    8.8192   424.6    8.628      69.011
2014   11       25    20  21    8.8198   424.7    8.622      69.080
2014   11       25    20  26    8.8205   424.9    8.617      69.150
2014   11       25    20  31    8.8213   425.1    8.611      69.221
2014   11       25    20  36    8.8220   425.2    8.605      69.292
2014   11       25    20  41    8.8227   425.4    8.599      69.364
2014   11       25    20  46    8.8233   425.6    8.593      69.435
2014   11       25    20  51    8.8241   425.7    8.586      69.507
2014   11       25    20  56    8.8246   425.9    8.580      69.579
2014   11       25    21   1    8.8248   426.1    8.574      69.651
2014   11       25    21   6    8.8253   426.3    8.567      69.722
2014   11       25    21  11    8.8257   426.4    8.560      69.794
2014   11       25    21  16    8.8262   426.6    8.553      69.865
2014   11       25    21  22    8.8265   426.8    8.547      69.936
2014   11       25    21  27    8.8268   426.9    8.540      70.007
2014   11       25    21  32    8.8270   427.1    8.532      70.078
2014   11       25    21  37    8.8269   427.3    8.525      70.148
2014   11       25    21  42    8.8270   427.5    8.518      70.219
2014   11       25    21  47    8.8271   427.6    8.511      70.289
2014   11       25    21  52    8.8274   427.8    8.503      70.359
2014   11       25    21  57    8.8274   428.0    8.496      70.429
2014   11       25    22   2    8.8271   428.2    8.488      70.499
2014   11       25    22   7    8.8273   428.3    8.481      70.568
2014   11       25    22  12    8.8272   428.5    8.473      70.638
2014   11       25    22  17    8.8269   428.7    8.465      70.707
2014   11       25    22  22    8.8267   428.9    8.457      70.776
2014   11       25    22  27    8.8267   429.0    8.449      70.844
2014   11       25    22  32    8.8263   429.2    8.441      70.913
2014   11       25    22  37    8.8260   429.4    8.433      70.981
2014   11       25    22  42    8.8257   429.6    8.425      71.049
2014   11       25    22  47    8.8254   429.7    8.417      71.117
2014   11       25    22  52    8.8252   429.9    8.409      71.185
2014   11       25    22  57    8.8246   430.1    8.401      71.253
2014   11       25    23   2    8.8244   430.3    8.393      71.320
2014   11       25    23   7    8.8239   430.4    8.384      71.387
2014   11       25    23  12    8.8232   430.6    8.376      71.454
2014   11       25    23  17    8.8227   430.8    8.368      71.521
2014   11       25    23  23    8.8224   431.0    8.359      71.587
2014   11       25    23  28    8.8218   431.2    8.351      71.654
2014   11       25    23  33    8.8209   431.3    8.342      71.720
2014   11       25    23  38    8.8205   431.5    8.334      71.786
2014   11       25    23  43    8.8196   431.7    8.326      71.852
2014   11       25    23  48    8.8188   431.9    8.317      71.917
2014   11       25    23  53    8.8181   432.1    8.308      71.983
2014   11       25    23  58    8.8173   432.2    8.300      72.048
2014   11       26     0   3    8.8167   432.4    8.291      72.113
2014   11       26     0   8    8.8158   432.6    8.283      72.177
2014   11       26     0  13    8.8147   432.8    8.274      72.242
2014   11       26     0  18    8.8138   433.0    8.266      72.306
2014   11       26     0  23    8.8128   433.1    8.257      72.370
2014   11       26     0  28    8.8120   433.3    8.248      72.433
2014   11       26     0  33    8.8110   433.5    8.240      72.497
2014   11       26     0  38    8.8097   433.7    8.231      72.560
2014   11       26     0  43    8.8086   433.9    8.222      72.623
2014   11       26     0  48    8.8074   434.1    8.213      72.685
2014   11       26     0  53    8.8065   434.2    8.205      72.748
2014   11       26     0  58    8.8053   434.4    8.196      72.810
2014   11       26     1   3    8.8038   434.6    8.187      72.871
2014   11       26     1   8    8.8025   434.8    8.178      72.933
2014   11       26     1  13    8.8014   435.0    8.170      72.994
2014   11       26     1  19    8.7998   435.2    8.161      73.054
2014   11       26     1  24    8.7985   435.4    8.152      73.115
2014   11       26     1  29    8.7973   435.5    8.143      73.175
2014   11       26     1  34    8.7958   435.7    8.134      73.234
2014   11       26     1  39    8.7941   435.9    8.126      73.294
2014   11       26     1  44    8.7928   436.1    8.117      73.353
2014   11       26     1  49    8.7912   436.3    8.108      73.412
2014   11       26     1  54    8.7894   436.4    8.099      73.471
2014   11       26     1  59    8.7878   436.6    8.091      73.529
2014   11       26     2   4    8.7862   436.8    8.082      73.587
2014   11       26     2   9    8.7845   437.0    8.073      73.645
2014   11       26     2  14    8.7831   437.2    8.065      73.702
2014   11       26     2  19    8.7814   437.4    8.056      73.760
2014   11       26     2  24    8.7796   437.5    8.048      73.817
2014   11       26     2  29    8.7779   437.7    8.039      73.874
2014   11       26     2  34    8.7758   437.9    8.031      73.931
2014   11       26     2  39    8.7740   438.1    8.022      73.988
2014   11       26     2  44    8.7721   438.3    8.014      74.044
2014   11       26     2  49    8.7703   438.4    8.005      74.101
2014   11       26     2  55    8.7684   438.6    7.997      74.157
2014   11       26     3   0    8.7665   438.8    7.989      74.213
2014   11       26     3   5    8.7646   439.0    7.980      74.269
2014   11       26     3  10    8.7629   439.2    7.972      74.326
2014   11       26     3  15    8.7609   439.3    7.964      74.382
2014   11       26     3  20    8.7589   439.5    7.956      74.438
2014   11       26     3  25    8.7569   439.7    7.948      74.494
2014   11       26     3  30    8.7548   439.9    7.939      74.549
2014   11       26     3  35    8.7527   440.0    7.931      74.605
2014   11       26     3  40    8.7503   440.2    7.923      74.661
2014   11       26     3  45    8.7481   440.4    7.915      74.716
2014   11       26     3  50    8.7463   440.6    7.907      74.772
2014   11       26     3  55    8.7441   440.8    7.899      74.827
2014   11       26     4   0    8.7415   440.9    7.891      74.883
2014   11       26     4   5    8.7393   441.1    7.883      74.938
2014   11       26     4  10    8.7373   441.3    7.875      74.993
2014   11       26     4  15    8.7347   441.5    7.867      75.048
2014   11       26     4  20    8.7323   441.6    7.859      75.103
2014   11       26     4  26    8.7300   441.8    7.851      75.157
2014   11       26     4  31    8.7276   442.0    7.843      75.212
2014   11       26     4  36    8.7255   442.2    7.834      75.266
2014   11       26     4  41    8.7228   442.3    7.826      75.321
2014   11       26     4  46    8.7207   442.5    7.818      75.375
2014   11       26     4  51    8.7182   442.7    7.810      75.429
2014   11       26     4  56    8.7154   442.9    7.802      75.483
2014   11       26     5   1    8.7129   443.0    7.794      75.537
2014   11       26     5   6    8.7104   443.2    7.786      75.591
2014   11       26     5  11    8.7079   443.4    7.778      75.644
2014   11       26     5  16    8.7058   443.6    7.770      75.698
2014   11       26     5  21    8.7029   443.7    7.763      75.751
2014   11       26     5  26    8.7007   443.9    7.755      75.804
2014   11       26     5  31    8.6982   444.1    7.747      75.858
2014   11       26     5  36    8.6956   444.3    7.739      75.910
2014   11       26     5  41    8.6931   444.4    7.731      75.963
2014   11       26     5  46    8.6902   444.6    7.723      76.016
2014   11       26     5  51    8.6877   444.8    7.715      76.069
2014   11       26     5  56    8.6851   445.0    7.707      76.121
2014   11       26     6   1    8.6826   445.1    7.700      76.173
2014   11       26     6   6    8.6800   445.3    7.692      76.226
2014   11       26     6  11    8.6775   445.5    7.684      76.278
2014   11       26     6  17    8.6752   445.7    7.676      76.330
2014   11       26     6  22    8.6727   445.8    7.668      76.381
2014   11       26     6  27    8.6700   446.0    7.660      76.433
2014   11       26     6  32    8.6671   446.2    7.653      76.484
2014   11       26     6  37    8.6648   446.4    7.645      76.535
2014   11       26     6  42    8.6621   446.6    7.637      76.586
2014   11       26     6  47    8.6592   446.7    7.629      76.636
2014   11       26     6  52    8.6564   446.9    7.621      76.686
2014   11       26     6  57    8.6540   447.1    7.613      76.736
2014   11       26     7   2    8.6509   447.3    7.605      76.786
2014   11       26     7   7    8.6481   447.4    7.597      76.835
2014   11       26     7  12    8.6453   447.6    7.589      76.884
2014   11       26     7  17    8.6427   447.8    7.581      76.933
2014   11       26     7  22    8.6398   448.0    7.573      76.981
2014   11       26     7  27    8.6366   448.2    7.565      77.030
2014   11       26     7  32    8.6337   448.3    7.557      77.078
2014   11       26     7  37    8.6307   448.5    7.548      77.125
2014   11       26     7  42    8.6280   448.7    7.540      77.173
2014   11       26     7  47    8.6249   448.9    7.532      77.220
2014   11       26     7  52    8.6216   449.1    7.524      77.267
2014   11       26     7  57    8.6185   449.2    7.516      77.313
2014   11       26     8   2    8.6154   449.4    7.508      77.359
2014   11       26     8   7    8.6125   449.6    7.499      77.406
2014   11       26     8  13    8.6090   449.8    7.491      77.451
2014   11       26     8  18    8.6061   450.0    7.483      77.497
2014   11       26     8  23    8.6028   450.1    7.475      77.542
2014   11       26     8  28    8.5996   450.3    7.467      77.587
2014   11       26     8  33    8.5962   450.5    7.458      77.631
2014   11       26     8  38    8.5927   450.7    7.450      77.676
2014   11       26     8  43    8.5895   450.9    7.442      77.720
2014   11       26     8  48    8.5859   451.0    7.434      77.764
2014   11       26     8  53    8.5824   451.2    7.426      77.807
2014   11       26     8  58    8.5792   451.4    7.418      77.851
2014   11       26     9   3    8.5755   451.6    7.410      77.894
2014   11       26     9   8    8.5720   451.7    7.402      77.936
2014   11       26     9  13    8.5684   451.9    7.394      77.979
2014   11       26     9  18    8.5648   452.1    7.385      78.021
2014   11       26     9  23    8.5615   452.3    7.377      78.063
2014   11       26     9  28    8.5576   452.5    7.370      78.105
2014   11       26     9  33    8.5540   452.6    7.362      78.146
2014   11       26     9  38    8.5503   452.8    7.354      78.187
2014   11       26     9  44    8.5466   453.0    7.346      78.228
2014   11       26     9  49    8.5431   453.2    7.338      78.269
2014   11       26     9  54    8.5391   453.3    7.330      78.309
2014   11       26     9  59    8.5355   453.5    7.322      78.349
2014   11       26    10   4    8.5315   453.7    7.314      78.389
2014   11       26    10   9    8.5277   453.9    7.307      78.429
2014   11       26    10  14    8.5238   454.0    7.299      78.468
2014   11       26    10  19    8.5201   454.2    7.291      78.507
2014   11       26    10  24    8.5162   454.4    7.284      78.546
2014   11       26    10  29    8.5123   454.6    7.276      78.584
2014   11       26    10  34    8.5081   454.7    7.268      78.622
2014   11       26    10  39    8.5042   454.9    7.261      78.660
2014   11       26    10  44    8.5004   455.1    7.253      78.698
2014   11       26    10  49    8.4964   455.2    7.246      78.736
2014   11       26    10  54    8.4922   455.4    7.238      78.773
2014   11       26    10  59    8.4883   455.6    7.231      78.810
2014   11       26    11   4    8.4843   455.8    7.223      78.847
2014   11       26    11  10    8.4802   455.9    7.216      78.884
2014   11       26    11  15    8.4762   456.1    7.209      78.921
2014   11       26    11  20    8.4719   456.3    7.201      78.957
2014   11       26    11  25    8.4680   456.4    7.194      78.994
2014   11       26    11  30    8.4640   456.6    7.187      79.030
2014   11       26    11  35    8.4599   456.8    7.180      79.066
2014   11       26    11  40    8.4557   456.9    7.173      79.102
2014   11       26    11  45    8.4516   457.1    7.165      79.138
2014   11       26    11  50    8.4475   457.3    7.158      79.174
2014   11       26    11  55    8.4436   457.5    7.151      79.209
2014   11       26    12   0    8.4394   457.6    7.144      79.245
2014   11       26    12   5    8.4353   457.8    7.137      79.280
2014   11       26    12  10    8.4313   458.0    7.130      79.316
2014   11       26    12  15    8.4274   458.1    7.124      79.351
2014   11       26    12  20    8.4233   458.3    7.117      79.386
2014   11       26    12  25    8.4193   458.5    7.110      79.422
2014   11       26    12  30    8.4152   458.6    7.103      79.457
2014   11       26    12  35    8.4112   458.8    7.096      79.492
2014   11       26    12  40    8.4072   459.0    7.090      79.527
2014   11       26    12  46    8.4032   459.1    7.083      79.562
2014   11       26    12  51    8.3993   459.3    7.077      79.597
2014   11       26    12  56    8.3955   459.5    7.070      79.632
2014   11       26    13   1    8.3914   459.6    7.064      79.667
2014   11       26    13   6    8.3876   459.8    7.057      79.702
2014   11       26    13  11    8.3837   459.9    7.051      79.737
2014   11       26    13  16    8.3797   460.1    7.045      79.771
2014   11       26    13  21    8.3758   460.3    7.039      79.806
2014   11       26    13  26    8.3720   460.4    7.033      79.840
2014   11       26    13  31    8.3681   460.6    7.026      79.874
2014   11       26    13  36    8.3642   460.8    7.020      79.908
2014   11       26    13  41    8.3604   460.9    7.014      79.942
2014   11       26    13  46    8.3566   461.1    7.008      79.976
2014   11       26    13  51    8.3529   461.3    7.002      80.009
2014   11       26    13  56    8.3489   461.4    6.996      80.042
2014   11       26    14   1    8.3452   461.6    6.990      80.075
2014   11       26    14   6    8.3413   461.8    6.984      80.107
2014   11       26    14  11    8.3375   461.9    6.978      80.138
2014   11       26    14  16    8.3335   462.1    6.972      80.170
2014   11       26    14  21    8.3296   462.3    6.966      80.201
2014   11       26    14  26    8.3257   462.4    6.960      80.231
2014   11       26    14  32    8.3218   462.6    6.954      80.260
2014   11       26    14  37    8.3179   462.8    6.948      80.290
2014   11       26    14  42    8.3139   462.9    6.942      80.319
2014   11       26    14  47    8.3099   463.1    6.936      80.347
2014   11       26    14  52    8.3058   463.2    6.930      80.375
2014   11       26    14  57    8.3017   463.4    6.923      80.403
2014   11       26    15   2    8.2976   463.6    6.917      80.430
2014   11       26    15   7    8.2935   463.7    6.911      80.457
2014   11       26    15  12    8.2894   463.9    6.905      80.483
2014   11       26    15  17    8.2852   464.1    6.898      80.509
2014   11       26    15  22    8.2809   464.2    6.892      80.535
2014   11       26    15  27    8.2766   464.4    6.885      80.560
2014   11       26    15  32    8.2725   464.6    6.879      80.585
2014   11       26    15  37    8.2682   464.7    6.872      80.609
2014   11       26    15  42    8.2639   464.9    6.866      80.633
2014   11       26    15  47    8.2595   465.1    6.859      80.657
2014   11       26    15  52    8.2551   465.2    6.853      80.680
2014   11       26    15  57    8.2507   465.4    6.846      80.703
2014   11       26    16   2    8.2463   465.6    6.840      80.726
2014   11       26    16   8    8.2418   465.7    6.833      80.749
2014   11       26    16  13    8.2373   465.9    6.826      80.770
2014   11       26    16  18    8.2328   466.1    6.819      80.792
2014   11       26    16  23    8.2283   466.2    6.813      80.813
2014   11       26    16  28    8.2236   466.4    6.806      80.834
2014   11       26    16  33    8.2191   466.5    6.799      80.855
2014   11       26    16  38    8.2144   466.7    6.792      80.875
2014   11       26    16  43    8.2098   466.9    6.786      80.895
2014   11       26    16  48    8.2052   467.0    6.779      80.914
2014   11       26    16  53    8.2004   467.2    6.772      80.933
2014   11       26    16  58    8.1957   467.4    6.765      80.952
2014   11       26    17   3    8.1910   467.5    6.758      80.970
2014   11       26    17   8    8.1861   467.7    6.751      80.988
2014   11       26    17  13    8.1813   467.8    6.745      81.006
2014   11       26    17  18    8.1764   468.0    6.738      81.023
2014   11       26    17  23    8.1715   468.2    6.731      81.040
2014   11       26    17  29    8.1667   468.3    6.724      81.056
2014   11       26    17  34    8.1617   468.5    6.717      81.073
2014   11       26    17  39    8.1568   468.6    6.710      81.088
2014   11       26    17  44    8.1519   468.8    6.703      81.104
2014   11       26    17  49    8.1468   469.0    6.696      81.119
2014   11       26    17  54    8.1419   469.1    6.689      81.134
2014   11       26    17  59    8.1369   469.3    6.682      81.149
2014   11       26    18   4    8.1318   469.4    6.675      81.163
2014   11       26    18   9    8.1268   469.6    6.668      81.177
2014   11       26    18  14    8.1217   469.8    6.662      81.191
2014   11       26    18  19    8.1167   469.9    6.655      81.204
2014   11       26    18  24    8.1115   470.1    6.648      81.217
2014   11       26    18  29    8.1065   470.2    6.641      81.230
2014   11       26    18  34    8.1014   470.4    6.634      81.243
2014   11       26    18  39    8.0963   470.5    6.628      81.255
2014   11       26    18  44    8.0912   470.7    6.621      81.268
2014   11       26    18  50    8.0861   470.9    6.614      81.279
2014   11       26    18  55    8.0810   471.0    6.607      81.291
2014   11       26    19   0    8.0760   471.2    6.601      81.303
2014   11       26    19   5    8.0710   471.3    6.594      81.314
2014   11       26    19  10    8.0659   471.5    6.588      81.325
2014   11       26    19  15    8.0608   471.6    6.581      81.336
2014   11       26    19  20    8.0557   471.8    6.575      81.347
2014   11       26    19  25    8.0507   471.9    6.568      81.358
2014   11       26    19  30    8.0456   472.1    6.562      81.369
2014   11       26    19  35    8.0406   472.2    6.555      81.379
2014   11       26    19  40    8.0356   472.4    6.549      81.389
2014   11       26    19  45    8.0306   472.6    6.543      81.400
2014   11       26    19  50    8.0256   472.7    6.537      81.410
2014   11       26    19  55    8.0205   472.9    6.530      81.420
2014   11       26    20   0    8.0154   473.0    6.524      81.430
2014   11       26    20   5    8.0104   473.2    6.518      81.440
2014   11       26    20  10    8.0054   473.3    6.512      81.450
2014   11       26    20  16    8.0004   473.5    6.506      81.460
2014   11       26    20  21    7.9954   473.6    6.500      81.469
2014   11       26    20  26    7.9904   473.8    6.494      81.479
2014   11       26    20  31    7.9854   473.9    6.489      81.489
2014   11       26    20  36    7.9804   474.1    6.483      81.499
2014   11       26    20  41    7.9754   474.2    6.477      81.508
2014   11       26    20  46    7.9705   474.4    6.471      81.517
2014   11       26    20  51    7.9655   474.5    6.466      81.527
2014   11       26    20  56    7.9604   474.7    6.460      81.536
2014   11       26    21   1    7.9554   474.8    6.455      81.545
2014   11       26    21   6    7.9504   474.9    6.449      81.553
2014   11       26    21  11    7.9454   475.1    6.444      81.561
2014   11       26    21  16    7.9404   475.2    6.438      81.570
2014   11       26    21  21    7.9354   475.4    6.433      81.577
2014   11       26    21  26    7.9304   475.5    6.427      81.584
2014   11       26    21  31    7.9254   475.7    6.422      81.591
2014   11       26    21  36    7.9204   475.8    6.417      81.598
2014   11       26    21  41    7.9153   475.9    6.411      81.603
2014   11       26    21  46    7.9103   476.1    6.406      81.609
2014   11       26    21  52    7.9052   476.2    6.400      81.614
2014   11       26    21  57    7.9001   476.4    6.395      81.618
2014   11       26    22   2    7.8950   476.5    6.390      81.622
2014   11       26    22   7    7.8899   476.6    6.384      81.625
2014   11       26    22  12    7.8849   476.8    6.379      81.628
2014   11       26    22  17    7.8797   476.9    6.374      81.631
2014   11       26    22  22    7.8745   477.1    6.368      81.632
2014   11       26    22  27    7.8694   477.2    6.363      81.634
2014   11       26    22  32    7.8642   477.3    6.357      81.634
2014   11       26    22  37    7.8591   477.5    6.352      81.635
2014   11       26    22  42    7.8539   477.6    6.346      81.634
2014   11       26    22  47    7.8487   477.7    6.341      81.633
2014   11       26    22  52    7.8434   477.9    6.335      81.632
2014   11       26    22  57    7.8382   478.0    6.330      81.630
2014   11       26    23   2    7.8330   478.1    6.324      81.627
2014   11       26    23   7    7.8277   478.3    6.318      81.625
2014   11       26    23  12    7.8223   478.4    6.313      81.621
2014   11       26    23  18    7.8170   478.5    6.307      81.617
2014   11       26    23  23    7.8117   478.7    6.301      81.613
2014   11       26    23  28    7.8063   478.8    6.296      81.608
2014   11       26    23  33    7.8009   478.9    6.290      81.603
2014   11       26    23  38    7.7955   479.1    6.284      81.597
2014   11       26    23  43    7.7901   479.2    6.279      81.591
2014   11       26    23  48    7.7846   479.3    6.273      81.584
2014   11       26    23  53    7.7792   479.4    6.267      81.577
2014   11       26    23  58    7.7736   479.6    6.261      81.570
2014   11       27     0   3    7.7681   479.7    6.256      81.562
2014   11       27     0   8    7.7626   479.8    6.250      81.553
2014   11       27     0  13    7.7570   479.9    6.244      81.545
2014   11       27     0  18    7.7515   480.1    6.238      81.536
2014   11       27     0  23    7.7459   480.2    6.233      81.526
2014   11       27     0  29    7.7404   480.3    6.227      81.517
2014   11       27     0  34    7.7347   480.4    6.221      81.507
2014   11       27     0  39    7.7291   480.6    6.215      81.496
2014   11       27     0  44    7.7235   480.7    6.209      81.486
2014   11       27     0  49    7.7179   480.8    6.204      81.475
2014   11       27     0  54    7.7122   480.9    6.198      81.463
2014   11       27     0  59    7.7065   481.1    6.192      81.451
2014   11       27     1   4    7.7009   481.2    6.186      81.439
2014   11       27     1   9    7.6952   481.3    6.181      81.427
2014   11       27     1  14    7.6896   481.4    6.175      81.414
2014   11       27     1  19    7.6839   481.5    6.169      81.401
2014   11       27     1  24    7.6783   481.6    6.164      81.388
2014   11       27     1  29    7.6726   481.8    6.158      81.374
2014   11       27     1  34    7.6670   481.9    6.152      81.360
2014   11       27     1  40    7.6613   482.0    6.147      81.346
2014   11       27     1  45    7.6557   482.1    6.141      81.331
2014   11       27     1  50    7.6500   482.2    6.136      81.317
2014   11       27     1  55    7.6444   482.4    6.130      81.302
2014   11       27     2   0    7.6388   482.5    6.125      81.286
2014   11       27     2   5    7.6332   482.6    6.119      81.271
2014   11       27     2  10    7.6276   482.7    6.114      81.255
2014   11       27     2  15    7.6220   482.8    6.108      81.239
2014   11       27     2  20    7.6164   482.9    6.103      81.223
2014   11       27     2  25    7.6108   483.0    6.098      81.206
2014   11       27     2  30    7.6052   483.2    6.092      81.189
2014   11       27     2  35    7.5996   483.3    6.087      81.173
2014   11       27     2  40    7.5941   483.4    6.082      81.156
2014   11       27     2  45    7.5885   483.5    6.077      81.139
2014   11       27     2  50    7.5829   483.6    6.071      81.122
2014   11       27     2  55    7.5774   483.7    6.066      81.105
2014   11       27     3   1    7.5719   483.8    6.061      81.087
2014   11       27     3   6    7.5663   483.9    6.056      81.070
2014   11       27     3  11    7.5608   484.0    6.051      81.052
2014   11       27     3  16    7.5553   484.2    6.046      81.035
2014   11       27     3  21    7.5498   484.3    6.041      81.018
2014   11       27     3  26    7.5443   484.4    6.036      81.000
2014   11       27     3  31    7.5389   484.5    6.032      80.983
2014   11       27     3  36    7.5334   484.6    6.027      80.965
2014   11       27     3  41    7.5279   484.7    6.022      80.948
2014   11       27     3  46    7.5225   484.8    6.017      80.930
2014   11       27     3  51    7.5171   484.9    6.013      80.913
2014   11       27     3  56    7.5117   485.0    6.008      80.895
2014   11       27     4   1    7.5063   485.1    6.003      80.878
2014   11       27     4   6    7.5009   485.2    5.999      80.861
2014   11       27     4  11    7.4955   485.3    5.994      80.844
2014   11       27     4  16    7.4901   485.4    5.990      80.827
2014   11       27     4  22    7.4847   485.5    5.985      80.810
2014   11       27     4  27    7.4794   485.6    5.981      80.793
2014   11       27     4  32    7.4741   485.7    5.977      80.775
2014   11       27     4  37    7.4687   485.8    5.972      80.758
2014   11       27     4  42    7.4634   485.9    5.968      80.741
2014   11       27     4  47    7.4581   486.0    5.964      80.723
2014   11       27     4  52    7.4528   486.1    5.960      80.705
2014   11       27     4  57    7.4475   486.2    5.955      80.687
2014   11       27     5   2    7.4422   486.3    5.951      80.669
2014   11       27     5   7    7.4369   486.4    5.947      80.651
2014   11       27     5  12    7.4316   486.5    5.943      80.632
2014   11       27     5  17    7.4263   486.6    5.939      80.614
2014   11       27     5  22    7.4211   486.7    5.935      80.595
2014   11       27     5  27    7.4158   486.8    5.931      80.575
2014   11       27     5  32    7.4105   486.9    5.927      80.556
2014   11       27     5  37    7.4052   487.0    5.923      80.536
2014   11       27     5  43    7.3999   487.1    5.918      80.516
2014   11       27     5  48    7.3946   487.2    5.914      80.496
2014   11       27     5  53    7.3893   487.3    5.910      80.475
2014   11       27     5  58    7.3840   487.3    5.906      80.454
2014   11       27     6   3    7.3787   487.4    5.902      80.433
2014   11       27     6   8    7.3734   487.5    5.898      80.411
2014   11       27     6  13    7.3680   487.6    5.894      80.389
2014   11       27     6  18    7.3627   487.7    5.891      80.367
2014   11       27     6  23    7.3573   487.8    5.887      80.344
2014   11       27     6  28    7.3519   487.9    5.883      80.321
2014   11       27     6  33    7.3465   488.0    5.879      80.298
2014   11       27     6  38    7.3411   488.1    5.875      80.274
2014   11       27     6  43    7.3357   488.1    5.871      80.250
2014   11       27     6  48    7.3303   488.2    5.867      80.225
2014   11       27     6  53    7.3249   488.3    5.863      80.200
2014   11       27     6  59    7.3194   488.4    5.859      80.175
2014   11       27     7   4    7.3139   488.5    5.855      80.149
2014   11       27     7   9    7.3085   488.6    5.851      80.124
2014   11       27     7  14    7.3030   488.6    5.847      80.097
2014   11       27     7  19    7.2975   488.7    5.843      80.071
2014   11       27     7  24    7.2920   488.8    5.840      80.044
2014   11       27     7  29    7.2865   488.9    5.836      80.017
2014   11       27     7  34    7.2810   489.0    5.832      79.990
2014   11       27     7  39    7.2755   489.0    5.828      79.963
2014   11       27     7  44    7.2700   489.1    5.824      79.935
2014   11       27     7  49    7.2645   489.2    5.820      79.907
2014   11       27     7  54    7.2590   489.3    5.816      79.878
2014   11       27     8   0    7.2534   489.4    5.813      79.850
2014   11       27     8   5    7.2479   489.4    5.809      79.821
2014   11       27     8  10    7.2424   489.5    5.805      79.792
2014   11       27     8  15    7.2369   489.6    5.801      79.763
2014   11       27     8  20    7.2314   489.6    5.797      79.733
2014   11       27     8  25    7.2259   489.7    5.794      79.703
2014   11       27     8  30    7.2203   489.8    5.790      79.673
2014   11       27     8  35    7.2148   489.9    5.786      79.643
2014   11       27     8  40    7.2093   489.9    5.782      79.612
2014   11       27     8  45    7.2039   490.0    5.778      79.581
2014   11       27     8  50    7.1984   490.1    5.774      79.550
2014   11       27     8  55    7.1929   490.1    5.771      79.519
2014   11       27     9   0    7.1874   490.2    5.767      79.487
2014   11       27     9   6    7.1819   490.3    5.763      79.455
2014   11       27     9  11    7.1765   490.4    5.759      79.423
2014   11       27     9  16    7.1710   490.4    5.755      79.391
2014   11       27     9  21    7.1656   490.5    5.751      79.358
2014   11       27     9  26    7.1601   490.6    5.747      79.325
2014   11       27     9  31    7.1547   490.6    5.743      79.292
2014   11       27     9  36    7.1493   490.7    5.739      79.258
2014   11       27     9  41    7.1438   490.8    5.736      79.224
2014   11       27     9  46    7.1384   490.8    5.732      79.190
2014   11       27     9  51    7.1330   490.9    5.728      79.155
2014   11       27     9  56    7.1276   491.0    5.723      79.120
2014   11       27    10   1    7.1222   491.0    5.719      79.085
2014   11       27    10   6    7.1168   491.1    5.715      79.050
2014   11       27    10  12    7.1114   491.1    5.711      79.014
2014   11       27    10  17    7.1060   491.2    5.707      78.979
2014   11       27    10  22    7.1006   491.3    5.703      78.943
2014   11       27    10  27    7.0953   491.3    5.699      78.907
2014   11       27    10  32    7.0900   491.4    5.695      78.870
2014   11       27    10  37    7.0847   491.4    5.691      78.834
2014   11       27    10  42    7.0793   491.5    5.687      78.798
2014   11       27    10  47    7.0741   491.6    5.683      78.761
2014   11       27    10  52    7.0689   491.6    5.679      78.724
2014   11       27    10  57    7.0635   491.7    5.675      78.688
2014   11       27    11   2    7.0583   491.7    5.671      78.651
2014   11       27    11   7    7.0532   491.8    5.666      78.614
2014   11       27    11  12    7.0479   491.8    5.662      78.577
2014   11       27    11  17    7.0428   491.9    5.658      78.540
2014   11       27    11  22    7.0376   491.9    5.654      78.503
2014   11       27    11  28    7.0325   492.0    5.651      78.466
2014   11       27    11  33    7.0273   492.0    5.647      78.430
2014   11       27    11  38    7.0223   492.1    5.643      78.393
2014   11       27    11  43    7.0172   492.1    5.639      78.356
2014   11       27    11  48    7.0121   492.2    5.635      78.319
2014   11       27    11  53    7.0070   492.2    5.631      78.283
2014   11       27    11  58    7.0021   492.3    5.628      78.246
2014   11       27    12   3    6.9971   492.3    5.624      78.210
2014   11       27    12   8    6.9921   492.4    5.620      78.173
2014   11       27    12  13    6.9872   492.4    5.617      78.137
2014   11       27    12  18    6.9823   492.5    5.613      78.101
2014   11       27    12  23    6.9774   492.5    5.610      78.064
2014   11       27    12  28    6.9724   492.6    5.606      78.028
2014   11       27    12  33    6.9676   492.6    5.603      77.992
2014   11       27    12  38    6.9628   492.7    5.600      77.956
2014   11       27    12  44    6.9579   492.7    5.596      77.920
2014   11       27    12  49    6.9531   492.7    5.593      77.885
2014   11       27    12  54    6.9484   492.8    5.590      77.849
2014   11       27    12  59    6.9437   492.8    5.587      77.813
2014   11       27    13   4    6.9389   492.9    5.584      77.778
2014   11       27    13   9    6.9341   492.9    5.581      77.742
2014   11       27    13  14    6.9295   493.0    5.578      77.706
2014   11       27    13  19    6.9248   493.0    5.576      77.671
2014   11       27    13  24    6.9201   493.0    5.573      77.635
2014   11       27    13  29    6.9154   493.1    5.570      77.600
2014   11       27    13  34    6.9108   493.1    5.567      77.565
2014   11       27    13  39    6.9061   493.2    5.565      77.529
2014   11       27    13  44    6.9013   493.2    5.562      77.494
2014   11       27    13  50    6.8966   493.2    5.560      77.459
2014   11       27    13  55    6.8920   493.3    5.557      77.423
2014   11       27    14   0    6.8873   493.3    5.555      77.388
2014   11       27    14   5    6.8827   493.4    5.553      77.353
2014   11       27    14  10    6.8781   493.4    5.550      77.318
2014   11       27    14  15    6.8733   493.4    5.548      77.282
2014   11       27    14  20    6.8686   493.5    5.546      77.248
2014   11       27    14  25    6.8640   493.5    5.544      77.212
2014   11       27    14  30    6.8593   493.5    5.542      77.177
2014   11       27    14  35    6.8546   493.6    5.540      77.142
2014   11       27    14  40    6.8500   493.6    5.538      77.108
2014   11       27    14  45    6.8454   493.6    5.536      77.073
2014   11       27    14  51    6.8407   493.7    5.534      77.038
2014   11       27    14  56    6.8360   493.7    5.532      77.003
2014   11       27    15   1    6.8313   493.7    5.530      76.968
2014   11       27    15   6    6.8266   493.8    5.528      76.933
2014   11       27    15  11    6.8219   493.8    5.527      76.899
2014   11       27    15  16    6.8172   493.8    5.525      76.864
2014   11       27    15  21    6.8124   493.8    5.523      76.830
2014   11       27    15  26    6.8078   493.9    5.521      76.795
2014   11       27    15  31    6.8032   493.9    5.520      76.760
2014   11       27    15  36    6.7985   493.9    5.518      76.726
2014   11       27    15  41    6.7938   493.9    5.516      76.691
2014   11       27    15  46    6.7892   494.0    5.515      76.657
2014   11       27    15  52    6.7845   494.0    5.513      76.623
2014   11       27    15  57    6.7798   494.0    5.511      76.589
2014   11       27    16   2    6.7752   494.0    5.509      76.555
2014   11       27    16   7    6.7706   494.1    5.508      76.520
2014   11       27    16  12    6.7659   494.1    5.506      76.486
2014   11       27    16  17    6.7612   494.1    5.504      76.452
2014   11       27    16  22    6.7566   494.1    5.503      76.418
2014   11       27    16  27    6.7522   494.1    5.501      76.384
2014   11       27    16  32    6.7476   494.2    5.499      76.350
2014   11       27    16  37    6.7430   494.2    5.497      76.315
2014   11       27    16  42    6.7384   494.2    5.495      76.281
2014   11       27    16  48    6.7339   494.2    5.493      76.246
2014   11       27    16  53    6.7295   494.2    5.492      76.212
2014   11       27    16  58    6.7250   494.2    5.490      76.177
2014   11       27    17   3    6.7205   494.3    5.488      76.142
2014   11       27    17   8    6.7161   494.3    5.486      76.107
2014   11       27    17  13    6.7115   494.3    5.484      76.072
2014   11       27    17  18    6.7073   494.3    5.482      76.037
2014   11       27    17  23    6.7029   494.3    5.480      76.001
2014   11       27    17  28    6.6984   494.3    5.478      75.966
2014   11       27    17  33    6.6941   494.3    5.476      75.930
2014   11       27    17  38    6.6899   494.3    5.474      75.895
2014   11       27    17  43    6.6856   494.4    5.472      75.859
2014   11       27    17  48    6.6812   494.4    5.469      75.823
2014   11       27    17  54    6.6771   494.4    5.467      75.787
2014   11       27    17  59    6.6727   494.4    5.465      75.750
2014   11       27    18   4    6.6685   494.4    5.463      75.713
2014   11       27    18   9    6.6644   494.4    5.461      75.677
2014   11       27    18  14    6.6601   494.4    5.458      75.640
2014   11       27    18  19    6.6560   494.4    5.456      75.603
2014   11       27    18  24    6.6517   494.4    5.454      75.565
2014   11       27    18  29    6.6476   494.4    5.452      75.528
2014   11       27    18  34    6.6434   494.4    5.449      75.490
2014   11       27    18  39    6.6395   494.4    5.447      75.453
2014   11       27    18  44    6.6352   494.4    5.445      75.415
2014   11       27    18  49    6.6311   494.5    5.443      75.377
2014   11       27    18  54    6.6270   494.5    5.440      75.338
2014   11       27    19   0    6.6231   494.5    5.438      75.300
2014   11       27    19   5    6.6189   494.5    5.436      75.262
2014   11       27    19  10    6.6149   494.5    5.433      75.223
2014   11       27    19  15    6.6110   494.5    5.431      75.184
2014   11       27    19  20    6.6069   494.5    5.429      75.146
2014   11       27    19  25    6.6029   494.5    5.426      75.107
2014   11       27    19  30    6.5989   494.5    5.424      75.068
2014   11       27    19  35    6.5949   494.5    5.422      75.029
2014   11       27    19  40    6.5911   494.5    5.420      74.990
2014   11       27    19  45    6.5870   494.5    5.417      74.951
2014   11       27    19  50    6.5831   494.5    5.415      74.911
2014   11       27    19  55    6.5792   494.5    5.413      74.872
2014   11       27    20   0    6.5754   494.5    5.411      74.833
2014   11       27    20   6    6.5715   494.5    5.409      74.793
2014   11       27    20  11    6.5675   494.5    5.407      74.754
2014   11       27    20  16    6.5638   494.5    5.405      74.715
2014   11       27    20  21    6.5599   494.5    5.403      74.676
2014   11       27    20  26    6.5562   494.5    5.401      74.637
2014   11       27    20  31    6.5523   494.5    5.399      74.597
2014   11       27    20  36    6.5486   494.5    5.397      74.558
2014   11       27    20  41    6.5447   494.4    5.395      74.519
2014   11       27    20  46    6.5410   494.4    5.393      74.481
2014   11       27    20  51    6.5374   494.4    5.392      74.442
2014   11       27    20  56    6.5335   494.4    5.390      74.403
2014   11       27    21   2    6.5299   494.4    5.388      74.365
2014   11       27    21   7    6.5261   494.4    5.387      74.326
2014   11       27    21  12    6.5226   494.4    5.385      74.288
2014   11       27    21  17    6.5188   494.4    5.383      74.250
2014   11       27    21  22    6.5153   494.4    5.382      74.213
2014   11       27    21  27    6.5116   494.4    5.381      74.175
2014   11       27    21  32    6.5080   494.4    5.379      74.137
2014   11       27    21  37    6.5044   494.4    5.378      74.100
2014   11       27    21  42    6.5008   494.4    5.377      74.063
2014   11       27    21  47    6.4971   494.4    5.376      74.026
2014   11       27    21  52    6.4935   494.4    5.374      73.990
2014   11       27    21  57    6.4899   494.4    5.373      73.953
2014   11       27    22   3    6.4865   494.4    5.372      73.917
2014   11       27    22   8    6.4829   494.3    5.371      73.881
2014   11       27    22  13    6.4794   494.3    5.370      73.845
2014   11       27    22  18    6.4758   494.3    5.369      73.809
2014   11       27    22  23    6.4722   494.3    5.369      73.773
2014   11       27    22  28    6.4686   494.3    5.368      73.738
2014   11       27    22  33    6.4650   494.3    5.367      73.703
2014   11       27    22  38    6.4616   494.3    5.366      73.668
2014   11       27    22  43    6.4580   494.3    5.365      73.633
2014   11       27    22  48    6.4546   494.3    5.365      73.598
2014   11       27    22  54    6.4510   494.3    5.364      73.563
2014   11       27    22  59    6.4474   494.3    5.363      73.528
2014   11       27    23   4    6.4440   494.2    5.363      73.494
2014   11       27    23   9    6.4403   494.2    5.362      73.459
2014   11       27    23  14    6.4370   494.2    5.361      73.425
2014   11       27    23  19    6.4333   494.2    5.361      73.390
2014   11       27    23  24    6.4299   494.2    5.360      73.356
2014   11       27    23  29    6.4264   494.2    5.360      73.322
2014   11       27    23  34    6.4229   494.2    5.359      73.288
2014   11       27    23  39    6.4194   494.1    5.358      73.254
2014   11       27    23  45    6.4160   494.1    5.358      73.219
2014   11       27    23  50    6.4126   494.1    5.357      73.186
2014   11       27    23  55    6.4091   494.1    5.357      73.152
2014   11       28     0   0    6.4056   494.1    5.356      73.118
