year    month   day   hour  minute  B_enl V_enl   n_enl       T_enl
[year] [month] [day] [hour][minute] [nT]  [km/s]  [cm-3]      [kK]
2014   11       11     0   4    5.5878   594.8    4.036      59.994
2014   11       11     0  10    5.5831   594.9    4.031      59.975
2014   11       11     0  15    5.5783   595.0    4.026      59.956
2014   11       11     0  21    5.5736   595.0    4.021      59.936
2014   11       11     0  26    5.5689   595.1    4.017      59.916
2014   11       11     0  32    5.5642   595.2    4.012      59.895
2014   11       11     0  37    5.5594   595.2    4.007      59.874
2014   11       11     0  43    5.5546   595.3    4.002      59.852
2014   11       11     0  48    5.5498   595.4    3.997      59.830
2014   11       11     0  54    5.5450   595.4    3.993      59.807
2014   11       11     0  59    5.5403   595.5    3.988      59.783
2014   11       11     1   5    5.5355   595.5    3.983      59.760
2014   11       11     1  10    5.5307   595.6    3.978      59.735
2014   11       11     1  16    5.5259   595.6    3.973      59.710
2014   11       11     1  21    5.5211   595.7    3.969      59.685
2014   11       11     1  27    5.5164   595.7    3.964      59.659
2014   11       11     1  33    5.5116   595.8    3.959      59.633
2014   11       11     1  38    5.5068   595.8    3.954      59.606
2014   11       11     1  44    5.5019   595.8    3.949      59.579
2014   11       11     1  49    5.4971   595.9    3.944      59.551
2014   11       11     1  55    5.4923   595.9    3.939      59.523
2014   11       11     2   0    5.4877   596.0    3.935      59.495
2014   11       11     2   6    5.4828   596.0    3.930      59.466
2014   11       11     2  11    5.4781   596.0    3.925      59.436
2014   11       11     2  17    5.4734   596.0    3.920      59.407
2014   11       11     2  22    5.4686   596.1    3.916      59.377
2014   11       11     2  28    5.4637   596.1    3.911      59.347
2014   11       11     2  33    5.4592   596.1    3.906      59.316
2014   11       11     2  39    5.4545   596.1    3.902      59.285
2014   11       11     2  44    5.4496   596.1    3.897      59.254
2014   11       11     2  50    5.4451   596.2    3.892      59.223
2014   11       11     2  55    5.4403   596.2    3.888      59.192
2014   11       11     3   1    5.4359   596.2    3.883      59.160
2014   11       11     3   6    5.4313   596.2    3.879      59.129
2014   11       11     3  12    5.4267   596.2    3.875      59.097
2014   11       11     3  17    5.4222   596.2    3.871      59.066
2014   11       11     3  23    5.4177   596.2    3.866      59.034
2014   11       11     3  28    5.4132   596.2    3.862      59.003
2014   11       11     3  34    5.4087   596.2    3.858      58.971
2014   11       11     3  39    5.4041   596.2    3.854      58.941
2014   11       11     3  45    5.3999   596.2    3.850      58.910
2014   11       11     3  51    5.3956   596.1    3.847      58.879
2014   11       11     3  56    5.3912   596.1    3.843      58.849
2014   11       11     4   2    5.3868   596.1    3.840      58.820
2014   11       11     4   7    5.3827   596.1    3.836      58.791
2014   11       11     4  13    5.3785   596.1    3.833      58.762
2014   11       11     4  18    5.3743   596.1    3.829      58.734
2014   11       11     4  24    5.3701   596.0    3.826      58.706
2014   11       11     4  29    5.3659   596.0    3.823      58.679
2014   11       11     4  35    5.3618   596.0    3.820      58.653
2014   11       11     4  40    5.3579   596.0    3.817      58.627
2014   11       11     4  46    5.3537   595.9    3.814      58.602
2014   11       11     4  51    5.3498   595.9    3.812      58.578
2014   11       11     4  57    5.3459   595.9    3.809      58.555
2014   11       11     5   2    5.3419   595.9    3.806      58.533
2014   11       11     5   8    5.3379   595.8    3.804      58.511
2014   11       11     5  13    5.3341   595.8    3.801      58.489
2014   11       11     5  19    5.3301   595.8    3.799      58.468
2014   11       11     5  24    5.3262   595.8    3.796      58.446
2014   11       11     5  30    5.3225   595.7    3.793      58.425
2014   11       11     5  35    5.3186   595.7    3.791      58.404
2014   11       11     5  41    5.3147   595.7    3.788      58.383
2014   11       11     5  46    5.3110   595.6    3.785      58.362
2014   11       11     5  52    5.3070   595.6    3.783      58.340
2014   11       11     5  57    5.3033   595.6    3.780      58.319
2014   11       11     6   3    5.2995   595.6    3.777      58.296
2014   11       11     6   9    5.2956   595.5    3.775      58.274
2014   11       11     6  14    5.2919   595.5    3.772      58.251
2014   11       11     6  20    5.2880   595.5    3.769      58.228
2014   11       11     6  25    5.2842   595.4    3.766      58.204
2014   11       11     6  31    5.2802   595.4    3.764      58.180
2014   11       11     6  36    5.2765   595.4    3.761      58.156
2014   11       11     6  42    5.2725   595.3    3.758      58.130
2014   11       11     6  47    5.2687   595.3    3.755      58.105
2014   11       11     6  53    5.2649   595.3    3.752      58.079
2014   11       11     6  58    5.2610   595.3    3.749      58.052
2014   11       11     7   4    5.2569   595.2    3.746      58.025
2014   11       11     7   9    5.2530   595.2    3.743      57.997
2014   11       11     7  15    5.2492   595.2    3.740      57.969
2014   11       11     7  20    5.2452   595.1    3.737      57.940
2014   11       11     7  26    5.2412   595.1    3.734      57.911
2014   11       11     7  31    5.2373   595.0    3.731      57.882
2014   11       11     7  37    5.2333   595.0    3.728      57.852
2014   11       11     7  42    5.2293   595.0    3.725      57.822
2014   11       11     7  48    5.2253   594.9    3.722      57.792
2014   11       11     7  53    5.2212   594.9    3.719      57.761
2014   11       11     7  59    5.2172   594.9    3.716      57.730
2014   11       11     8   4    5.2133   594.8    3.713      57.699
2014   11       11     8  10    5.2093   594.8    3.710      57.667
2014   11       11     8  16    5.2053   594.7    3.707      57.636
2014   11       11     8  21    5.2012   594.7    3.704      57.604
2014   11       11     8  27    5.1974   594.6    3.701      57.572
2014   11       11     8  32    5.1934   594.6    3.699      57.539
2014   11       11     8  38    5.1893   594.5    3.696      57.507
2014   11       11     8  43    5.1853   594.5    3.693      57.474
2014   11       11     8  49    5.1814   594.5    3.690      57.441
2014   11       11     8  54    5.1775   594.4    3.688      57.408
2014   11       11     9   0    5.1735   594.4    3.685      57.376
2014   11       11     9   5    5.1694   594.3    3.683      57.343
2014   11       11     9  11    5.1656   594.2    3.680      57.310
2014   11       11     9  16    5.1616   594.2    3.678      57.277
2014   11       11     9  22    5.1577   594.1    3.675      57.244
2014   11       11     9  27    5.1539   594.1    3.673      57.211
2014   11       11     9  33    5.1499   594.0    3.671      57.178
2014   11       11     9  38    5.1461   594.0    3.669      57.145
2014   11       11     9  44    5.1422   593.9    3.667      57.112
2014   11       11     9  49    5.1384   593.8    3.665      57.079
2014   11       11     9  55    5.1346   593.8    3.662      57.046
2014   11       11    10   0    5.1308   593.7    3.661      57.013
2014   11       11    10   6    5.1270   593.6    3.659      56.981
2014   11       11    10  11    5.1232   593.6    3.657      56.948
2014   11       11    10  17    5.1195   593.5    3.655      56.915
2014   11       11    10  23    5.1158   593.4    3.653      56.882
2014   11       11    10  28    5.1119   593.4    3.651      56.849
2014   11       11    10  34    5.1083   593.3    3.649      56.816
2014   11       11    10  39    5.1047   593.2    3.648      56.783
2014   11       11    10  45    5.1009   593.2    3.646      56.750
2014   11       11    10  50    5.0972   593.1    3.644      56.717
2014   11       11    10  56    5.0938   593.0    3.643      56.683
2014   11       11    11   1    5.0900   592.9    3.641      56.649
2014   11       11    11   7    5.0866   592.9    3.639      56.615
2014   11       11    11  12    5.0830   592.8    3.637      56.581
2014   11       11    11  18    5.0795   592.7    3.636      56.547
2014   11       11    11  23    5.0758   592.6    3.634      56.512
2014   11       11    11  29    5.0723   592.5    3.632      56.477
2014   11       11    11  34    5.0690   592.5    3.631      56.442
2014   11       11    11  40    5.0655   592.4    3.629      56.407
2014   11       11    11  45    5.0621   592.3    3.627      56.372
2014   11       11    11  51    5.0585   592.2    3.625      56.336
2014   11       11    11  56    5.0553   592.1    3.624      56.300
2014   11       11    12   2    5.0518   592.0    3.622      56.264
2014   11       11    12   7    5.0485   591.9    3.620      56.228
2014   11       11    12  13    5.0451   591.8    3.618      56.191
2014   11       11    12  18    5.0419   591.7    3.616      56.154
2014   11       11    12  24    5.0385   591.6    3.614      56.117
2014   11       11    12  29    5.0352   591.6    3.612      56.081
2014   11       11    12  35    5.0321   591.5    3.611      56.043
2014   11       11    12  41    5.0288   591.4    3.609      56.006
2014   11       11    12  46    5.0256   591.3    3.607      55.968
2014   11       11    12  52    5.0224   591.2    3.605      55.930
2014   11       11    12  57    5.0192   591.1    3.603      55.892
2014   11       11    13   3    5.0159   591.0    3.601      55.853
2014   11       11    13   8    5.0129   590.9    3.599      55.815
2014   11       11    13  14    5.0097   590.8    3.597      55.776
2014   11       11    13  19    5.0066   590.7    3.595      55.736
2014   11       11    13  25    5.0033   590.6    3.593      55.697
2014   11       11    13  30    5.0002   590.5    3.591      55.657
2014   11       11    13  36    4.9970   590.4    3.589      55.617
2014   11       11    13  41    4.9941   590.3    3.587      55.577
2014   11       11    13  47    4.9908   590.2    3.585      55.536
2014   11       11    13  52    4.9878   590.0    3.583      55.496
2014   11       11    13  58    4.9847   589.9    3.580      55.455
2014   11       11    14   3    4.9816   589.8    3.578      55.413
2014   11       11    14   9    4.9785   589.7    3.576      55.372
2014   11       11    14  14    4.9753   589.6    3.574      55.331
2014   11       11    14  20    4.9722   589.5    3.572      55.289
2014   11       11    14  25    4.9691   589.4    3.570      55.247
2014   11       11    14  31    4.9661   589.3    3.568      55.205
2014   11       11    14  36    4.9631   589.1    3.566      55.163
2014   11       11    14  42    4.9600   589.0    3.564      55.121
2014   11       11    14  48    4.9568   588.9    3.562      55.078
2014   11       11    14  53    4.9537   588.8    3.560      55.036
2014   11       11    14  59    4.9507   588.7    3.559      54.994
2014   11       11    15   4    4.9477   588.6    3.557      54.952
2014   11       11    15  10    4.9446   588.4    3.555      54.909
2014   11       11    15  15    4.9414   588.3    3.553      54.867
2014   11       11    15  21    4.9385   588.2    3.551      54.825
2014   11       11    15  26    4.9354   588.1    3.549      54.783
2014   11       11    15  32    4.9324   588.0    3.548      54.741
2014   11       11    15  37    4.9293   587.8    3.546      54.699
2014   11       11    15  43    4.9263   587.7    3.545      54.657
2014   11       11    15  48    4.9233   587.6    3.543      54.616
2014   11       11    15  54    4.9203   587.5    3.541      54.574
2014   11       11    15  59    4.9172   587.3    3.540      54.533
2014   11       11    16   5    4.9142   587.2    3.539      54.492
2014   11       11    16  10    4.9111   587.1    3.537      54.451
2014   11       11    16  16    4.9082   587.0    3.536      54.410
2014   11       11    16  21    4.9053   586.8    3.535      54.370
2014   11       11    16  27    4.9022   586.7    3.533      54.329
2014   11       11    16  32    4.8993   586.6    3.532      54.289
2014   11       11    16  38    4.8963   586.4    3.531      54.249
2014   11       11    16  43    4.8934   586.3    3.530      54.210
2014   11       11    16  49    4.8905   586.2    3.529      54.170
2014   11       11    16  54    4.8876   586.1    3.528      54.131
2014   11       11    17   0    4.8846   585.9    3.527      54.092
2014   11       11    17   6    4.8818   585.8    3.526      54.053
2014   11       11    17  11    4.8788   585.7    3.525      54.014
2014   11       11    17  17    4.8759   585.5    3.524      53.975
2014   11       11    17  22    4.8730   585.4    3.524      53.936
2014   11       11    17  28    4.8701   585.3    3.523      53.897
2014   11       11    17  33    4.8672   585.1    3.522      53.858
2014   11       11    17  39    4.8644   585.0    3.521      53.819
2014   11       11    17  44    4.8614   584.8    3.521      53.779
2014   11       11    17  50    4.8586   584.7    3.520      53.739
2014   11       11    17  55    4.8557   584.6    3.519      53.700
2014   11       11    18   1    4.8528   584.4    3.518      53.659
2014   11       11    18   6    4.8499   584.3    3.518      53.619
2014   11       11    18  12    4.8470   584.1    3.517      53.578
2014   11       11    18  17    4.8441   584.0    3.516      53.536
2014   11       11    18  23    4.8413   583.8    3.515      53.495
2014   11       11    18  28    4.8384   583.7    3.515      53.453
2014   11       11    18  34    4.8355   583.5    3.514      53.411
2014   11       11    18  39    4.8327   583.4    3.513      53.368
2014   11       11    18  45    4.8299   583.2    3.513      53.326
2014   11       11    18  50    4.8270   583.1    3.512      53.283
2014   11       11    18  56    4.8241   582.9    3.511      53.241
2014   11       11    19   1    4.8214   582.8    3.511      53.198
2014   11       11    19   7    4.8186   582.6    3.510      53.155
2014   11       11    19  12    4.8158   582.4    3.510      53.112
2014   11       11    19  18    4.8130   582.3    3.509      53.069
2014   11       11    19  24    4.8103   582.1    3.509      53.027
2014   11       11    19  29    4.8076   582.0    3.508      52.984
2014   11       11    19  35    4.8049   581.8    3.508      52.942
2014   11       11    19  40    4.8023   581.6    3.508      52.900
2014   11       11    19  46    4.7997   581.5    3.508      52.858
2014   11       11    19  51    4.7971   581.3    3.507      52.817
2014   11       11    19  57    4.7945   581.1    3.507      52.776
2014   11       11    20   2    4.7920   581.0    3.507      52.735
2014   11       11    20   8    4.7894   580.8    3.507      52.694
2014   11       11    20  13    4.7869   580.6    3.507      52.654
2014   11       11    20  19    4.7845   580.5    3.507      52.614
2014   11       11    20  24    4.7820   580.3    3.507      52.574
2014   11       11    20  30    4.7795   580.1    3.508      52.534
2014   11       11    20  35    4.7771   580.0    3.508      52.494
2014   11       11    20  41    4.7748   579.8    3.508      52.454
2014   11       11    20  46    4.7724   579.6    3.508      52.414
2014   11       11    20  52    4.7700   579.5    3.508      52.374
2014   11       11    20  57    4.7676   579.3    3.508      52.333
2014   11       11    21   3    4.7652   579.1    3.508      52.292
2014   11       11    21   8    4.7629   579.0    3.508      52.250
2014   11       11    21  14    4.7605   578.8    3.508      52.208
2014   11       11    21  19    4.7580   578.6    3.508      52.166
2014   11       11    21  25    4.7557   578.5    3.508      52.123
2014   11       11    21  31    4.7533   578.3    3.508      52.080
2014   11       11    21  36    4.7510   578.1    3.508      52.036
2014   11       11    21  42    4.7486   577.9    3.508      51.992
2014   11       11    21  47    4.7462   577.8    3.508      51.947
2014   11       11    21  53    4.7439   577.6    3.507      51.902
2014   11       11    21  58    4.7416   577.4    3.507      51.857
2014   11       11    22   4    4.7392   577.3    3.507      51.811
2014   11       11    22   9    4.7368   577.1    3.506      51.765
2014   11       11    22  15    4.7345   576.9    3.506      51.719
2014   11       11    22  20    4.7322   576.8    3.506      51.672
2014   11       11    22  26    4.7298   576.6    3.505      51.625
2014   11       11    22  31    4.7276   576.4    3.505      51.578
2014   11       11    22  37    4.7253   576.3    3.504      51.531
2014   11       11    22  42    4.7230   576.1    3.504      51.483
2014   11       11    22  48    4.7207   575.9    3.503      51.435
2014   11       11    22  53    4.7183   575.8    3.503      51.386
2014   11       11    22  59    4.7160   575.6    3.502      51.338
2014   11       11    23   4    4.7138   575.4    3.501      51.289
2014   11       11    23  10    4.7115   575.3    3.501      51.239
2014   11       11    23  15    4.7093   575.1    3.500      51.190
2014   11       11    23  21    4.7069   574.9    3.499      51.140
2014   11       11    23  26    4.7047   574.7    3.499      51.090
2014   11       11    23  32    4.7025   574.6    3.498      51.039
2014   11       11    23  38    4.7003   574.4    3.497      50.988
2014   11       11    23  43    4.6980   574.2    3.497      50.937
2014   11       11    23  49    4.6958   574.0    3.496      50.885
2014   11       11    23  54    4.6934   573.9    3.495      50.833
2014   11       12     0   0    4.6912   573.7    3.494      50.780
2014   11       12     0   5    4.6890   573.5    3.493      50.728
2014   11       12     0  11    4.6868   573.3    3.492      50.675
2014   11       12     0  16    4.6846   573.2    3.491      50.621
2014   11       12     0  22    4.6823   573.0    3.491      50.568
2014   11       12     0  27    4.6802   572.8    3.490      50.514
2014   11       12     0  33    4.6779   572.6    3.489      50.459
2014   11       12     0  38    4.6758   572.5    3.488      50.405
2014   11       12     0  44    4.6735   572.3    3.487      50.350
2014   11       12     0  49    4.6713   572.1    3.486      50.294
2014   11       12     0  55    4.6690   571.9    3.485      50.239
2014   11       12     1   0    4.6669   571.7    3.484      50.183
2014   11       12     1   6    4.6647   571.5    3.483      50.127
2014   11       12     1  11    4.6624   571.4    3.481      50.070
2014   11       12     1  17    4.6603   571.2    3.480      50.014
2014   11       12     1  22    4.6580   571.0    3.479      49.957
2014   11       12     1  28    4.6559   570.8    3.478      49.900
2014   11       12     1  34    4.6537   570.6    3.477      49.842
2014   11       12     1  39    4.6516   570.4    3.476      49.785
2014   11       12     1  45    4.6494   570.2    3.475      49.728
2014   11       12     1  50    4.6472   570.0    3.474      49.670
2014   11       12     1  56    4.6449   569.8    3.473      49.613
2014   11       12     2   1    4.6428   569.6    3.472      49.555
2014   11       12     2   7    4.6407   569.4    3.471      49.498
2014   11       12     2  12    4.6385   569.2    3.470      49.441
2014   11       12     2  18    4.6364   569.0    3.470      49.384
2014   11       12     2  23    4.6343   568.8    3.469      49.327
2014   11       12     2  29    4.6322   568.6    3.468      49.271
2014   11       12     2  34    4.6301   568.4    3.467      49.215
2014   11       12     2  40    4.6281   568.2    3.467      49.160
2014   11       12     2  45    4.6260   568.0    3.466      49.105
2014   11       12     2  51    4.6240   567.7    3.466      49.051
2014   11       12     2  56    4.6220   567.5    3.466      48.997
2014   11       12     3   2    4.6199   567.3    3.466      48.944
2014   11       12     3   7    4.6180   567.1    3.466      48.892
2014   11       12     3  13    4.6160   566.9    3.466      48.841
2014   11       12     3  18    4.6142   566.7    3.466      48.790
2014   11       12     3  24    4.6123   566.5    3.466      48.741
2014   11       12     3  30    4.6104   566.2    3.467      48.693
2014   11       12     3  35    4.6086   566.0    3.467      48.646
2014   11       12     3  41    4.6067   565.8    3.468      48.599
2014   11       12     3  46    4.6049   565.6    3.468      48.554
2014   11       12     3  52    4.6031   565.4    3.469      48.509
2014   11       12     3  57    4.6013   565.2    3.470      48.465
2014   11       12     4   3    4.5995   565.0    3.471      48.421
2014   11       12     4   8    4.5977   564.7    3.472      48.378
2014   11       12     4  14    4.5959   564.5    3.473      48.335
2014   11       12     4  19    4.5941   564.3    3.473      48.292
2014   11       12     4  25    4.5923   564.1    3.474      48.250
2014   11       12     4  30    4.5906   563.9    3.475      48.208
2014   11       12     4  36    4.5888   563.7    3.476      48.166
2014   11       12     4  41    4.5870   563.5    3.477      48.124
2014   11       12     4  47    4.5852   563.2    3.478      48.081
2014   11       12     4  52    4.5835   563.0    3.480      48.039
2014   11       12     4  58    4.5817   562.8    3.481      47.997
2014   11       12     5   3    4.5799   562.6    3.482      47.955
2014   11       12     5   9    4.5782   562.4    3.483      47.913
2014   11       12     5  14    4.5764   562.2    3.484      47.870
2014   11       12     5  20    4.5747   561.9    3.485      47.827
2014   11       12     5  25    4.5729   561.7    3.486      47.785
2014   11       12     5  31    4.5712   561.5    3.487      47.742
2014   11       12     5  37    4.5695   561.3    3.488      47.698
2014   11       12     5  42    4.5677   561.1    3.489      47.654
2014   11       12     5  48    4.5659   560.8    3.490      47.610
2014   11       12     5  53    4.5642   560.6    3.491      47.565
2014   11       12     5  59    4.5625   560.4    3.492      47.520
2014   11       12     6   4    4.5608   560.2    3.493      47.474
2014   11       12     6  10    4.5590   560.0    3.494      47.428
2014   11       12     6  15    4.5573   559.7    3.495      47.381
2014   11       12     6  21    4.5556   559.5    3.496      47.334
2014   11       12     6  26    4.5538   559.3    3.497      47.286
2014   11       12     6  32    4.5521   559.0    3.497      47.237
2014   11       12     6  37    4.5504   558.8    3.498      47.188
2014   11       12     6  43    4.5487   558.6    3.499      47.138
2014   11       12     6  48    4.5469   558.4    3.500      47.088
2014   11       12     6  54    4.5453   558.1    3.500      47.037
2014   11       12     6  59    4.5436   557.9    3.501      46.986
2014   11       12     7   5    4.5419   557.7    3.502      46.934
2014   11       12     7  10    4.5402   557.4    3.502      46.882
2014   11       12     7  16    4.5386   557.2    3.503      46.830
2014   11       12     7  21    4.5369   557.0    3.503      46.777
2014   11       12     7  27    4.5353   556.7    3.504      46.724
2014   11       12     7  33    4.5337   556.5    3.505      46.671
2014   11       12     7  38    4.5321   556.3    3.505      46.618
2014   11       12     7  44    4.5306   556.0    3.506      46.565
2014   11       12     7  49    4.5290   555.8    3.506      46.511
2014   11       12     7  55    4.5275   555.5    3.507      46.458
2014   11       12     8   0    4.5259   555.3    3.507      46.404
2014   11       12     8   6    4.5244   555.1    3.508      46.350
2014   11       12     8  11    4.5229   554.8    3.509      46.297
2014   11       12     8  17    4.5215   554.6    3.509      46.243
2014   11       12     8  22    4.5200   554.3    3.510      46.190
2014   11       12     8  28    4.5185   554.1    3.511      46.137
2014   11       12     8  33    4.5171   553.9    3.511      46.084
2014   11       12     8  39    4.5156   553.6    3.512      46.031
2014   11       12     8  44    4.5141   553.4    3.512      45.978
2014   11       12     8  50    4.5126   553.1    3.513      45.925
2014   11       12     8  55    4.5112   552.9    3.514      45.872
2014   11       12     9   1    4.5096   552.6    3.514      45.820
2014   11       12     9   6    4.5082   552.4    3.515      45.767
2014   11       12     9  12    4.5067   552.2    3.516      45.715
2014   11       12     9  17    4.5053   551.9    3.516      45.662
2014   11       12     9  23    4.5038   551.7    3.517      45.609
2014   11       12     9  29    4.5023   551.4    3.517      45.556
2014   11       12     9  34    4.5008   551.2    3.518      45.503
2014   11       12     9  40    4.4993   550.9    3.518      45.450
2014   11       12     9  45    4.4978   550.7    3.519      45.396
2014   11       12     9  51    4.4963   550.4    3.519      45.342
2014   11       12     9  56    4.4947   550.2    3.519      45.288
2014   11       12    10   2    4.4932   549.9    3.520      45.234
2014   11       12    10   7    4.4919   549.6    3.520      45.179
2014   11       12    10  13    4.4903   549.4    3.520      45.124
2014   11       12    10  18    4.4889   549.1    3.521      45.068
2014   11       12    10  24    4.4875   548.9    3.521      45.013
2014   11       12    10  29    4.4859   548.6    3.521      44.957
2014   11       12    10  35    4.4846   548.3    3.521      44.901
2014   11       12    10  40    4.4831   548.1    3.522      44.844
2014   11       12    10  46    4.4816   547.8    3.522      44.788
2014   11       12    10  51    4.4803   547.5    3.522      44.732
2014   11       12    10  57    4.4789   547.3    3.523      44.676
2014   11       12    11   2    4.4775   547.0    3.523      44.620
2014   11       12    11   8    4.4761   546.7    3.523      44.564
2014   11       12    11  13    4.4747   546.4    3.524      44.508
2014   11       12    11  19    4.4734   546.2    3.524      44.453
2014   11       12    11  24    4.4720   545.9    3.525      44.398
2014   11       12    11  30    4.4707   545.6    3.525      44.344
2014   11       12    11  36    4.4694   545.3    3.526      44.290
2014   11       12    11  41    4.4681   545.0    3.527      44.236
2014   11       12    11  47    4.4668   544.8    3.528      44.183
2014   11       12    11  52    4.4656   544.5    3.528      44.130
2014   11       12    11  58    4.4643   544.2    3.529      44.078
2014   11       12    12   3    4.4630   543.9    3.530      44.026
2014   11       12    12   9    4.4619   543.6    3.531      43.975
2014   11       12    12  14    4.4606   543.3    3.532      43.924
2014   11       12    12  20    4.4595   543.1    3.534      43.873
2014   11       12    12  25    4.4583   542.8    3.535      43.822
2014   11       12    12  31    4.4571   542.5    3.536      43.772
2014   11       12    12  36    4.4560   542.2    3.538      43.722
2014   11       12    12  42    4.4548   541.9    3.539      43.672
2014   11       12    12  47    4.4537   541.6    3.541      43.622
2014   11       12    12  53    4.4526   541.3    3.542      43.572
2014   11       12    12  58    4.4515   541.0    3.544      43.523
2014   11       12    13   4    4.4504   540.7    3.546      43.473
2014   11       12    13   9    4.4494   540.4    3.547      43.423
2014   11       12    13  15    4.4483   540.1    3.549      43.373
2014   11       12    13  20    4.4473   539.8    3.551      43.323
2014   11       12    13  26    4.4463   539.5    3.553      43.273
2014   11       12    13  31    4.4453   539.2    3.555      43.223
2014   11       12    13  37    4.4443   538.9    3.557      43.172
2014   11       12    13  43    4.4433   538.6    3.559      43.122
2014   11       12    13  48    4.4424   538.3    3.561      43.072
2014   11       12    13  54    4.4415   538.0    3.564      43.022
2014   11       12    13  59    4.4406   537.7    3.566      42.971
2014   11       12    14   5    4.4398   537.3    3.568      42.921
2014   11       12    14  10    4.4390   537.0    3.571      42.871
2014   11       12    14  16    4.4381   536.7    3.573      42.821
2014   11       12    14  21    4.4374   536.4    3.575      42.771
2014   11       12    14  27    4.4367   536.1    3.578      42.721
2014   11       12    14  32    4.4360   535.8    3.581      42.672
2014   11       12    14  38    4.4354   535.4    3.583      42.623
2014   11       12    14  43    4.4347   535.1    3.586      42.574
2014   11       12    14  49    4.4342   534.8    3.589      42.526
2014   11       12    14  54    4.4336   534.5    3.592      42.477
2014   11       12    15   0    4.4331   534.2    3.595      42.430
2014   11       12    15   5    4.4326   533.8    3.598      42.382
2014   11       12    15  11    4.4323   533.5    3.601      42.335
2014   11       12    15  16    4.4319   533.2    3.604      42.289
2014   11       12    15  22    4.4315   532.9    3.608      42.243
2014   11       12    15  27    4.4312   532.5    3.611      42.197
2014   11       12    15  33    4.4310   532.2    3.614      42.152
2014   11       12    15  39    4.4307   531.9    3.618      42.108
2014   11       12    15  44    4.4305   531.6    3.621      42.064
2014   11       12    15  50    4.4304   531.3    3.625      42.020
2014   11       12    15  55    4.4301   530.9    3.629      41.977
2014   11       12    16   1    4.4300   530.6    3.632      41.935
2014   11       12    16   6    4.4299   530.3    3.636      41.893
2014   11       12    16  12    4.4299   530.0    3.640      41.852
2014   11       12    16  17    4.4297   529.7    3.644      41.811
2014   11       12    16  23    4.4296   529.3    3.648      41.770
2014   11       12    16  28    4.4295   529.0    3.652      41.730
2014   11       12    16  34    4.4296   528.7    3.656      41.691
2014   11       12    16  39    4.4296   528.4    3.660      41.652
2014   11       12    16  45    4.4295   528.1    3.664      41.613
2014   11       12    16  50    4.4295   527.7    3.668      41.574
2014   11       12    16  56    4.4296   527.4    3.672      41.536
2014   11       12    17   1    4.4296   527.1    3.676      41.498
2014   11       12    17   7    4.4296   526.8    3.680      41.460
2014   11       12    17  12    4.4298   526.5    3.684      41.422
2014   11       12    17  18    4.4299   526.1    3.688      41.385
2014   11       12    17  24    4.4300   525.8    3.692      41.347
2014   11       12    17  29    4.4301   525.5    3.696      41.309
2014   11       12    17  35    4.4302   525.2    3.700      41.272
2014   11       12    17  40    4.4305   524.9    3.705      41.234
2014   11       12    17  46    4.4306   524.5    3.709      41.196
2014   11       12    17  51    4.4308   524.2    3.713      41.158
2014   11       12    17  57    4.4311   523.9    3.717      41.120
2014   11       12    18   2    4.4315   523.6    3.722      41.083
2014   11       12    18   8    4.4317   523.3    3.726      41.045
2014   11       12    18  13    4.4322   522.9    3.730      41.007
2014   11       12    18  19    4.4326   522.6    3.734      40.969
2014   11       12    18  24    4.4328   522.3    3.739      40.931
2014   11       12    18  30    4.4333   522.0    3.743      40.892
2014   11       12    18  35    4.4337   521.7    3.747      40.854
2014   11       12    18  41    4.4342   521.3    3.752      40.816
2014   11       12    18  46    4.4349   521.0    3.756      40.777
2014   11       12    18  52    4.4354   520.7    3.760      40.738
2014   11       12    18  57    4.4360   520.4    3.765      40.699
2014   11       12    19   3    4.4363   520.1    3.769      40.660
2014   11       12    19   8    4.4369   519.8    3.773      40.620
2014   11       12    19  14    4.4375   519.4    3.778      40.581
2014   11       12    19  19    4.4384   519.1    3.782      40.541
2014   11       12    19  25    4.4388   518.8    3.787      40.501
2014   11       12    19  30    4.4397   518.5    3.791      40.461
2014   11       12    19  36    4.4404   518.1    3.796      40.420
2014   11       12    19  42    4.4411   517.8    3.800      40.379
2014   11       12    19  47    4.4419   517.5    3.804      40.338
2014   11       12    19  53    4.4427   517.2    3.809      40.297
2014   11       12    19  58    4.4435   516.8    3.814      40.255
2014   11       12    20   4    4.4443   516.5    3.818      40.213
2014   11       12    20   9    4.4452   516.2    3.823      40.171
2014   11       12    20  15    4.4461   515.9    3.827      40.129
2014   11       12    20  20    4.4468   515.5    3.832      40.087
2014   11       12    20  26    4.4480   515.2    3.837      40.044
2014   11       12    20  31    4.4488   514.9    3.841      40.002
2014   11       12    20  37    4.4498   514.5    3.846      39.960
2014   11       12    20  42    4.4512   514.2    3.851      39.918
2014   11       12    20  48    4.4521   513.9    3.856      39.876
2014   11       12    20  53    4.4535   513.6    3.861      39.834
2014   11       12    20  59    4.4548   513.2    3.866      39.792
2014   11       12    21   4    4.4561   512.9    3.872      39.751
2014   11       12    21  10    4.4574   512.6    3.877      39.710
2014   11       12    21  15    4.4586   512.2    3.883      39.670
2014   11       12    21  21    4.4601   511.9    3.888      39.630
2014   11       12    21  26    4.4616   511.6    3.894      39.590
2014   11       12    21  32    4.4635   511.2    3.900      39.551
2014   11       12    21  38    4.4652   510.9    3.906      39.513
2014   11       12    21  43    4.4669   510.6    3.912      39.475
2014   11       12    21  49    4.4687   510.2    3.918      39.438
2014   11       12    21  54    4.4706   509.9    3.924      39.401
2014   11       12    22   0    4.4726   509.6    3.931      39.366
2014   11       12    22   5    4.4746   509.3    3.937      39.330
2014   11       12    22  11    4.4763   509.0    3.944      39.296
2014   11       12    22  16    4.4788   508.6    3.950      39.262
2014   11       12    22  22    4.4806   508.3    3.957      39.228
2014   11       12    22  27    4.4832   508.0    3.964      39.196
2014   11       12    22  33    4.4855   507.7    3.971      39.163
2014   11       12    22  38    4.4875   507.4    3.978      39.132
2014   11       12    22  44    4.4902   507.1    3.985      39.100
2014   11       12    22  49    4.4923   506.8    3.993      39.070
2014   11       12    22  55    4.4948   506.5    4.000      39.040
2014   11       12    23   0    4.4977   506.1    4.007      39.010
2014   11       12    23   6    4.5002   505.8    4.015      38.981
2014   11       12    23  11    4.5028   505.5    4.022      38.952
2014   11       12    23  17    4.5055   505.2    4.029      38.923
2014   11       12    23  22    4.5081   504.9    4.037      38.895
2014   11       12    23  28    4.5108   504.7    4.045      38.867
2014   11       12    23  34    4.5136   504.4    4.052      38.840
2014   11       12    23  39    4.5164   504.1    4.060      38.813
2014   11       12    23  45    4.5192   503.8    4.067      38.786
2014   11       12    23  50    4.5217   503.5    4.075      38.760
2014   11       12    23  56    4.5249   503.2    4.083      38.734
2014   11       13     0   1    4.5278   502.9    4.091      38.709
2014   11       13     0   7    4.5307   502.6    4.099      38.684
2014   11       13     0  12    4.5336   502.3    4.106      38.659
2014   11       13     0  18    4.5366   502.1    4.114      38.634
2014   11       13     0  23    4.5396   501.8    4.122      38.610
2014   11       13     0  29    4.5423   501.5    4.130      38.587
2014   11       13     0  34    4.5457   501.2    4.138      38.563
2014   11       13     0  40    4.5484   501.0    4.146      38.541
2014   11       13     0  45    4.5518   500.7    4.154      38.518
2014   11       13     0  51    4.5546   500.4    4.162      38.496
2014   11       13     0  56    4.5578   500.1    4.170      38.474
2014   11       13     1   2    4.5613   499.9    4.178      38.453
2014   11       13     1   7    4.5641   499.6    4.186      38.432
2014   11       13     1  13    4.5677   499.3    4.194      38.412
2014   11       13     1  18    4.5709   499.1    4.203      38.392
2014   11       13     1  24    4.5739   498.8    4.211      38.372
2014   11       13     1  30    4.5775   498.6    4.219      38.352
2014   11       13     1  35    4.5808   498.3    4.227      38.333
2014   11       13     1  41    4.5841   498.1    4.236      38.314
2014   11       13     1  46    4.5875   497.8    4.244      38.296
2014   11       13     1  52    4.5909   497.5    4.252      38.278
2014   11       13     1  57    4.5943   497.3    4.261      38.259
2014   11       13     2   3    4.5977   497.0    4.269      38.242
2014   11       13     2   8    4.6008   496.8    4.277      38.224
2014   11       13     2  14    4.6046   496.6    4.286      38.206
2014   11       13     2  19    4.6078   496.3    4.294      38.189
2014   11       13     2  25    4.6116   496.1    4.303      38.172
2014   11       13     2  30    4.6148   495.8    4.311      38.154
2014   11       13     2  36    4.6187   495.6    4.319      38.137
2014   11       13     2  41    4.6223   495.3    4.328      38.120
2014   11       13     2  47    4.6256   495.1    4.336      38.103
2014   11       13     2  52    4.6292   494.9    4.345      38.086
2014   11       13     2  58    4.6332   494.6    4.353      38.069
2014   11       13     3   3    4.6366   494.4    4.362      38.052
2014   11       13     3   9    4.6406   494.1    4.370      38.035
2014   11       13     3  14    4.6440   493.9    4.379      38.018
2014   11       13     3  20    4.6481   493.7    4.387      38.001
2014   11       13     3  25    4.6515   493.4    4.396      37.985
2014   11       13     3  31    4.6553   493.2    4.405      37.968
2014   11       13     3  36    4.6595   493.0    4.413      37.951
2014   11       13     3  42    4.6630   492.7    4.422      37.935
2014   11       13     3  48    4.6669   492.5    4.430      37.919
2014   11       13     3  53    4.6712   492.3    4.439      37.902
2014   11       13     3  59    4.6749   492.1    4.448      37.886
2014   11       13     4   4    4.6792   491.8    4.457      37.870
2014   11       13     4  10    4.6829   491.6    4.466      37.855
2014   11       13     4  15    4.6873   491.4    4.474      37.840
2014   11       13     4  21    4.6911   491.1    4.483      37.825
2014   11       13     4  26    4.6955   490.9    4.492      37.811
2014   11       13     4  32    4.6997   490.7    4.502      37.797
2014   11       13     4  37    4.7039   490.5    4.511      37.783
2014   11       13     4  43    4.7082   490.2    4.520      37.770
2014   11       13     4  48    4.7126   490.0    4.529      37.758
2014   11       13     4  54    4.7169   489.8    4.539      37.746
2014   11       13     4  59    4.7213   489.6    4.548      37.735
2014   11       13     5   5    4.7258   489.4    4.558      37.724
2014   11       13     5  10    4.7303   489.2    4.568      37.714
2014   11       13     5  16    4.7348   489.0    4.578      37.705
2014   11       13     5  21    4.7394   488.8    4.588      37.696
2014   11       13     5  27    4.7438   488.5    4.598      37.688
2014   11       13     5  32    4.7487   488.3    4.608      37.681
2014   11       13     5  38    4.7534   488.1    4.618      37.674
2014   11       13     5  44    4.7578   487.9    4.628      37.667
2014   11       13     5  49    4.7625   487.8    4.638      37.661
2014   11       13     5  55    4.7673   487.6    4.648      37.656
2014   11       13     6   0    4.7723   487.4    4.659      37.651
2014   11       13     6   6    4.7771   487.2    4.669      37.647
2014   11       13     6  11    4.7817   487.0    4.680      37.642
2014   11       13     6  17    4.7868   486.8    4.690      37.639
2014   11       13     6  22    4.7916   486.6    4.701      37.636
2014   11       13     6  28    4.7965   486.5    4.711      37.633
2014   11       13     6  33    4.8011   486.3    4.722      37.630
2014   11       13     6  39    4.8060   486.1    4.733      37.628
2014   11       13     6  44    4.8109   485.9    4.743      37.627
2014   11       13     6  50    4.8160   485.8    4.754      37.626
2014   11       13     6  55    4.8207   485.6    4.764      37.625
2014   11       13     7   1    4.8256   485.5    4.775      37.624
2014   11       13     7   6    4.8307   485.3    4.785      37.624
2014   11       13     7  12    4.8356   485.1    4.796      37.625
2014   11       13     7  17    4.8405   485.0    4.806      37.625
2014   11       13     7  23    4.8452   484.8    4.817      37.626
2014   11       13     7  28    4.8502   484.7    4.827      37.627
2014   11       13     7  34    4.8549   484.5    4.837      37.628
2014   11       13     7  40    4.8600   484.4    4.847      37.629
2014   11       13     7  45    4.8649   484.2    4.858      37.630
2014   11       13     7  51    4.8698   484.1    4.868      37.631
2014   11       13     7  56    4.8746   483.9    4.878      37.632
2014   11       13     8   2    4.8795   483.8    4.888      37.633
2014   11       13     8   7    4.8842   483.6    4.897      37.634
2014   11       13     8  13    4.8891   483.5    4.907      37.635
2014   11       13     8  18    4.8940   483.4    4.917      37.636
2014   11       13     8  24    4.8989   483.2    4.927      37.638
2014   11       13     8  29    4.9039   483.1    4.936      37.639
2014   11       13     8  35    4.9088   483.0    4.946      37.639
2014   11       13     8  40    4.9135   482.8    4.955      37.641
2014   11       13     8  46    4.9185   482.7    4.965      37.642
2014   11       13     8  51    4.9232   482.6    4.974      37.642
2014   11       13     8  57    4.9283   482.4    4.983      37.643
2014   11       13     9   2    4.9330   482.3    4.992      37.644
2014   11       13     9   8    4.9380   482.2    5.001      37.645
2014   11       13     9  13    4.9428   482.1    5.010      37.646
2014   11       13     9  19    4.9477   481.9    5.019      37.647
2014   11       13     9  24    4.9526   481.8    5.028      37.648
2014   11       13     9  30    4.9574   481.7    5.037      37.649
2014   11       13     9  35    4.9623   481.6    5.045      37.650
2014   11       13     9  41    4.9672   481.4    5.054      37.651
2014   11       13     9  47    4.9719   481.3    5.063      37.652
2014   11       13     9  52    4.9768   481.2    5.071      37.653
2014   11       13     9  58    4.9816   481.1    5.080      37.654
2014   11       13    10   3    4.9864   481.0    5.088      37.654
2014   11       13    10   9    4.9912   480.9    5.096      37.655
2014   11       13    10  14    4.9961   480.7    5.105      37.656
2014   11       13    10  20    5.0010   480.6    5.113      37.657
2014   11       13    10  25    5.0057   480.5    5.121      37.657
2014   11       13    10  31    5.0106   480.4    5.129      37.658
2014   11       13    10  36    5.0154   480.3    5.137      37.659
2014   11       13    10  42    5.0201   480.2    5.145      37.660
2014   11       13    10  47    5.0249   480.1    5.153      37.660
2014   11       13    10  53    5.0297   480.0    5.161      37.661
2014   11       13    10  58    5.0345   479.9    5.169      37.661
2014   11       13    11   4    5.0393   479.8    5.177      37.662
2014   11       13    11   9    5.0440   479.7    5.185      37.663
2014   11       13    11  15    5.0488   479.6    5.193      37.663
2014   11       13    11  20    5.0536   479.5    5.201      37.664
2014   11       13    11  26    5.0583   479.3    5.209      37.665
2014   11       13    11  31    5.0631   479.2    5.217      37.666
2014   11       13    11  37    5.0678   479.1    5.225      37.667
2014   11       13    11  43    5.0726   479.0    5.233      37.668
2014   11       13    11  48    5.0773   478.9    5.241      37.670
2014   11       13    11  54    5.0821   478.9    5.249      37.671
2014   11       13    11  59    5.0868   478.8    5.257      37.673
2014   11       13    12   5    5.0915   478.7    5.265      37.675
2014   11       13    12  10    5.0963   478.6    5.273      37.677
2014   11       13    12  16    5.1010   478.5    5.281      37.680
2014   11       13    12  21    5.1057   478.4    5.289      37.683
2014   11       13    12  27    5.1105   478.3    5.297      37.686
2014   11       13    12  32    5.1152   478.2    5.305      37.689
2014   11       13    12  38    5.1199   478.1    5.313      37.693
2014   11       13    12  43    5.1246   478.0    5.321      37.697
2014   11       13    12  49    5.1293   477.9    5.329      37.701
2014   11       13    12  54    5.1341   477.9    5.337      37.706
2014   11       13    13   0    5.1387   477.8    5.345      37.711
2014   11       13    13   5    5.1434   477.7    5.354      37.717
2014   11       13    13  11    5.1481   477.6    5.362      37.722
2014   11       13    13  16    5.1528   477.5    5.370      37.729
2014   11       13    13  22    5.1574   477.4    5.378      37.735
2014   11       13    13  27    5.1621   477.4    5.386      37.742
2014   11       13    13  33    5.1668   477.3    5.395      37.750
2014   11       13    13  39    5.1715   477.2    5.403      37.758
2014   11       13    13  44    5.1761   477.1    5.411      37.766
2014   11       13    13  50    5.1808   477.1    5.420      37.775
2014   11       13    13  55    5.1856   477.0    5.428      37.784
2014   11       13    14   1    5.1901   476.9    5.436      37.794
2014   11       13    14   6    5.1948   476.8    5.445      37.804
2014   11       13    14  12    5.1994   476.8    5.453      37.814
2014   11       13    14  17    5.2040   476.7    5.461      37.825
2014   11       13    14  23    5.2088   476.6    5.470      37.837
2014   11       13    14  28    5.2133   476.6    5.478      37.848
2014   11       13    14  34    5.2178   476.5    5.486      37.860
2014   11       13    14  39    5.2224   476.5    5.494      37.872
2014   11       13    14  45    5.2270   476.4    5.502      37.884
2014   11       13    14  50    5.2316   476.3    5.510      37.896
2014   11       13    14  56    5.2360   476.3    5.518      37.908
2014   11       13    15   1    5.2407   476.2    5.526      37.920
2014   11       13    15   7    5.2451   476.2    5.534      37.932
2014   11       13    15  12    5.2497   476.1    5.542      37.944
2014   11       13    15  18    5.2542   476.1    5.550      37.956
2014   11       13    15  23    5.2585   476.0    5.558      37.968
2014   11       13    15  29    5.2630   476.0    5.565      37.979
2014   11       13    15  34    5.2675   475.9    5.573      37.990
2014   11       13    15  40    5.2719   475.9    5.580      38.002
2014   11       13    15  46    5.2763   475.8    5.588      38.013
2014   11       13    15  51    5.2809   475.8    5.595      38.024
2014   11       13    15  57    5.2851   475.7    5.603      38.036
2014   11       13    16   2    5.2897   475.7    5.610      38.047
2014   11       13    16   8    5.2939   475.6    5.617      38.058
2014   11       13    16  13    5.2983   475.6    5.624      38.070
2014   11       13    16  19    5.3026   475.5    5.631      38.082
2014   11       13    16  24    5.3070   475.5    5.638      38.094
2014   11       13    16  30    5.3115   475.5    5.645      38.106
2014   11       13    16  35    5.3158   475.4    5.652      38.119
2014   11       13    16  41    5.3201   475.4    5.658      38.132
2014   11       13    16  46    5.3242   475.3    5.665      38.145
2014   11       13    16  52    5.3285   475.3    5.671      38.159
2014   11       13    16  57    5.3328   475.3    5.678      38.172
2014   11       13    17   3    5.3370   475.2    5.684      38.186
2014   11       13    17   8    5.3411   475.2    5.690      38.199
2014   11       13    17  14    5.3452   475.2    5.696      38.213
2014   11       13    17  19    5.3495   475.1    5.702      38.226
2014   11       13    17  25    5.3534   475.1    5.708      38.240
2014   11       13    17  30    5.3575   475.1    5.713      38.253
2014   11       13    17  36    5.3616   475.1    5.719      38.266
2014   11       13    17  41    5.3656   475.0    5.724      38.279
2014   11       13    17  47    5.3696   475.0    5.729      38.291
2014   11       13    17  53    5.3735   475.0    5.735      38.303
2014   11       13    17  58    5.3775   474.9    5.740      38.315
2014   11       13    18   4    5.3814   474.9    5.745      38.327
2014   11       13    18   9    5.3853   474.9    5.750      38.338
2014   11       13    18  15    5.3893   474.9    5.754      38.349
2014   11       13    18  20    5.3930   474.8    5.759      38.360
2014   11       13    18  26    5.3970   474.8    5.764      38.370
2014   11       13    18  31    5.4007   474.8    5.768      38.381
2014   11       13    18  37    5.4045   474.8    5.773      38.391
2014   11       13    18  42    5.4084   474.7    5.777      38.400
2014   11       13    18  48    5.4120   474.7    5.782      38.409
2014   11       13    18  53    5.4158   474.7    5.786      38.418
2014   11       13    18  59    5.4195   474.7    5.790      38.427
2014   11       13    19   4    5.4232   474.6    5.794      38.435
2014   11       13    19  10    5.4269   474.6    5.799      38.444
2014   11       13    19  15    5.4305   474.6    5.803      38.452
2014   11       13    19  21    5.4342   474.6    5.807      38.459
2014   11       13    19  26    5.4378   474.6    5.810      38.467
2014   11       13    19  32    5.4416   474.5    5.814      38.474
2014   11       13    19  37    5.4450   474.5    5.818      38.481
2014   11       13    19  43    5.4486   474.5    5.822      38.488
2014   11       13    19  49    5.4522   474.5    5.826      38.495
2014   11       13    19  54    5.4558   474.4    5.829      38.502
2014   11       13    20   0    5.4595   474.4    5.833      38.509
2014   11       13    20   5    5.4629   474.4    5.837      38.516
2014   11       13    20  11    5.4664   474.4    5.840      38.522
2014   11       13    20  16    5.4699   474.4    5.844      38.529
2014   11       13    20  22    5.4736   474.3    5.848      38.536
2014   11       13    20  27    5.4770   474.3    5.851      38.543
2014   11       13    20  33    5.4806   474.3    5.855      38.550
2014   11       13    20  38    5.4840   474.3    5.859      38.556
2014   11       13    20  44    5.4875   474.3    5.862      38.564
2014   11       13    20  49    5.4912   474.2    5.866      38.571
2014   11       13    20  55    5.4945   474.2    5.869      38.578
2014   11       13    21   0    5.4980   474.2    5.873      38.586
2014   11       13    21   6    5.5015   474.2    5.877      38.594
2014   11       13    21  11    5.5051   474.2    5.880      38.602
2014   11       13    21  17    5.5084   474.2    5.884      38.610
2014   11       13    21  22    5.5119   474.1    5.888      38.618
2014   11       13    21  28    5.5155   474.1    5.892      38.627
2014   11       13    21  33    5.5188   474.1    5.895      38.636
2014   11       13    21  39    5.5222   474.1    5.899      38.645
2014   11       13    21  44    5.5256   474.1    5.903      38.654
2014   11       13    21  50    5.5290   474.1    5.907      38.663
2014   11       13    21  56    5.5323   474.1    5.911      38.672
2014   11       13    22   1    5.5356   474.1    5.915      38.682
2014   11       13    22   7    5.5390   474.1    5.918      38.691
2014   11       13    22  12    5.5422   474.1    5.922      38.701
2014   11       13    22  18    5.5457   474.0    5.926      38.710
2014   11       13    22  23    5.5487   474.0    5.930      38.720
2014   11       13    22  29    5.5521   474.0    5.934      38.730
2014   11       13    22  34    5.5551   474.0    5.938      38.740
2014   11       13    22  40    5.5585   474.0    5.942      38.750
2014   11       13    22  45    5.5614   474.0    5.946      38.760
2014   11       13    22  51    5.5647   474.0    5.950      38.770
2014   11       13    22  56    5.5675   474.0    5.954      38.781
2014   11       13    23   2    5.5708   474.0    5.957      38.791
2014   11       13    23   7    5.5736   474.0    5.961      38.802
2014   11       13    23  13    5.5767   474.0    5.965      38.813
2014   11       13    23  18    5.5797   474.0    5.969      38.825
2014   11       13    23  24    5.5824   474.0    5.972      38.836
2014   11       13    23  29    5.5853   474.0    5.976      38.848
2014   11       13    23  35    5.5882   474.0    5.979      38.860
2014   11       13    23  40    5.5912   474.0    5.983      38.872
2014   11       13    23  46    5.5938   474.0    5.986      38.885
2014   11       13    23  52    5.5966   474.0    5.989      38.898
2014   11       13    23  57    5.5996   474.0    5.992      38.911
2014   11       14     0   3    5.6024   474.0    5.996      38.925
2014   11       14     0   8    5.6049   474.0    5.999      38.938
2014   11       14     0  14    5.6078   474.0    6.002      38.952
2014   11       14     0  19    5.6103   474.1    6.005      38.966
2014   11       14     0  25    5.6131   474.1    6.008      38.980
2014   11       14     0  30    5.6155   474.1    6.010      38.994
2014   11       14     0  36    5.6183   474.1    6.013      39.008
2014   11       14     0  41    5.6207   474.1    6.016      39.023
2014   11       14     0  47    5.6233   474.1    6.019      39.037
2014   11       14     0  52    5.6259   474.1    6.022      39.051
2014   11       14     0  58    5.6286   474.1    6.024      39.065
2014   11       14     1   3    5.6309   474.1    6.027      39.079
2014   11       14     1   9    5.6334   474.1    6.030      39.093
2014   11       14     1  14    5.6361   474.1    6.032      39.108
2014   11       14     1  20    5.6386   474.1    6.035      39.123
2014   11       14     1  25    5.6411   474.1    6.037      39.138
2014   11       14     1  31    5.6433   474.1    6.040      39.153
2014   11       14     1  36    5.6457   474.2    6.042      39.168
2014   11       14     1  42    5.6483   474.2    6.045      39.183
2014   11       14     1  47    5.6505   474.2    6.047      39.197
2014   11       14     1  53    5.6528   474.2    6.049      39.212
2014   11       14     1  59    5.6551   474.2    6.051      39.227
2014   11       14     2   4    5.6574   474.2    6.053      39.241
2014   11       14     2  10    5.6597   474.2    6.055      39.255
2014   11       14     2  15    5.6621   474.3    6.057      39.269
2014   11       14     2  21    5.6641   474.3    6.059      39.283
2014   11       14     2  26    5.6663   474.3    6.061      39.296
2014   11       14     2  32    5.6684   474.3    6.062      39.309
2014   11       14     2  37    5.6708   474.3    6.064      39.321
2014   11       14     2  43    5.6729   474.3    6.065      39.333
2014   11       14     2  48    5.6748   474.4    6.067      39.345
2014   11       14     2  54    5.6769   474.4    6.068      39.357
2014   11       14     2  59    5.6789   474.4    6.069      39.368
2014   11       14     3   5    5.6810   474.4    6.071      39.379
2014   11       14     3  10    5.6830   474.4    6.072      39.389
2014   11       14     3  16    5.6850   474.4    6.073      39.400
2014   11       14     3  21    5.6871   474.4    6.075      39.410
2014   11       14     3  27    5.6893   474.5    6.076      39.421
2014   11       14     3  32    5.6911   474.5    6.077      39.431
2014   11       14     3  38    5.6931   474.5    6.078      39.441
2014   11       14     3  43    5.6951   474.5    6.080      39.451
2014   11       14     3  49    5.6971   474.5    6.081      39.462
2014   11       14     3  54    5.6991   474.6    6.082      39.471
2014   11       14     4   0    5.7010   474.6    6.083      39.482
2014   11       14     4   6    5.7030   474.6    6.085      39.492
2014   11       14     4  11    5.7050   474.6    6.086      39.501
2014   11       14     4  17    5.7069   474.6    6.087      39.511
2014   11       14     4  22    5.7088   474.7    6.088      39.521
2014   11       14     4  28    5.7107   474.7    6.090      39.531
2014   11       14     4  33    5.7128   474.7    6.091      39.540
2014   11       14     4  39    5.7146   474.7    6.092      39.550
2014   11       14     4  44    5.7162   474.8    6.093      39.559
2014   11       14     4  50    5.7181   474.8    6.095      39.569
2014   11       14     4  55    5.7196   474.8    6.096      39.578
2014   11       14     5   1    5.7213   474.8    6.098      39.588
2014   11       14     5   6    5.7230   474.9    6.099      39.598
2014   11       14     5  12    5.7245   474.9    6.101      39.608
2014   11       14     5  17    5.7263   474.9    6.102      39.618
2014   11       14     5  23    5.7276   474.9    6.103      39.628
2014   11       14     5  28    5.7290   475.0    6.105      39.639
2014   11       14     5  34    5.7306   475.0    6.106      39.649
2014   11       14     5  39    5.7320   475.0    6.107      39.659
2014   11       14     5  45    5.7331   475.1    6.108      39.670
2014   11       14     5  50    5.7344   475.1    6.109      39.680
2014   11       14     5  56    5.7356   475.1    6.110      39.690
2014   11       14     6   2    5.7370   475.1    6.111      39.701
2014   11       14     6   7    5.7379   475.2    6.112      39.711
2014   11       14     6  13    5.7390   475.2    6.113      39.721
2014   11       14     6  18    5.7401   475.2    6.113      39.731
2014   11       14     6  24    5.7411   475.3    6.114      39.741
2014   11       14     6  29    5.7421   475.3    6.114      39.750
2014   11       14     6  35    5.7431   475.3    6.114      39.760
2014   11       14     6  40    5.7440   475.4    6.115      39.769
2014   11       14     6  46    5.7449   475.4    6.115      39.778
2014   11       14     6  51    5.7459   475.4    6.114      39.787
2014   11       14     6  57    5.7468   475.5    6.114      39.795
2014   11       14     7   2    5.7476   475.5    6.114      39.804
2014   11       14     7   8    5.7482   475.5    6.114      39.812
2014   11       14     7  13    5.7490   475.6    6.113      39.820
2014   11       14     7  19    5.7498   475.6    6.113      39.828
2014   11       14     7  24    5.7505   475.6    6.112      39.836
2014   11       14     7  30    5.7512   475.6    6.112      39.843
2014   11       14     7  35    5.7521   475.7    6.111      39.850
2014   11       14     7  41    5.7526   475.7    6.110      39.857
2014   11       14     7  46    5.7533   475.7    6.110      39.864
2014   11       14     7  52    5.7542   475.8    6.109      39.871
2014   11       14     7  57    5.7546   475.8    6.108      39.878
2014   11       14     8   3    5.7553   475.8    6.108      39.884
2014   11       14     8   9    5.7559   475.8    6.107      39.890
2014   11       14     8  14    5.7565   475.9    6.106      39.897
2014   11       14     8  20    5.7571   475.9    6.105      39.903
2014   11       14     8  25    5.7577   475.9    6.105      39.910
2014   11       14     8  31    5.7584   475.9    6.104      39.916
2014   11       14     8  36    5.7588   476.0    6.103      39.923
2014   11       14     8  42    5.7595   476.0    6.102      39.930
2014   11       14     8  47    5.7598   476.0    6.102      39.937
2014   11       14     8  53    5.7604   476.1    6.101      39.943
2014   11       14     8  58    5.7607   476.1    6.100      39.950
2014   11       14     9   4    5.7611   476.1    6.099      39.956
2014   11       14     9   9    5.7614   476.1    6.098      39.963
2014   11       14     9  15    5.7618   476.2    6.097      39.969
2014   11       14     9  20    5.7621   476.2    6.096      39.975
2014   11       14     9  26    5.7623   476.2    6.094      39.981
2014   11       14     9  31    5.7628   476.3    6.093      39.987
2014   11       14     9  37    5.7628   476.3    6.092      39.993
2014   11       14     9  42    5.7630   476.3    6.090      39.998
2014   11       14     9  48    5.7632   476.3    6.089      40.004
2014   11       14     9  53    5.7633   476.4    6.088      40.008
2014   11       14     9  59    5.7634   476.4    6.086      40.013
2014   11       14    10   4    5.7635   476.4    6.085      40.017
2014   11       14    10  10    5.7636   476.5    6.083      40.021
2014   11       14    10  16    5.7639   476.5    6.081      40.025
2014   11       14    10  21    5.7639   476.5    6.080      40.029
2014   11       14    10  27    5.7637   476.6    6.078      40.032
2014   11       14    10  32    5.7640   476.6    6.076      40.036
2014   11       14    10  38    5.7637   476.6    6.075      40.039
2014   11       14    10  43    5.7637   476.6    6.073      40.042
2014   11       14    10  49    5.7639   476.7    6.071      40.045
2014   11       14    10  54    5.7636   476.7    6.069      40.048
2014   11       14    11   0    5.7635   476.7    6.068      40.051
2014   11       14    11   5    5.7634   476.8    6.066      40.053
2014   11       14    11  11    5.7633   476.8    6.064      40.056
2014   11       14    11  16    5.7631   476.8    6.062      40.058
2014   11       14    11  22    5.7632   476.8    6.060      40.060
2014   11       14    11  27    5.7627   476.9    6.059      40.062
2014   11       14    11  33    5.7624   476.9    6.057      40.064
2014   11       14    11  38    5.7621   476.9    6.055      40.065
2014   11       14    11  44    5.7618   477.0    6.053      40.066
2014   11       14    11  49    5.7614   477.0    6.051      40.067
2014   11       14    11  55    5.7611   477.0    6.050      40.068
2014   11       14    12   0    5.7606   477.0    6.048      40.068
2014   11       14    12   6    5.7601   477.1    6.046      40.068
2014   11       14    12  12    5.7599   477.1    6.044      40.068
2014   11       14    12  17    5.7591   477.1    6.042      40.067
2014   11       14    12  23    5.7584   477.2    6.040      40.067
2014   11       14    12  28    5.7578   477.2    6.038      40.066
2014   11       14    12  34    5.7574   477.2    6.036      40.065
2014   11       14    12  39    5.7565   477.2    6.034      40.065
2014   11       14    12  45    5.7558   477.3    6.032      40.064
2014   11       14    12  50    5.7550   477.3    6.030      40.063
2014   11       14    12  56    5.7543   477.3    6.028      40.061
2014   11       14    13   1    5.7535   477.3    6.025      40.060
2014   11       14    13   7    5.7527   477.4    6.023      40.058
2014   11       14    13  12    5.7520   477.4    6.020      40.056
2014   11       14    13  18    5.7509   477.4    6.017      40.054
2014   11       14    13  23    5.7501   477.4    6.014      40.052
2014   11       14    13  29    5.7491   477.5    6.011      40.050
2014   11       14    13  34    5.7482   477.5    6.008      40.047
2014   11       14    13  40    5.7475   477.5    6.005      40.044
2014   11       14    13  45    5.7463   477.5    6.002      40.040
2014   11       14    13  51    5.7453   477.5    5.998      40.036
2014   11       14    13  56    5.7446   477.6    5.995      40.032
2014   11       14    14   2    5.7433   477.6    5.991      40.027
2014   11       14    14   7    5.7425   477.6    5.988      40.022
2014   11       14    14  13    5.7413   477.6    5.984      40.016
2014   11       14    14  19    5.7402   477.6    5.980      40.011
2014   11       14    14  24    5.7393   477.6    5.976      40.005
2014   11       14    14  30    5.7383   477.7    5.972      39.998
2014   11       14    14  35    5.7372   477.7    5.968      39.991
2014   11       14    14  41    5.7359   477.7    5.964      39.984
2014   11       14    14  46    5.7348   477.7    5.960      39.977
2014   11       14    14  52    5.7337   477.7    5.956      39.969
2014   11       14    14  57    5.7327   477.7    5.952      39.961
2014   11       14    15   3    5.7314   477.7    5.947      39.952
2014   11       14    15   8    5.7302   477.7    5.943      39.943
2014   11       14    15  14    5.7291   477.8    5.939      39.934
2014   11       14    15  19    5.7280   477.8    5.934      39.925
2014   11       14    15  25    5.7267   477.8    5.930      39.915
2014   11       14    15  30    5.7255   477.8    5.925      39.905
2014   11       14    15  36    5.7243   477.8    5.921      39.895
2014   11       14    15  41    5.7230   477.8    5.916      39.884
2014   11       14    15  47    5.7218   477.8    5.911      39.873
2014   11       14    15  52    5.7206   477.8    5.907      39.862
2014   11       14    15  58    5.7193   477.8    5.902      39.851
2014   11       14    16   3    5.7180   477.8    5.898      39.839
2014   11       14    16   9    5.7168   477.8    5.893      39.827
2014   11       14    16  14    5.7155   477.8    5.888      39.815
2014   11       14    16  20    5.7142   477.8    5.884      39.803
2014   11       14    16  26    5.7130   477.8    5.879      39.790
2014   11       14    16  31    5.7117   477.8    5.874      39.778
2014   11       14    16  37    5.7103   477.8    5.870      39.765
2014   11       14    16  42    5.7090   477.8    5.865      39.752
2014   11       14    16  48    5.7077   477.8    5.860      39.739
2014   11       14    16  53    5.7066   477.7    5.856      39.725
2014   11       14    16  59    5.7052   477.7    5.851      39.712
2014   11       14    17   4    5.7040   477.7    5.847      39.699
2014   11       14    17  10    5.7027   477.7    5.842      39.686
2014   11       14    17  15    5.7015   477.7    5.838      39.673
2014   11       14    17  21    5.7005   477.7    5.834      39.660
2014   11       14    17  26    5.6992   477.7    5.830      39.647
2014   11       14    17  32    5.6982   477.7    5.826      39.635
2014   11       14    17  37    5.6970   477.6    5.822      39.622
2014   11       14    17  43    5.6959   477.6    5.818      39.610
2014   11       14    17  48    5.6949   477.6    5.814      39.598
2014   11       14    17  54    5.6939   477.6    5.810      39.587
2014   11       14    17  59    5.6930   477.6    5.807      39.576
2014   11       14    18   5    5.6920   477.6    5.803      39.565
2014   11       14    18  10    5.6910   477.5    5.800      39.554
2014   11       14    18  16    5.6900   477.5    5.797      39.544
2014   11       14    18  21    5.6891   477.5    5.793      39.534
2014   11       14    18  27    5.6881   477.5    5.790      39.524
2014   11       14    18  33    5.6871   477.5    5.787      39.514
2014   11       14    18  38    5.6861   477.4    5.785      39.504
2014   11       14    18  44    5.6852   477.4    5.782      39.494
2014   11       14    18  49    5.6841   477.4    5.779      39.483
2014   11       14    18  55    5.6831   477.4    5.776      39.473
2014   11       14    19   0    5.6821   477.4    5.774      39.462
2014   11       14    19   6    5.6809   477.3    5.771      39.452
2014   11       14    19  11    5.6798   477.3    5.769      39.441
2014   11       14    19  17    5.6787   477.3    5.766      39.429
2014   11       14    19  22    5.6775   477.3    5.764      39.418
2014   11       14    19  28    5.6763   477.2    5.761      39.406
2014   11       14    19  33    5.6752   477.2    5.759      39.394
2014   11       14    19  39    5.6739   477.2    5.756      39.382
2014   11       14    19  44    5.6727   477.2    5.754      39.370
2014   11       14    19  50    5.6714   477.1    5.752      39.358
2014   11       14    19  55    5.6702   477.1    5.749      39.345
2014   11       14    20   1    5.6690   477.1    5.747      39.332
2014   11       14    20   6    5.6676   477.1    5.744      39.319
2014   11       14    20  12    5.6664   477.0    5.742      39.307
2014   11       14    20  17    5.6651   477.0    5.740      39.294
2014   11       14    20  23    5.6637   477.0    5.737      39.281
2014   11       14    20  28    5.6623   476.9    5.735      39.267
2014   11       14    20  34    5.6610   476.9    5.733      39.254
2014   11       14    20  40    5.6596   476.9    5.730      39.241
2014   11       14    20  45    5.6582   476.8    5.728      39.227
2014   11       14    20  51    5.6567   476.8    5.725      39.213
2014   11       14    20  56    5.6553   476.8    5.723      39.199
2014   11       14    21   2    5.6539   476.7    5.720      39.184
2014   11       14    21   7    5.6524   476.7    5.717      39.170
2014   11       14    21  13    5.6509   476.7    5.715      39.155
2014   11       14    21  18    5.6494   476.6    5.712      39.140
2014   11       14    21  24    5.6478   476.6    5.709      39.124
2014   11       14    21  29    5.6462   476.5    5.706      39.108
2014   11       14    21  35    5.6446   476.5    5.703      39.092
2014   11       14    21  40    5.6431   476.4    5.700      39.076
2014   11       14    21  46    5.6414   476.4    5.697      39.059
2014   11       14    21  51    5.6398   476.4    5.693      39.042
2014   11       14    21  57    5.6382   476.3    5.690      39.024
2014   11       14    22   2    5.6365   476.3    5.687      39.006
2014   11       14    22   8    5.6348   476.2    5.684      38.988
2014   11       14    22  13    5.6332   476.1    5.680      38.970
2014   11       14    22  19    5.6315   476.1    5.677      38.951
2014   11       14    22  24    5.6298   476.0    5.674      38.932
2014   11       14    22  30    5.6281   476.0    5.670      38.912
2014   11       14    22  35    5.6264   475.9    5.667      38.893
2014   11       14    22  41    5.6246   475.9    5.663      38.873
2014   11       14    22  47    5.6229   475.8    5.660      38.853
2014   11       14    22  52    5.6212   475.7    5.657      38.833
2014   11       14    22  58    5.6195   475.7    5.653      38.812
2014   11       14    23   3    5.6177   475.6    5.650      38.791
2014   11       14    23   9    5.6161   475.5    5.646      38.771
2014   11       14    23  14    5.6144   475.5    5.643      38.750
2014   11       14    23  20    5.6127   475.4    5.640      38.729
2014   11       14    23  25    5.6109   475.3    5.637      38.708
2014   11       14    23  31    5.6093   475.3    5.634      38.687
2014   11       14    23  36    5.6075   475.2    5.631      38.666
2014   11       14    23  42    5.6060   475.1    5.628      38.645
2014   11       14    23  47    5.6043   475.0    5.625      38.624
2014   11       14    23  53    5.6027   474.9    5.622      38.603
2014   11       14    23  58    5.6011   474.9    5.619      38.583
2014   11       15     0   4    5.5995   474.8    5.617      38.562
2014   11       15     0   9    5.5980   474.7    5.614      38.542
2014   11       15     0  15    5.5965   474.6    5.612      38.522
2014   11       15     0  20    5.5951   474.5    5.610      38.502
2014   11       15     0  26    5.5936   474.4    5.608      38.483
2014   11       15     0  31    5.5923   474.3    5.607      38.464
2014   11       15     0  37    5.5909   474.2    5.605      38.445
2014   11       15     0  43    5.5896   474.1    5.604      38.427
2014   11       15     0  48    5.5883   474.0    5.603      38.409
2014   11       15     0  54    5.5872   473.9    5.602      38.393
2014   11       15     0  59    5.5861   473.9    5.601      38.377
2014   11       15     1   5    5.5850   473.8    5.601      38.361
2014   11       15     1  10    5.5840   473.7    5.600      38.347
2014   11       15     1  16    5.5831   473.6    5.600      38.332
2014   11       15     1  21    5.5822   473.5    5.600      38.319
2014   11       15     1  27    5.5814   473.4    5.600      38.306
2014   11       15     1  32    5.5807   473.3    5.600      38.293
2014   11       15     1  38    5.5799   473.2    5.600      38.281
2014   11       15     1  43    5.5792   473.1    5.600      38.268
2014   11       15     1  49    5.5786   473.0    5.600      38.256
2014   11       15     1  54    5.5779   473.0    5.600      38.244
2014   11       15     2   0    5.5773   472.9    5.600      38.231
2014   11       15     2   5    5.5767   472.8    5.600      38.219
2014   11       15     2  11    5.5761   472.7    5.600      38.206
2014   11       15     2  16    5.5755   472.6    5.600      38.193
2014   11       15     2  22    5.5750   472.5    5.600      38.179
2014   11       15     2  27    5.5744   472.4    5.600      38.166
2014   11       15     2  33    5.5738   472.3    5.600      38.151
2014   11       15     2  38    5.5732   472.2    5.600      38.137
2014   11       15     2  44    5.5725   472.2    5.600      38.123
2014   11       15     2  50    5.5719   472.1    5.599      38.108
2014   11       15     2  55    5.5713   472.0    5.599      38.093
2014   11       15     3   1    5.5707   471.9    5.599      38.078
2014   11       15     3   6    5.5701   471.8    5.599      38.062
2014   11       15     3  12    5.5695   471.7    5.599      38.047
2014   11       15     3  17    5.5689   471.6    5.599      38.032
2014   11       15     3  23    5.5683   471.5    5.599      38.016
2014   11       15     3  28    5.5678   471.4    5.599      38.001
2014   11       15     3  34    5.5671   471.3    5.599      37.986
2014   11       15     3  39    5.5665   471.2    5.599      37.971
2014   11       15     3  45    5.5660   471.2    5.598      37.956
2014   11       15     3  50    5.5654   471.1    5.598      37.941
2014   11       15     3  56    5.5648   471.0    5.598      37.926
2014   11       15     4   1    5.5642   470.9    5.598      37.911
2014   11       15     4   7    5.5636   470.8    5.598      37.897
2014   11       15     4  12    5.5631   470.7    5.598      37.882
2014   11       15     4  18    5.5626   470.6    5.598      37.867
2014   11       15     4  23    5.5620   470.5    5.598      37.852
2014   11       15     4  29    5.5613   470.4    5.598      37.837
2014   11       15     4  34    5.5608   470.3    5.597      37.823
2014   11       15     4  40    5.5602   470.2    5.597      37.808
2014   11       15     4  45    5.5596   470.1    5.597      37.793
2014   11       15     4  51    5.5591   470.1    5.597      37.778
2014   11       15     4  57    5.5586   470.0    5.596      37.762
2014   11       15     5   2    5.5580   469.9    5.596      37.747
2014   11       15     5   8    5.5575   469.8    5.596      37.731
2014   11       15     5  13    5.5569   469.7    5.595      37.716
2014   11       15     5  19    5.5564   469.6    5.595      37.700
2014   11       15     5  24    5.5560   469.5    5.595      37.685
2014   11       15     5  30    5.5554   469.4    5.595      37.669
2014   11       15     5  35    5.5549   469.3    5.594      37.654
2014   11       15     5  41    5.5545   469.2    5.594      37.639
2014   11       15     5  46    5.5540   469.1    5.594      37.624
2014   11       15     5  52    5.5537   469.0    5.593      37.608
2014   11       15     5  57    5.5533   468.9    5.593      37.593
2014   11       15     6   3    5.5527   468.8    5.593      37.578
2014   11       15     6   8    5.5523   468.7    5.592      37.563
2014   11       15     6  14    5.5519   468.6    5.592      37.547
2014   11       15     6  19    5.5515   468.5    5.592      37.532
2014   11       15     6  25    5.5512   468.4    5.592      37.517
2014   11       15     6  30    5.5508   468.3    5.591      37.502
2014   11       15     6  36    5.5505   468.2    5.591      37.487
2014   11       15     6  41    5.5503   468.1    5.591      37.472
2014   11       15     6  47    5.5499   468.0    5.591      37.457
2014   11       15     6  52    5.5496   467.9    5.591      37.442
2014   11       15     6  58    5.5493   467.8    5.591      37.428
2014   11       15     7   4    5.5491   467.7    5.591      37.413
2014   11       15     7   9    5.5490   467.6    5.591      37.398
2014   11       15     7  15    5.5487   467.4    5.591      37.384
2014   11       15     7  20    5.5485   467.3    5.592      37.370
2014   11       15     7  26    5.5484   467.2    5.592      37.356
2014   11       15     7  31    5.5482   467.1    5.592      37.342
2014   11       15     7  37    5.5481   467.0    5.593      37.328
2014   11       15     7  42    5.5480   466.9    5.594      37.316
2014   11       15     7  48    5.5479   466.8    5.594      37.303
2014   11       15     7  53    5.5479   466.7    5.595      37.291
2014   11       15     7  59    5.5479   466.6    5.596      37.279
2014   11       15     8   4    5.5478   466.5    5.596      37.268
2014   11       15     8  10    5.5479   466.4    5.597      37.257
2014   11       15     8  15    5.5480   466.3    5.598      37.246
2014   11       15     8  21    5.5479   466.2    5.598      37.235
2014   11       15     8  26    5.5479   466.1    5.599      37.224
2014   11       15     8  32    5.5480   466.0    5.600      37.214
2014   11       15     8  37    5.5480   465.9    5.600      37.203
2014   11       15     8  43    5.5481   465.8    5.601      37.193
2014   11       15     8  48    5.5482   465.7    5.601      37.182
2014   11       15     8  54    5.5484   465.5    5.602      37.172
2014   11       15     8  59    5.5484   465.4    5.603      37.162
2014   11       15     9   5    5.5485   465.3    5.603      37.152
2014   11       15     9  11    5.5487   465.2    5.604      37.142
2014   11       15     9  16    5.5488   465.1    5.604      37.131
2014   11       15     9  22    5.5491   465.0    5.605      37.120
2014   11       15     9  27    5.5492   464.9    5.605      37.110
2014   11       15     9  33    5.5493   464.8    5.606      37.099
2014   11       15     9  38    5.5495   464.7    5.606      37.088
2014   11       15     9  44    5.5497   464.6    5.607      37.077
2014   11       15     9  49    5.5499   464.5    5.607      37.066
2014   11       15     9  55    5.5502   464.4    5.608      37.055
2014   11       15    10   0    5.5504   464.3    5.609      37.044
2014   11       15    10   6    5.5506   464.1    5.609      37.032
2014   11       15    10  11    5.5508   464.0    5.610      37.021
2014   11       15    10  17    5.5511   463.9    5.610      37.010
2014   11       15    10  22    5.5513   463.8    5.611      36.998
2014   11       15    10  28    5.5515   463.7    5.611      36.986
2014   11       15    10  33    5.5518   463.6    5.612      36.974
2014   11       15    10  39    5.5520   463.5    5.612      36.962
2014   11       15    10  44    5.5523   463.4    5.613      36.950
2014   11       15    10  50    5.5526   463.2    5.613      36.937
2014   11       15    10  55    5.5528   463.1    5.614      36.925
2014   11       15    11   1    5.5531   463.0    5.614      36.912
2014   11       15    11   6    5.5534   462.9    5.615      36.900
2014   11       15    11  12    5.5537   462.8    5.616      36.887
2014   11       15    11  18    5.5541   462.7    5.616      36.874
2014   11       15    11  23    5.5544   462.6    5.617      36.861
2014   11       15    11  29    5.5548   462.4    5.617      36.848
2014   11       15    11  34    5.5552   462.3    5.618      36.835
2014   11       15    11  40    5.5556   462.2    5.619      36.822
2014   11       15    11  45    5.5561   462.1    5.619      36.809
2014   11       15    11  51    5.5566   462.0    5.620      36.796
2014   11       15    11  56    5.5571   461.9    5.621      36.783
2014   11       15    12   2    5.5576   461.7    5.622      36.770
2014   11       15    12   7    5.5583   461.6    5.622      36.756
2014   11       15    12  13    5.5588   461.5    5.623      36.743
2014   11       15    12  18    5.5594   461.4    5.624      36.730
2014   11       15    12  24    5.5601   461.3    5.625      36.718
2014   11       15    12  29    5.5608   461.2    5.626      36.705
2014   11       15    12  35    5.5615   461.0    5.627      36.692
2014   11       15    12  40    5.5623   460.9    5.629      36.679
2014   11       15    12  46    5.5631   460.8    5.630      36.667
2014   11       15    12  51    5.5639   460.7    5.631      36.654
2014   11       15    12  57    5.5648   460.6    5.632      36.642
2014   11       15    13   2    5.5656   460.5    5.634      36.629
2014   11       15    13   8    5.5666   460.3    5.635      36.617
2014   11       15    13  13    5.5675   460.2    5.636      36.604
2014   11       15    13  19    5.5685   460.1    5.638      36.591
2014   11       15    13  25    5.5696   460.0    5.639      36.579
2014   11       15    13  30    5.5705   459.9    5.640      36.566
2014   11       15    13  36    5.5715   459.8    5.642      36.553
2014   11       15    13  41    5.5727   459.6    5.643      36.540
2014   11       15    13  47    5.5736   459.5    5.645      36.527
2014   11       15    13  52    5.5749   459.4    5.646      36.514
2014   11       15    13  58    5.5760   459.3    5.648      36.501
2014   11       15    14   3    5.5770   459.2    5.650      36.488
2014   11       15    14   9    5.5781   459.1    5.651      36.475
2014   11       15    14  14    5.5793   458.9    5.653      36.461
2014   11       15    14  20    5.5805   458.8    5.655      36.448
2014   11       15    14  25    5.5817   458.7    5.656      36.435
2014   11       15    14  31    5.5830   458.6    5.658      36.422
2014   11       15    14  36    5.5842   458.5    5.660      36.408
2014   11       15    14  42    5.5857   458.3    5.662      36.395
2014   11       15    14  47    5.5868   458.2    5.663      36.382
2014   11       15    14  53    5.5884   458.1    5.665      36.369
2014   11       15    14  58    5.5895   458.0    5.667      36.356
2014   11       15    15   4    5.5909   457.9    5.669      36.343
2014   11       15    15   9    5.5923   457.7    5.672      36.331
2014   11       15    15  15    5.5938   457.6    5.674      36.319
2014   11       15    15  20    5.5953   457.5    5.676      36.306
2014   11       15    15  26    5.5970   457.4    5.678      36.294
2014   11       15    15  31    5.5984   457.2    5.681      36.282
2014   11       15    15  37    5.6002   457.1    5.683      36.271
2014   11       15    15  43    5.6016   457.0    5.686      36.260
2014   11       15    15  48    5.6033   456.9    5.688      36.249
2014   11       15    15  54    5.6050   456.8    5.691      36.238
2014   11       15    15  59    5.6067   456.6    5.694      36.227
2014   11       15    16   5    5.6085   456.5    5.697      36.217
2014   11       15    16  10    5.6105   456.4    5.699      36.208
2014   11       15    16  16    5.6123   456.3    5.702      36.198
2014   11       15    16  21    5.6139   456.2    5.706      36.189
2014   11       15    16  27    5.6158   456.0    5.709      36.180
2014   11       15    16  32    5.6179   455.9    5.712      36.171
2014   11       15    16  38    5.6199   455.8    5.715      36.163
2014   11       15    16  43    5.6217   455.7    5.718      36.155
2014   11       15    16  49    5.6237   455.6    5.722      36.147
2014   11       15    16  54    5.6257   455.4    5.725      36.140
2014   11       15    17   0    5.6280   455.3    5.729      36.133
2014   11       15    17   5    5.6298   455.2    5.732      36.126
2014   11       15    17  11    5.6319   455.1    5.736      36.119
2014   11       15    17  16    5.6341   455.0    5.739      36.113
2014   11       15    17  22    5.6362   454.8    5.743      36.107
2014   11       15    17  27    5.6384   454.7    5.746      36.101
2014   11       15    17  33    5.6406   454.6    5.750      36.096
2014   11       15    17  38    5.6429   454.5    5.754      36.090
2014   11       15    17  44    5.6452   454.4    5.757      36.085
2014   11       15    17  50    5.6477   454.2    5.761      36.081
2014   11       15    17  55    5.6500   454.1    5.765      36.076
2014   11       15    18   1    5.6522   454.0    5.768      36.072
2014   11       15    18   6    5.6545   453.9    5.772      36.068
2014   11       15    18  12    5.6570   453.8    5.776      36.064
2014   11       15    18  17    5.6594   453.7    5.779      36.060
2014   11       15    18  23    5.6619   453.5    5.783      36.057
2014   11       15    18  28    5.6643   453.4    5.787      36.054
2014   11       15    18  34    5.6669   453.3    5.790      36.051
2014   11       15    18  39    5.6694   453.2    5.794      36.048
2014   11       15    18  45    5.6719   453.1    5.797      36.046
2014   11       15    18  50    5.6745   452.9    5.801      36.044
2014   11       15    18  56    5.6771   452.8    5.805      36.041
2014   11       15    19   1    5.6798   452.7    5.808      36.039
2014   11       15    19   7    5.6824   452.6    5.812      36.038
2014   11       15    19  12    5.6851   452.5    5.816      36.036
2014   11       15    19  18    5.6881   452.4    5.820      36.035
2014   11       15    19  23    5.6909   452.2    5.823      36.034
2014   11       15    19  29    5.6934   452.1    5.827      36.033
2014   11       15    19  34    5.6962   452.0    5.831      36.032
2014   11       15    19  40    5.6991   451.9    5.835      36.032
2014   11       15    19  45    5.7020   451.8    5.839      36.031
2014   11       15    19  51    5.7052   451.7    5.843      36.032
2014   11       15    19  57    5.7079   451.6    5.848      36.032
2014   11       15    20   2    5.7109   451.4    5.852      36.033
2014   11       15    20   8    5.7139   451.3    5.857      36.034
2014   11       15    20  13    5.7170   451.2    5.861      36.036
2014   11       15    20  19    5.7204   451.1    5.866      36.038
2014   11       15    20  24    5.7233   451.0    5.871      36.041
2014   11       15    20  30    5.7265   450.9    5.876      36.044
2014   11       15    20  35    5.7298   450.8    5.881      36.048
2014   11       15    20  41    5.7331   450.7    5.886      36.052
2014   11       15    20  46    5.7364   450.6    5.891      36.057
2014   11       15    20  52    5.7398   450.5    5.897      36.062
2014   11       15    20  57    5.7432   450.4    5.902      36.068
2014   11       15    21   3    5.7466   450.3    5.908      36.074
2014   11       15    21   8    5.7504   450.2    5.914      36.081
2014   11       15    21  14    5.7536   450.1    5.920      36.088
2014   11       15    21  19    5.7571   450.0    5.926      36.096
2014   11       15    21  25    5.7607   449.9    5.932      36.105
2014   11       15    21  30    5.7643   449.8    5.938      36.114
2014   11       15    21  36    5.7682   449.7    5.945      36.123
2014   11       15    21  41    5.7719   449.6    5.951      36.133
2014   11       15    21  47    5.7754   449.5    5.958      36.144
2014   11       15    21  52    5.7791   449.4    5.965      36.155
2014   11       15    21  58    5.7829   449.3    5.972      36.166
2014   11       15    22   4    5.7870   449.2    5.979      36.177
2014   11       15    22   9    5.7906   449.1    5.986      36.189
2014   11       15    22  15    5.7945   449.1    5.993      36.202
2014   11       15    22  20    5.7984   449.0    6.000      36.214
2014   11       15    22  26    5.8024   448.9    6.008      36.227
2014   11       15    22  31    5.8065   448.8    6.015      36.240
2014   11       15    22  37    5.8109   448.7    6.023      36.253
2014   11       15    22  42    5.8147   448.6    6.031      36.267
2014   11       15    22  48    5.8189   448.5    6.039      36.282
2014   11       15    22  53    5.8231   448.5    6.047      36.297
2014   11       15    22  59    5.8276   448.4    6.055      36.312
2014   11       15    23   4    5.8316   448.3    6.063      36.328
2014   11       15    23  10    5.8362   448.2    6.071      36.345
2014   11       15    23  15    5.8402   448.1    6.079      36.362
2014   11       15    23  21    5.8446   448.1    6.087      36.380
2014   11       15    23  26    5.8490   448.0    6.095      36.398
2014   11       15    23  32    5.8538   447.9    6.103      36.416
2014   11       15    23  37    5.8579   447.8    6.112      36.434
2014   11       15    23  43    5.8624   447.8    6.120      36.453
2014   11       15    23  48    5.8669   447.7    6.128      36.473
2014   11       15    23  54    5.8715   447.6    6.136      36.493
2014   11       15    23  59    5.8764   447.6    6.144      36.513
2014   11       16     0   5    5.8807   447.5    6.152      36.533
2014   11       16     0  10    5.8857   447.4    6.160      36.553
2014   11       16     0  16    5.8901   447.4    6.167      36.573
2014   11       16     0  22    5.8948   447.3    6.175      36.593
2014   11       16     0  27    5.8996   447.2    6.183      36.614
2014   11       16     0  33    5.9043   447.2    6.191      36.635
2014   11       16     0  38    5.9091   447.1    6.198      36.656
2014   11       16     0  44    5.9139   447.1    6.206      36.678
2014   11       16     0  49    5.9188   447.0    6.213      36.699
2014   11       16     0  55    5.9236   447.0    6.221      36.721
2014   11       16     1   0    5.9288   446.9    6.228      36.743
2014   11       16     1   6    5.9334   446.9    6.235      36.764
2014   11       16     1  11    5.9383   446.8    6.242      36.786
2014   11       16     1  17    5.9434   446.8    6.249      36.808
2014   11       16     1  22    5.9481   446.7    6.256      36.829
2014   11       16     1  28    5.9530   446.7    6.262      36.850
2014   11       16     1  33    5.9579   446.6    6.269      36.871
2014   11       16     1  39    5.9628   446.6    6.275      36.892
2014   11       16     1  44    5.9677   446.6    6.281      36.912
2014   11       16     1  50    5.9726   446.5    6.287      36.932
2014   11       16     1  55    5.9775   446.5    6.293      36.951
2014   11       16     2   1    5.9823   446.4    6.299      36.970
2014   11       16     2   6    5.9872   446.4    6.305      36.989
2014   11       16     2  12    5.9921   446.3    6.310      37.007
2014   11       16     2  17    5.9970   446.3    6.316      37.025
2014   11       16     2  23    6.0019   446.3    6.322      37.042
2014   11       16     2  29    6.0070   446.2    6.327      37.059
2014   11       16     2  34    6.0117   446.2    6.332      37.075
2014   11       16     2  40    6.0165   446.1    6.338      37.092
2014   11       16     2  45    6.0216   446.1    6.343      37.108
2014   11       16     2  51    6.0263   446.1    6.348      37.123
2014   11       16     2  56    6.0313   446.0    6.354      37.139
2014   11       16     3   2    6.0363   446.0    6.359      37.154
2014   11       16     3   7    6.0411   446.0    6.364      37.170
2014   11       16     3  13    6.0460   445.9    6.369      37.185
2014   11       16     3  18    6.0510   445.9    6.374      37.200
2014   11       16     3  24    6.0561   445.9    6.379      37.215
2014   11       16     3  29    6.0609   445.8    6.384      37.230
2014   11       16     3  35    6.0660   445.8    6.390      37.245
2014   11       16     3  40    6.0711   445.8    6.395      37.260
2014   11       16     3  46    6.0760   445.7    6.400      37.276
2014   11       16     3  51    6.0811   445.7    6.405      37.291
2014   11       16     3  57    6.0861   445.7    6.411      37.307
2014   11       16     4   2    6.0913   445.6    6.416      37.323
2014   11       16     4   8    6.0964   445.6    6.422      37.340
2014   11       16     4  13    6.1015   445.6    6.427      37.357
2014   11       16     4  19    6.1067   445.6    6.433      37.374
2014   11       16     4  24    6.1119   445.5    6.439      37.392
2014   11       16     4  30    6.1171   445.5    6.444      37.411
2014   11       16     4  36    6.1225   445.5    6.450      37.430
2014   11       16     4  41    6.1277   445.5    6.456      37.450
2014   11       16     4  47    6.1330   445.4    6.463      37.471
2014   11       16     4  52    6.1384   445.4    6.469      37.492
2014   11       16     4  58    6.1437   445.4    6.475      37.514
2014   11       16     5   3    6.1491   445.4    6.482      37.536
2014   11       16     5   9    6.1546   445.4    6.489      37.559
2014   11       16     5  14    6.1601   445.4    6.496      37.583
2014   11       16     5  20    6.1655   445.4    6.503      37.608
2014   11       16     5  25    6.1710   445.4    6.510      37.633
2014   11       16     5  31    6.1765   445.4    6.517      37.660
2014   11       16     5  36    6.1820   445.4    6.525      37.687
2014   11       16     5  42    6.1876   445.3    6.532      37.714
2014   11       16     5  47    6.1932   445.3    6.540      37.742
2014   11       16     5  53    6.1988   445.3    6.548      37.771
2014   11       16     5  58    6.2044   445.3    6.556      37.801
2014   11       16     6   4    6.2100   445.3    6.564      37.831
2014   11       16     6   9    6.2157   445.4    6.573      37.861
2014   11       16     6  15    6.2214   445.4    6.582      37.893
2014   11       16     6  20    6.2271   445.4    6.590      37.925
2014   11       16     6  26    6.2328   445.4    6.600      37.957
2014   11       16     6  31    6.2386   445.4    6.609      37.990
2014   11       16     6  37    6.2443   445.4    6.618      38.024
2014   11       16     6  42    6.2501   445.4    6.628      38.058
2014   11       16     6  48    6.2559   445.4    6.638      38.093
2014   11       16     6  54    6.2617   445.4    6.648      38.129
2014   11       16     6  59    6.2675   445.5    6.658      38.167
2014   11       16     7   5    6.2734   445.5    6.668      38.205
2014   11       16     7  10    6.2792   445.5    6.678      38.245
2014   11       16     7  16    6.2851   445.5    6.689      38.286
2014   11       16     7  21    6.2909   445.6    6.699      38.329
2014   11       16     7  27    6.2968   445.6    6.709      38.372
2014   11       16     7  32    6.3026   445.6    6.719      38.417
2014   11       16     7  38    6.3084   445.7    6.729      38.462
2014   11       16     7  43    6.3143   445.7    6.739      38.509
2014   11       16     7  49    6.3201   445.8    6.749      38.556
2014   11       16     7  54    6.3258   445.8    6.758      38.603
2014   11       16     8   0    6.3316   445.8    6.767      38.651
2014   11       16     8   5    6.3372   445.9    6.776      38.699
2014   11       16     8  11    6.3430   445.9    6.785      38.747
2014   11       16     8  16    6.3485   446.0    6.793      38.794
2014   11       16     8  22    6.3541   446.0    6.801      38.841
2014   11       16     8  27    6.3597   446.1    6.809      38.887
2014   11       16     8  33    6.3652   446.1    6.816      38.933
2014   11       16     8  38    6.3707   446.2    6.823      38.978
2014   11       16     8  44    6.3761   446.2    6.830      39.022
2014   11       16     8  49    6.3815   446.3    6.837      39.066
2014   11       16     8  55    6.3869   446.3    6.843      39.108
2014   11       16     9   1    6.3921   446.4    6.849      39.150
2014   11       16     9   6    6.3974   446.4    6.855      39.192
2014   11       16     9  12    6.4027   446.5    6.860      39.232
2014   11       16     9  17    6.4079   446.5    6.865      39.272
2014   11       16     9  23    6.4131   446.6    6.870      39.311
2014   11       16     9  28    6.4182   446.7    6.875      39.350
2014   11       16     9  34    6.4234   446.7    6.880      39.388
2014   11       16     9  39    6.4285   446.8    6.884      39.425
2014   11       16     9  45    6.4335   446.8    6.888      39.461
2014   11       16     9  50    6.4386   446.9    6.892      39.497
2014   11       16     9  56    6.4436   446.9    6.896      39.532
2014   11       16    10   1    6.4486   447.0    6.900      39.566
2014   11       16    10   7    6.4536   447.0    6.903      39.600
2014   11       16    10  12    6.4586   447.1    6.907      39.633
2014   11       16    10  18    6.4636   447.1    6.910      39.666
2014   11       16    10  23    6.4686   447.1    6.913      39.698
2014   11       16    10  29    6.4735   447.2    6.916      39.729
2014   11       16    10  34    6.4785   447.2    6.919      39.760
2014   11       16    10  40    6.4834   447.3    6.922      39.791
2014   11       16    10  45    6.4883   447.3    6.925      39.821
2014   11       16    10  51    6.4932   447.4    6.927      39.850
2014   11       16    10  56    6.4982   447.4    6.930      39.880
2014   11       16    11   2    6.5031   447.5    6.933      39.908
2014   11       16    11   8    6.5080   447.5    6.935      39.937
2014   11       16    11  13    6.5130   447.5    6.938      39.965
2014   11       16    11  19    6.5179   447.6    6.940      39.993
2014   11       16    11  24    6.5228   447.6    6.943      40.021
2014   11       16    11  30    6.5278   447.7    6.945      40.048
2014   11       16    11  35    6.5327   447.7    6.947      40.075
2014   11       16    11  41    6.5376   447.7    6.950      40.103
2014   11       16    11  46    6.5426   447.8    6.952      40.130
2014   11       16    11  52    6.5474   447.8    6.954      40.157
2014   11       16    11  57    6.5525   447.9    6.957      40.184
2014   11       16    12   3    6.5574   447.9    6.959      40.211
2014   11       16    12   8    6.5624   447.9    6.962      40.238
2014   11       16    12  14    6.5674   448.0    6.964      40.265
2014   11       16    12  19    6.5724   448.0    6.967      40.293
2014   11       16    12  25    6.5774   448.1    6.969      40.320
2014   11       16    12  30    6.5824   448.1    6.972      40.348
2014   11       16    12  36    6.5874   448.2    6.975      40.376
2014   11       16    12  41    6.5925   448.2    6.977      40.405
2014   11       16    12  47    6.5975   448.3    6.980      40.433
2014   11       16    12  52    6.6026   448.3    6.983      40.463
2014   11       16    12  58    6.6077   448.3    6.987      40.492
2014   11       16    13   3    6.6128   448.4    6.990      40.522
2014   11       16    13   9    6.6180   448.4    6.993      40.553
2014   11       16    13  14    6.6231   448.5    6.997      40.584
2014   11       16    13  20    6.6283   448.6    7.000      40.616
2014   11       16    13  26    6.6335   448.6    7.004      40.648
2014   11       16    13  31    6.6386   448.7    7.008      40.681
2014   11       16    13  37    6.6438   448.7    7.012      40.714
2014   11       16    13  42    6.6492   448.8    7.017      40.748
2014   11       16    13  48    6.6545   448.8    7.021      40.783
2014   11       16    13  53    6.6598   448.9    7.026      40.818
2014   11       16    13  59    6.6651   449.0    7.031      40.855
2014   11       16    14   4    6.6705   449.0    7.036      40.891
2014   11       16    14  10    6.6759   449.1    7.042      40.928
2014   11       16    14  15    6.6813   449.2    7.047      40.966
2014   11       16    14  21    6.6867   449.2    7.053      41.005
2014   11       16    14  26    6.6922   449.3    7.060      41.045
2014   11       16    14  32    6.6976   449.4    7.066      41.086
2014   11       16    14  37    6.7031   449.5    7.072      41.128
2014   11       16    14  43    6.7085   449.5    7.079      41.172
2014   11       16    14  48    6.7138   449.6    7.086      41.217
2014   11       16    14  54    6.7195   449.7    7.093      41.263
2014   11       16    14  59    6.7249   449.8    7.100      41.311
2014   11       16    15   5    6.7303   449.9    7.107      41.359
2014   11       16    15  10    6.7355   450.0    7.114      41.407
2014   11       16    15  16    6.7409   450.1    7.121      41.457
2014   11       16    15  21    6.7464   450.2    7.128      41.507
2014   11       16    15  27    6.7517   450.3    7.135      41.558
2014   11       16    15  32    6.7570   450.4    7.142      41.610
2014   11       16    15  38    6.7622   450.5    7.149      41.662
2014   11       16    15  44    6.7674   450.6    7.156      41.714
2014   11       16    15  49    6.7725   450.7    7.162      41.766
2014   11       16    15  55    6.7776   450.8    7.169      41.818
2014   11       16    16   0    6.7824   450.9    7.176      41.870
2014   11       16    16   6    6.7874   451.0    7.182      41.922
2014   11       16    16  11    6.7924   451.1    7.189      41.975
2014   11       16    16  17    6.7975   451.2    7.195      42.027
2014   11       16    16  22    6.8024   451.3    7.202      42.079
2014   11       16    16  28    6.8071   451.5    7.208      42.132
2014   11       16    16  33    6.8121   451.6    7.214      42.185
2014   11       16    16  39    6.8169   451.7    7.220      42.239
2014   11       16    16  44    6.8217   451.8    7.226      42.293
2014   11       16    16  50    6.8265   451.9    7.232      42.349
2014   11       16    16  55    6.8312   452.1    7.237      42.406
2014   11       16    17   1    6.8360   452.2    7.242      42.463
2014   11       16    17   6    6.8407   452.3    7.247      42.520
2014   11       16    17  12    6.8454   452.4    7.252      42.578
2014   11       16    17  17    6.8500   452.5    7.257      42.637
2014   11       16    17  23    6.8547   452.7    7.261      42.695
2014   11       16    17  28    6.8594   452.8    7.265      42.754
2014   11       16    17  34    6.8640   452.9    7.268      42.813
2014   11       16    17  39    6.8687   453.0    7.272      42.871
2014   11       16    17  45    6.8732   453.1    7.275      42.929
2014   11       16    17  50    6.8778   453.3    7.278      42.987
2014   11       16    17  56    6.8824   453.4    7.281      43.044
2014   11       16    18   2    6.8870   453.5    7.283      43.100
2014   11       16    18   7    6.8916   453.6    7.285      43.156
2014   11       16    18  13    6.8961   453.7    7.287      43.210
2014   11       16    18  18    6.9006   453.9    7.289      43.263
2014   11       16    18  24    6.9051   454.0    7.290      43.316
2014   11       16    18  29    6.9096   454.1    7.291      43.367
2014   11       16    18  35    6.9141   454.2    7.292      43.418
2014   11       16    18  40    6.9185   454.3    7.293      43.467
2014   11       16    18  46    6.9230   454.4    7.294      43.516
2014   11       16    18  51    6.9274   454.6    7.294      43.563
2014   11       16    18  57    6.9318   454.7    7.294      43.610
2014   11       16    19   2    6.9361   454.8    7.294      43.656
2014   11       16    19   8    6.9404   454.9    7.294      43.700
2014   11       16    19  13    6.9448   455.0    7.293      43.744
2014   11       16    19  19    6.9490   455.1    7.292      43.786
2014   11       16    19  24    6.9533   455.2    7.292      43.828
2014   11       16    19  30    6.9575   455.4    7.291      43.868
2014   11       16    19  35    6.9617   455.5    7.289      43.908
2014   11       16    19  41    6.9658   455.6    7.288      43.946
2014   11       16    19  46    6.9700   455.7    7.287      43.984
2014   11       16    19  52    6.9741   455.8    7.285      44.021
2014   11       16    19  57    6.9782   455.9    7.283      44.057
2014   11       16    20   3    6.9822   456.0    7.282      44.092
2014   11       16    20   9    6.9863   456.2    7.280      44.126
2014   11       16    20  14    6.9903   456.3    7.278      44.160
2014   11       16    20  20    6.9943   456.4    7.276      44.193
2014   11       16    20  25    6.9984   456.5    7.274      44.226
2014   11       16    20  31    7.0023   456.6    7.272      44.258
2014   11       16    20  36    7.0063   456.7    7.270      44.290
2014   11       16    20  42    7.0103   456.8    7.268      44.321
2014   11       16    20  47    7.0144   456.9    7.266      44.352
2014   11       16    20  53    7.0183   457.0    7.264      44.383
2014   11       16    20  58    7.0223   457.2    7.262      44.413
2014   11       16    21   4    7.0263   457.3    7.261      44.444
2014   11       16    21   9    7.0303   457.4    7.259      44.474
2014   11       16    21  15    7.0343   457.5    7.257      44.505
2014   11       16    21  20    7.0383   457.6    7.256      44.535
2014   11       16    21  26    7.0422   457.7    7.254      44.566
2014   11       16    21  31    7.0462   457.8    7.253      44.596
2014   11       16    21  37    7.0502   457.9    7.252      44.627
2014   11       16    21  42    7.0542   458.0    7.250      44.657
2014   11       16    21  48    7.0581   458.2    7.249      44.688
2014   11       16    21  53    7.0621   458.3    7.248      44.719
2014   11       16    21  59    7.0660   458.4    7.248      44.750
2014   11       16    22   4    7.0699   458.5    7.247      44.782
2014   11       16    22  10    7.0738   458.6    7.247      44.813
2014   11       16    22  15    7.0777   458.7    7.246      44.845
2014   11       16    22  21    7.0816   458.9    7.246      44.877
2014   11       16    22  26    7.0855   459.0    7.246      44.909
2014   11       16    22  32    7.0891   459.1    7.246      44.941
2014   11       16    22  38    7.0931   459.2    7.247      44.974
2014   11       16    22  43    7.0967   459.3    7.247      45.007
2014   11       16    22  49    7.1007   459.5    7.248      45.041
2014   11       16    22  54    7.1045   459.6    7.249      45.075
2014   11       16    23   0    7.1080   459.7    7.251      45.109
2014   11       16    23   5    7.1117   459.8    7.252      45.145
2014   11       16    23  11    7.1156   459.9    7.254      45.180
2014   11       16    23  16    7.1193   460.1    7.256      45.216
2014   11       16    23  22    7.1227   460.2    7.258      45.253
2014   11       16    23  27    7.1263   460.3    7.261      45.291
2014   11       16    23  33    7.1299   460.4    7.263      45.330
2014   11       16    23  38    7.1335   460.6    7.266      45.371
2014   11       16    23  44    7.1371   460.7    7.268      45.413
2014   11       16    23  49    7.1408   460.8    7.271      45.458
2014   11       16    23  55    7.1443   461.0    7.274      45.503
2014   11       17     0   0    7.1478   461.1    7.277      45.550
2014   11       17     0   6    7.1512   461.2    7.280      45.597
2014   11       17     0  11    7.1547   461.3    7.283      45.646
2014   11       17     0  17    7.1579   461.5    7.287      45.696
2014   11       17     0  22    7.1613   461.6    7.290      45.746
2014   11       17     0  28    7.1650   461.7    7.293      45.799
2014   11       17     0  33    7.1684   461.9    7.296      45.852
2014   11       17     0  39    7.1719   462.0    7.300      45.906
2014   11       17     0  45    7.1754   462.1    7.303      45.961
2014   11       17     0  50    7.1787   462.2    7.307      46.015
2014   11       17     0  56    7.1822   462.4    7.310      46.071
2014   11       17     1   1    7.1858   462.5    7.314      46.128
2014   11       17     1   7    7.1895   462.6    7.318      46.186
2014   11       17     1  12    7.1933   462.8    7.322      46.245
2014   11       17     1  18    7.1968   462.9    7.325      46.306
2014   11       17     1  23    7.2005   463.0    7.329      46.366
2014   11       17     1  29    7.2043   463.2    7.333      46.427
2014   11       17     1  34    7.2080   463.3    7.336      46.489
2014   11       17     1  40    7.2115   463.5    7.340      46.550
2014   11       17     1  45    7.2152   463.6    7.343      46.611
2014   11       17     1  51    7.2188   463.8    7.346      46.672
2014   11       17     1  56    7.2225   463.9    7.348      46.732
2014   11       17     2   2    7.2261   464.1    7.351      46.792
2014   11       17     2   7    7.2298   464.3    7.353      46.852
2014   11       17     2  13    7.2334   464.4    7.355      46.911
2014   11       17     2  18    7.2368   464.6    7.356      46.970
2014   11       17     2  24    7.2402   464.8    7.357      47.026
2014   11       17     2  29    7.2436   464.9    7.358      47.082
2014   11       17     2  35    7.2470   465.1    7.359      47.136
2014   11       17     2  40    7.2501   465.3    7.359      47.189
2014   11       17     2  46    7.2534   465.4    7.360      47.241
2014   11       17     2  52    7.2568   465.6    7.360      47.292
2014   11       17     2  57    7.2599   465.8    7.360      47.343
2014   11       17     3   3    7.2631   465.9    7.359      47.392
2014   11       17     3   8    7.2663   466.1    7.359      47.440
2014   11       17     3  14    7.2694   466.3    7.358      47.488
2014   11       17     3  19    7.2724   466.5    7.358      47.535
2014   11       17     3  25    7.2757   466.6    7.357      47.581
2014   11       17     3  30    7.2787   466.8    7.356      47.627
2014   11       17     3  36    7.2818   467.0    7.355      47.673
2014   11       17     3  41    7.2849   467.2    7.354      47.718
2014   11       17     3  47    7.2879   467.3    7.352      47.762
2014   11       17     3  52    7.2909   467.5    7.351      47.806
2014   11       17     3  58    7.2939   467.7    7.350      47.849
2014   11       17     4   3    7.2969   467.9    7.348      47.892
2014   11       17     4   9    7.2999   468.1    7.346      47.935
2014   11       17     4  14    7.3029   468.2    7.345      47.977
2014   11       17     4  20    7.3058   468.4    7.343      48.018
2014   11       17     4  25    7.3087   468.6    7.341      48.059
2014   11       17     4  31    7.3116   468.8    7.339      48.100
2014   11       17     4  36    7.3145   468.9    7.337      48.140
2014   11       17     4  42    7.3174   469.1    7.335      48.180
2014   11       17     4  47    7.3203   469.3    7.333      48.220
2014   11       17     4  53    7.3232   469.5    7.331      48.259
2014   11       17     4  58    7.3260   469.7    7.329      48.299
2014   11       17     5   4    7.3288   469.8    7.327      48.338
2014   11       17     5   9    7.3316   470.0    7.325      48.378
2014   11       17     5  15    7.3343   470.2    7.323      48.419
2014   11       17     5  21    7.3370   470.4    7.321      48.461
2014   11       17     5  26    7.3398   470.6    7.319      48.503
2014   11       17     5  32    7.3425   470.7    7.317      48.546
2014   11       17     5  37    7.3451   470.9    7.314      48.590
2014   11       17     5  43    7.3477   471.1    7.312      48.633
2014   11       17     5  48    7.3502   471.3    7.309      48.678
2014   11       17     5  54    7.3527   471.5    7.307      48.722
2014   11       17     5  59    7.3551   471.7    7.304      48.766
2014   11       17     6   5    7.3575   471.9    7.301      48.811
2014   11       17     6  10    7.3599   472.0    7.298      48.855
2014   11       17     6  16    7.3622   472.2    7.295      48.899
2014   11       17     6  21    7.3644   472.4    7.292      48.943
2014   11       17     6  27    7.3667   472.6    7.289      48.987
2014   11       17     6  32    7.3689   472.8    7.286      49.029
2014   11       17     6  38    7.3711   473.0    7.283      49.072
2014   11       17     6  43    7.3733   473.1    7.280      49.114
2014   11       17     6  49    7.3754   473.3    7.277      49.155
2014   11       17     6  54    7.3775   473.5    7.274      49.196
2014   11       17     7   0    7.3796   473.7    7.271      49.237
2014   11       17     7   5    7.3818   473.9    7.268      49.278
2014   11       17     7  11    7.3839   474.0    7.265      49.319
2014   11       17     7  16    7.3859   474.2    7.262      49.359
2014   11       17     7  22    7.3881   474.4    7.259      49.400
2014   11       17     7  27    7.3902   474.6    7.257      49.440
2014   11       17     7  33    7.3924   474.7    7.254      49.481
2014   11       17     7  39    7.3945   474.9    7.252      49.523
2014   11       17     7  44    7.3967   475.1    7.250      49.563
2014   11       17     7  50    7.3989   475.2    7.248      49.604
2014   11       17     7  55    7.4011   475.4    7.246      49.646
2014   11       17     8   1    7.4033   475.6    7.244      49.689
2014   11       17     8   6    7.4056   475.8    7.243      49.733
2014   11       17     8  12    7.4079   475.9    7.241      49.778
2014   11       17     8  17    7.4103   476.1    7.240      49.823
2014   11       17     8  23    7.4127   476.3    7.239      49.869
2014   11       17     8  28    7.4150   476.5    7.237      49.916
2014   11       17     8  34    7.4174   476.7    7.236      49.963
2014   11       17     8  39    7.4198   476.8    7.234      50.010
2014   11       17     8  45    7.4221   477.0    7.233      50.057
2014   11       17     8  50    7.4245   477.2    7.231      50.105
2014   11       17     8  56    7.4267   477.4    7.230      50.151
2014   11       17     9   1    7.4290   477.6    7.228      50.198
2014   11       17     9   7    7.4312   477.8    7.226      50.244
2014   11       17     9  12    7.4334   478.0    7.223      50.290
2014   11       17     9  18    7.4355   478.2    7.221      50.336
2014   11       17     9  23    7.4377   478.4    7.218      50.380
2014   11       17     9  29    7.4397   478.6    7.216      50.423
2014   11       17     9  34    7.4416   478.8    7.213      50.466
2014   11       17     9  40    7.4437   479.0    7.210      50.507
2014   11       17     9  46    7.4456   479.2    7.207      50.548
2014   11       17     9  51    7.4475   479.4    7.203      50.588
2014   11       17     9  57    7.4493   479.6    7.200      50.627
2014   11       17    10   2    7.4510   479.8    7.197      50.665
2014   11       17    10   8    7.4527   480.0    7.193      50.703
2014   11       17    10  13    7.4544   480.1    7.189      50.740
2014   11       17    10  19    7.4563   480.4    7.186      50.777
2014   11       17    10  24    7.4580   480.5    7.182      50.813
2014   11       17    10  30    7.4596   480.7    7.179      50.849
2014   11       17    10  35    7.4613   480.9    7.175      50.884
2014   11       17    10  41    7.4629   481.1    7.171      50.919
2014   11       17    10  46    7.4645   481.3    7.168      50.954
2014   11       17    10  52    7.4661   481.5    7.164      50.989
2014   11       17    10  57    7.4676   481.8    7.160      51.023
2014   11       17    11   3    7.4691   482.0    7.157      51.058
2014   11       17    11   8    7.4706   482.2    7.153      51.092
2014   11       17    11  14    7.4721   482.4    7.150      51.127
2014   11       17    11  19    7.4733   482.6    7.146      51.161
2014   11       17    11  25    7.4749   482.8    7.143      51.195
2014   11       17    11  30    7.4764   483.0    7.140      51.228
2014   11       17    11  36    7.4777   483.2    7.136      51.263
2014   11       17    11  41    7.4790   483.4    7.133      51.296
2014   11       17    11  47    7.4804   483.6    7.130      51.330
2014   11       17    11  52    7.4817   483.8    7.127      51.364
2014   11       17    11  58    7.4829   484.0    7.124      51.398
2014   11       17    12   4    7.4842   484.2    7.121      51.434
2014   11       17    12   9    7.4855   484.4    7.118      51.469
2014   11       17    12  15    7.4867   484.6    7.115      51.506
2014   11       17    12  20    7.4880   484.8    7.112      51.543
2014   11       17    12  26    7.4892   485.0    7.109      51.581
2014   11       17    12  31    7.4901   485.2    7.107      51.619
2014   11       17    12  37    7.4916   485.4    7.104      51.658
2014   11       17    12  42    7.4924   485.6    7.101      51.698
2014   11       17    12  48    7.4938   485.8    7.099      51.739
2014   11       17    12  53    7.4948   486.0    7.096      51.781
2014   11       17    12  59    7.4958   486.2    7.093      51.825
2014   11       17    13   4    7.4967   486.5    7.090      51.870
2014   11       17    13  10    7.4977   486.7    7.087      51.916
2014   11       17    13  15    7.4985   486.9    7.084      51.963
2014   11       17    13  21    7.4993   487.1    7.080      52.010
2014   11       17    13  26    7.5000   487.3    7.077      52.057
2014   11       17    13  32    7.5003   487.5    7.073      52.104
2014   11       17    13  37    7.5008   487.8    7.069      52.151
2014   11       17    13  43    7.5013   488.0    7.064      52.197
2014   11       17    13  48    7.5020   488.2    7.059      52.243
2014   11       17    13  54    7.5023   488.4    7.054      52.289
2014   11       17    13  59    7.5026   488.7    7.049      52.335
2014   11       17    14   5    7.5028   488.9    7.044      52.379
2014   11       17    14  10    7.5030   489.1    7.038      52.423
2014   11       17    14  16    7.5031   489.3    7.032      52.465
2014   11       17    14  22    7.5031   489.6    7.026      52.505
2014   11       17    14  27    7.5031   489.8    7.019      52.545
2014   11       17    14  33    7.5028   490.0    7.013      52.584
2014   11       17    14  38    7.5027   490.2    7.006      52.621
2014   11       17    14  44    7.5026   490.5    6.999      52.658
2014   11       17    14  49    7.5027   490.7    6.992      52.693
2014   11       17    14  55    7.5025   490.9    6.984      52.728
2014   11       17    15   0    7.5022   491.1    6.977      52.761
2014   11       17    15   6    7.5017   491.4    6.969      52.794
2014   11       17    15  11    7.5017   491.6    6.961      52.826
2014   11       17    15  17    7.5010   491.8    6.953      52.856
2014   11       17    15  22    7.5007   492.0    6.945      52.886
2014   11       17    15  28    7.5003   492.2    6.937      52.915
2014   11       17    15  33    7.4998   492.5    6.929      52.944
2014   11       17    15  39    7.4993   492.7    6.921      52.971
2014   11       17    15  44    7.4989   492.9    6.912      52.998
2014   11       17    15  50    7.4983   493.1    6.904      53.023
2014   11       17    15  55    7.4980   493.3    6.895      53.048
2014   11       17    16   1    7.4974   493.6    6.887      53.073
2014   11       17    16   6    7.4968   493.8    6.878      53.096
2014   11       17    16  12    7.4962   494.0    6.869      53.119
2014   11       17    16  17    7.4952   494.2    6.861      53.141
2014   11       17    16  23    7.4948   494.4    6.852      53.163
2014   11       17    16  28    7.4941   494.6    6.843      53.184
2014   11       17    16  34    7.4930   494.8    6.834      53.204
2014   11       17    16  40    7.4925   495.0    6.825      53.224
2014   11       17    16  45    7.4917   495.3    6.816      53.243
2014   11       17    16  51    7.4909   495.5    6.807      53.262
2014   11       17    16  56    7.4900   495.7    6.798      53.281
2014   11       17    17   2    7.4891   495.9    6.789      53.299
2014   11       17    17   7    7.4882   496.1    6.780      53.316
2014   11       17    17  13    7.4873   496.3    6.771      53.333
2014   11       17    17  18    7.4863   496.5    6.762      53.349
2014   11       17    17  24    7.4853   496.7    6.753      53.365
2014   11       17    17  29    7.4843   496.9    6.744      53.381
2014   11       17    17  35    7.4830   497.1    6.735      53.396
2014   11       17    17  40    7.4822   497.3    6.726      53.411
2014   11       17    17  46    7.4811   497.5    6.717      53.425
2014   11       17    17  51    7.4797   497.7    6.708      53.440
2014   11       17    17  57    7.4788   497.9    6.699      53.453
2014   11       17    18   2    7.4776   498.1    6.690      53.466
2014   11       17    18   8    7.4762   498.3    6.681      53.479
2014   11       17    18  13    7.4752   498.5    6.672      53.491
2014   11       17    18  19    7.4740   498.7    6.663      53.502
2014   11       17    18  24    7.4727   498.9    6.655      53.514
2014   11       17    18  30    7.4714   499.1    6.646      53.525
2014   11       17    18  35    7.4701   499.3    6.637      53.535
2014   11       17    18  41    7.4688   499.5    6.628      53.545
2014   11       17    18  47    7.4674   499.7    6.620      53.555
2014   11       17    18  52    7.4661   499.8    6.612      53.565
2014   11       17    18  58    7.4648   500.0    6.603      53.575
2014   11       17    19   3    7.4632   500.2    6.595      53.584
2014   11       17    19   9    7.4618   500.4    6.587      53.593
2014   11       17    19  14    7.4607   500.6    6.580      53.604
2014   11       17    19  20    7.4593   500.7    6.572      53.614
2014   11       17    19  25    7.4580   500.9    6.565      53.626
2014   11       17    19  31    7.4566   501.1    6.557      53.639
2014   11       17    19  36    7.4553   501.3    6.550      53.652
2014   11       17    19  42    7.4539   501.4    6.543      53.666
2014   11       17    19  47    7.4523   501.6    6.536      53.680
2014   11       17    19  53    7.4509   501.8    6.529      53.695
2014   11       17    19  58    7.4495   502.0    6.522      53.710
2014   11       17    20   4    7.4480   502.2    6.515      53.726
2014   11       17    20   9    7.4465   502.4    6.508      53.741
2014   11       17    20  15    7.4450   502.5    6.501      53.757
2014   11       17    20  20    7.4437   502.7    6.494      53.773
2014   11       17    20  26    7.4421   502.9    6.486      53.789
2014   11       17    20  31    7.4402   503.1    6.479      53.805
2014   11       17    20  37    7.4388   503.3    6.472      53.820
2014   11       17    20  42    7.4368   503.4    6.465      53.835
2014   11       17    20  48    7.4352   503.6    6.457      53.849
2014   11       17    20  53    7.4334   503.8    6.450      53.862
2014   11       17    20  59    7.4315   504.0    6.443      53.876
2014   11       17    21   4    7.4296   504.1    6.435      53.889
2014   11       17    21  10    7.4276   504.3    6.427      53.901
2014   11       17    21  16    7.4256   504.5    6.420      53.913
2014   11       17    21  21    7.4233   504.7    6.412      53.924
2014   11       17    21  27    7.4212   504.8    6.404      53.935
2014   11       17    21  32    7.4193   505.0    6.396      53.945
2014   11       17    21  38    7.4172   505.2    6.389      53.955
2014   11       17    21  43    7.4150   505.4    6.381      53.964
2014   11       17    21  49    7.4128   505.5    6.373      53.973
2014   11       17    21  54    7.4102   505.7    6.365      53.981
2014   11       17    22   0    7.4079   505.9    6.356      53.989
2014   11       17    22   5    7.4056   506.0    6.348      53.996
2014   11       17    22  11    7.4033   506.2    6.340      54.003
2014   11       17    22  16    7.4011   506.4    6.332      54.010
2014   11       17    22  22    7.3987   506.5    6.324      54.016
2014   11       17    22  27    7.3960   506.7    6.315      54.022
2014   11       17    22  33    7.3938   506.9    6.307      54.027
2014   11       17    22  38    7.3911   507.0    6.299      54.032
2014   11       17    22  44    7.3886   507.2    6.290      54.037
2014   11       17    22  49    7.3863   507.4    6.282      54.041
2014   11       17    22  55    7.3835   507.5    6.273      54.045
2014   11       17    23   0    7.3812   507.7    6.265      54.049
2014   11       17    23   6    7.3786   507.8    6.257      54.053
2014   11       17    23  11    7.3757   508.0    6.248      54.056
2014   11       17    23  17    7.3734   508.1    6.240      54.059
2014   11       17    23  23    7.3708   508.3    6.232      54.062
2014   11       17    23  28    7.3682   508.4    6.224      54.065
2014   11       17    23  34    7.3655   508.6    6.215      54.069
2014   11       17    23  39    7.3629   508.7    6.207      54.072
2014   11       17    23  45    7.3603   508.9    6.199      54.075
2014   11       17    23  50    7.3575   509.0    6.191      54.078
2014   11       17    23  56    7.3551   509.2    6.184      54.082
2014   11       18     0   1    7.3525   509.3    6.176      54.086
2014   11       18     0   7    7.3497   509.4    6.168      54.090
2014   11       18     0  12    7.3472   509.6    6.161      54.095
2014   11       18     0  18    7.3449   509.7    6.153      54.100
2014   11       18     0  23    7.3422   509.9    6.146      54.105
2014   11       18     0  29    7.3400   510.0    6.139      54.111
2014   11       18     0  34    7.3376   510.1    6.132      54.118
2014   11       18     0  40    7.3352   510.3    6.125      54.124
2014   11       18     0  45    7.3329   510.4    6.119      54.131
2014   11       18     0  51    7.3307   510.5    6.112      54.139
2014   11       18     0  56    7.3282   510.6    6.106      54.148
2014   11       18     1   2    7.3262   510.8    6.099      54.157
2014   11       18     1   7    7.3240   510.9    6.093      54.167
2014   11       18     1  13    7.3221   511.1    6.087      54.177
2014   11       18     1  18    7.3199   511.2    6.081      54.188
2014   11       18     1  24    7.3181   511.3    6.075      54.198
2014   11       18     1  29    7.3161   511.5    6.068      54.209
2014   11       18     1  35    7.3143   511.6    6.062      54.219
2014   11       18     1  41    7.3125   511.7    6.056      54.229
2014   11       18     1  46    7.3105   511.9    6.050      54.238
2014   11       18     1  52    7.3088   512.0    6.044      54.248
2014   11       18     1  57    7.3069   512.1    6.038      54.257
2014   11       18     2   3    7.3051   512.3    6.032      54.266
2014   11       18     2   8    7.3033   512.4    6.025      54.274
2014   11       18     2  14    7.3015   512.5    6.019      54.282
2014   11       18     2  19    7.2997   512.7    6.013      54.289
2014   11       18     2  25    7.2979   512.8    6.007      54.297
2014   11       18     2  30    7.2961   512.9    6.001      54.304
2014   11       18     2  36    7.2942   513.1    5.994      54.310
2014   11       18     2  41    7.2924   513.2    5.988      54.317
2014   11       18     2  47    7.2906   513.3    5.982      54.324
2014   11       18     2  52    7.2887   513.4    5.976      54.330
2014   11       18     2  58    7.2869   513.6    5.970      54.336
2014   11       18     3   3    7.2851   513.7    5.964      54.342
2014   11       18     3   9    7.2833   513.8    5.959      54.348
2014   11       18     3  14    7.2815   514.0    5.953      54.354
2014   11       18     3  20    7.2797   514.1    5.947      54.360
2014   11       18     3  25    7.2778   514.2    5.942      54.365
2014   11       18     3  31    7.2760   514.3    5.936      54.371
2014   11       18     3  36    7.2742   514.5    5.931      54.376
2014   11       18     3  42    7.2724   514.6    5.925      54.381
2014   11       18     3  47    7.2705   514.7    5.920      54.387
2014   11       18     3  53    7.2686   514.9    5.915      54.392
2014   11       18     3  59    7.2668   515.0    5.910      54.398
2014   11       18     4   4    7.2649   515.1    5.904      54.404
2014   11       18     4  10    7.2630   515.2    5.899      54.410
2014   11       18     4  15    7.2611   515.4    5.894      54.417
2014   11       18     4  21    7.2592   515.5    5.889      54.424
2014   11       18     4  26    7.2572   515.6    5.884      54.432
2014   11       18     4  32    7.2553   515.8    5.879      54.440
2014   11       18     4  37    7.2533   515.9    5.874      54.448
2014   11       18     4  43    7.2513   516.0    5.869      54.457
2014   11       18     4  48    7.2493   516.1    5.864      54.465
2014   11       18     4  54    7.2473   516.3    5.859      54.474
2014   11       18     4  59    7.2453   516.4    5.854      54.483
2014   11       18     5   5    7.2432   516.5    5.849      54.492
2014   11       18     5  10    7.2412   516.7    5.843      54.500
2014   11       18     5  16    7.2392   516.8    5.838      54.509
2014   11       18     5  21    7.2372   516.9    5.833      54.517
2014   11       18     5  27    7.2351   517.0    5.828      54.525
2014   11       18     5  32    7.2332   517.2    5.822      54.533
2014   11       18     5  38    7.2310   517.3    5.817      54.540
2014   11       18     5  43    7.2290   517.4    5.812      54.548
2014   11       18     5  49    7.2270   517.5    5.806      54.555
2014   11       18     5  54    7.2251   517.6    5.801      54.562
2014   11       18     6   0    7.2229   517.8    5.796      54.569
2014   11       18     6   5    7.2210   517.9    5.791      54.576
2014   11       18     6  11    7.2189   518.0    5.785      54.583
2014   11       18     6  17    7.2170   518.1    5.780      54.590
2014   11       18     6  22    7.2150   518.2    5.775      54.597
2014   11       18     6  28    7.2131   518.3    5.770      54.604
2014   11       18     6  33    7.2111   518.4    5.765      54.611
2014   11       18     6  39    7.2092   518.5    5.760      54.618
2014   11       18     6  44    7.2074   518.7    5.755      54.626
2014   11       18     6  50    7.2055   518.8    5.750      54.634
2014   11       18     6  55    7.2038   518.9    5.745      54.642
2014   11       18     7   1    7.2019   519.0    5.740      54.650
2014   11       18     7   6    7.2001   519.1    5.735      54.659
2014   11       18     7  12    7.1984   519.2    5.731      54.669
2014   11       18     7  17    7.1967   519.3    5.726      54.679
2014   11       18     7  23    7.1951   519.4    5.722      54.690
2014   11       18     7  28    7.1935   519.5    5.718      54.702
2014   11       18     7  34    7.1920   519.6    5.714      54.714
2014   11       18     7  39    7.1905   519.7    5.710      54.727
2014   11       18     7  45    7.1891   519.8    5.707      54.741
2014   11       18     7  50    7.1878   519.9    5.703      54.756
2014   11       18     7  56    7.1865   520.0    5.700      54.771
2014   11       18     8   1    7.1853   520.1    5.697      54.788
2014   11       18     8   7    7.1842   520.2    5.694      54.806
2014   11       18     8  12    7.1832   520.3    5.691      54.826
2014   11       18     8  18    7.1823   520.4    5.688      54.847
2014   11       18     8  24    7.1814   520.5    5.686      54.868
2014   11       18     8  29    7.1808   520.6    5.683      54.891
2014   11       18     8  35    7.1799   520.7    5.681      54.914
2014   11       18     8  40    7.1793   520.8    5.679      54.938
2014   11       18     8  46    7.1788   520.9    5.676      54.963
2014   11       18     8  51    7.1781   521.1    5.674      54.987
2014   11       18     8  57    7.1776   521.2    5.672      55.012
2014   11       18     9   2    7.1772   521.3    5.669      55.037
2014   11       18     9   8    7.1767   521.4    5.667      55.062
2014   11       18     9  13    7.1762   521.5    5.664      55.087
2014   11       18     9  19    7.1757   521.7    5.662      55.112
2014   11       18     9  24    7.1751   521.8    5.659      55.137
2014   11       18     9  30    7.1745   521.9    5.657      55.161
2014   11       18     9  35    7.1739   522.0    5.654      55.184
2014   11       18     9  41    7.1733   522.2    5.652      55.208
2014   11       18     9  46    7.1727   522.3    5.649      55.231
2014   11       18     9  52    7.1721   522.4    5.646      55.254
2014   11       18     9  57    7.1713   522.6    5.644      55.276
2014   11       18    10   3    7.1707   522.7    5.641      55.298
2014   11       18    10   8    7.1699   522.8    5.638      55.321
2014   11       18    10  14    7.1691   523.0    5.635      55.342
2014   11       18    10  19    7.1683   523.1    5.633      55.364
2014   11       18    10  25    7.1675   523.2    5.630      55.385
2014   11       18    10  30    7.1667   523.4    5.627      55.406
2014   11       18    10  36    7.1658   523.5    5.624      55.427
2014   11       18    10  41    7.1650   523.6    5.622      55.447
2014   11       18    10  47    7.1642   523.8    5.619      55.468
2014   11       18    10  53    7.1633   523.9    5.616      55.488
2014   11       18    10  58    7.1624   524.0    5.613      55.508
2014   11       18    11   4    7.1615   524.1    5.611      55.528
2014   11       18    11   9    7.1606   524.3    5.608      55.547
2014   11       18    11  15    7.1597   524.4    5.605      55.567
2014   11       18    11  20    7.1588   524.6    5.603      55.587
2014   11       18    11  26    7.1578   524.7    5.600      55.608
2014   11       18    11  31    7.1569   524.8    5.597      55.628
2014   11       18    11  37    7.1559   525.0    5.594      55.650
2014   11       18    11  42    7.1550   525.1    5.592      55.671
2014   11       18    11  48    7.1540   525.3    5.589      55.693
2014   11       18    11  53    7.1531   525.4    5.586      55.715
2014   11       18    11  59    7.1521   525.5    5.583      55.737
2014   11       18    12   4    7.1512   525.7    5.580      55.759
2014   11       18    12  10    7.1501   525.8    5.577      55.782
2014   11       18    12  15    7.1491   526.0    5.575      55.804
2014   11       18    12  21    7.1482   526.1    5.572      55.827
2014   11       18    12  26    7.1473   526.3    5.569      55.851
2014   11       18    12  32    7.1463   526.4    5.566      55.875
2014   11       18    12  37    7.1453   526.5    5.563      55.900
2014   11       18    12  43    7.1443   526.7    5.560      55.926
2014   11       18    12  48    7.1434   526.8    5.556      55.952
2014   11       18    12  54    7.1424   527.0    5.553      55.978
2014   11       18    13   0    7.1415   527.1    5.550      56.005
2014   11       18    13   5    7.1405   527.3    5.547      56.032
2014   11       18    13  11    7.1396   527.4    5.543      56.059
2014   11       18    13  16    7.1387   527.6    5.540      56.086
2014   11       18    13  22    7.1376   527.7    5.536      56.113
2014   11       18    13  27    7.1366   527.9    5.532      56.141
2014   11       18    13  33    7.1356   528.0    5.528      56.168
2014   11       18    13  38    7.1348   528.2    5.525      56.195
2014   11       18    13  44    7.1338   528.3    5.521      56.221
2014   11       18    13  49    7.1326   528.5    5.517      56.247
2014   11       18    13  55    7.1318   528.6    5.513      56.273
2014   11       18    14   0    7.1308   528.8    5.509      56.298
2014   11       18    14   6    7.1297   528.9    5.504      56.323
2014   11       18    14  11    7.1287   529.1    5.500      56.347
2014   11       18    14  17    7.1277   529.2    5.496      56.371
2014   11       18    14  22    7.1268   529.4    5.492      56.396
2014   11       18    14  28    7.1258   529.5    5.487      56.419
2014   11       18    14  33    7.1249   529.7    5.483      56.443
2014   11       18    14  39    7.1240   529.8    5.479      56.467
2014   11       18    14  44    7.1231   530.0    5.474      56.490
2014   11       18    14  50    7.1222   530.1    5.470      56.514
2014   11       18    14  55    7.1214   530.3    5.466      56.537
2014   11       18    15   1    7.1205   530.4    5.462      56.561
2014   11       18    15   7    7.1197   530.5    5.457      56.584
2014   11       18    15  12    7.1188   530.7    5.453      56.608
2014   11       18    15  18    7.1181   530.8    5.449      56.631
2014   11       18    15  23    7.1173   531.0    5.444      56.655
2014   11       18    15  29    7.1166   531.1    5.440      56.679
2014   11       18    15  34    7.1158   531.3    5.436      56.703
2014   11       18    15  40    7.1150   531.4    5.432      56.727
2014   11       18    15  45    7.1143   531.6    5.428      56.751
2014   11       18    15  51    7.1137   531.7    5.424      56.776
2014   11       18    15  56    7.1130   531.9    5.420      56.800
2014   11       18    16   2    7.1123   532.1    5.416      56.825
2014   11       18    16   7    7.1117   532.2    5.412      56.850
2014   11       18    16  13    7.1111   532.4    5.408      56.875
2014   11       18    16  18    7.1105   532.5    5.404      56.900
2014   11       18    16  24    7.1099   532.7    5.400      56.926
2014   11       18    16  29    7.1093   532.8    5.397      56.951
2014   11       18    16  35    7.1086   533.0    5.393      56.977
2014   11       18    16  40    7.1081   533.1    5.389      57.003
2014   11       18    16  46    7.1074   533.3    5.386      57.029
2014   11       18    16  51    7.1068   533.4    5.382      57.055
2014   11       18    16  57    7.1062   533.6    5.379      57.082
2014   11       18    17   2    7.1056   533.8    5.376      57.108
2014   11       18    17   8    7.1049   533.9    5.372      57.135
2014   11       18    17  13    7.1042   534.1    5.369      57.162
2014   11       18    17  19    7.1036   534.2    5.366      57.188
2014   11       18    17  24    7.1029   534.4    5.362      57.215
2014   11       18    17  30    7.1022   534.6    5.359      57.242
2014   11       18    17  36    7.1015   534.7    5.356      57.269
2014   11       18    17  41    7.1008   534.9    5.353      57.295
2014   11       18    17  47    7.1001   535.0    5.350      57.322
2014   11       18    17  52    7.0994   535.2    5.347      57.349
2014   11       18    17  58    7.0986   535.4    5.344      57.376
2014   11       18    18   3    7.0979   535.5    5.341      57.402
2014   11       18    18   9    7.0971   535.7    5.338      57.429
2014   11       18    18  14    7.0964   535.9    5.335      57.455
2014   11       18    18  20    7.0956   536.0    5.332      57.481
2014   11       18    18  25    7.0948   536.2    5.329      57.508
2014   11       18    18  31    7.0940   536.4    5.326      57.533
2014   11       18    18  36    7.0932   536.5    5.324      57.559
2014   11       18    18  42    7.0925   536.7    5.321      57.585
2014   11       18    18  47    7.0917   536.9    5.318      57.610
2014   11       18    18  53    7.0909   537.0    5.315      57.635
2014   11       18    18  58    7.0901   537.2    5.313      57.660
2014   11       18    19   4    7.0893   537.4    5.310      57.685
2014   11       18    19   9    7.0886   537.5    5.308      57.711
2014   11       18    19  15    7.0879   537.7    5.305      57.736
2014   11       18    19  20    7.0871   537.9    5.303      57.763
2014   11       18    19  26    7.0864   538.0    5.301      57.790
2014   11       18    19  31    7.0857   538.2    5.298      57.819
2014   11       18    19  37    7.0850   538.4    5.296      57.848
2014   11       18    19  42    7.0843   538.6    5.294      57.879
2014   11       18    19  48    7.0835   538.7    5.291      57.912
2014   11       18    19  54    7.0828   538.9    5.289      57.946
2014   11       18    19  59    7.0820   539.1    5.286      57.982
2014   11       18    20   5    7.0812   539.3    5.283      58.019
2014   11       18    20  10    7.0804   539.5    5.281      58.057
2014   11       18    20  16    7.0796   539.6    5.278      58.096
2014   11       18    20  21    7.0787   539.8    5.275      58.136
2014   11       18    20  27    7.0778   540.0    5.271      58.176
2014   11       18    20  32    7.0769   540.2    5.268      58.216
2014   11       18    20  38    7.0760   540.4    5.265      58.256
2014   11       18    20  43    7.0750   540.6    5.261      58.297
2014   11       18    20  49    7.0740   540.8    5.257      58.337
2014   11       18    20  54    7.0730   540.9    5.254      58.377
2014   11       18    21   0    7.0720   541.1    5.250      58.417
2014   11       18    21   5    7.0710   541.3    5.245      58.456
2014   11       18    21  11    7.0700   541.5    5.241      58.494
2014   11       18    21  16    7.0689   541.7    5.237      58.532
2014   11       18    21  22    7.0678   541.9    5.233      58.569
2014   11       18    21  27    7.0668   542.1    5.228      58.606
2014   11       18    21  33    7.0657   542.3    5.224      58.642
2014   11       18    21  38    7.0646   542.5    5.219      58.677
2014   11       18    21  44    7.0635   542.6    5.215      58.712
2014   11       18    21  49    7.0624   542.8    5.210      58.747
2014   11       18    21  55    7.0613   543.0    5.205      58.781
2014   11       18    22   1    7.0602   543.2    5.201      58.814
2014   11       18    22   6    7.0591   543.4    5.196      58.847
2014   11       18    22  12    7.0579   543.6    5.191      58.879
2014   11       18    22  17    7.0568   543.8    5.186      58.911
2014   11       18    22  23    7.0556   544.0    5.181      58.943
2014   11       18    22  28    7.0545   544.2    5.176      58.974
2014   11       18    22  34    7.0534   544.3    5.172      59.005
2014   11       18    22  39    7.0522   544.5    5.167      59.035
2014   11       18    22  45    7.0511   544.7    5.162      59.065
2014   11       18    22  50    7.0499   544.9    5.157      59.095
2014   11       18    22  56    7.0487   545.1    5.152      59.125
2014   11       18    23   1    7.0476   545.3    5.147      59.154
2014   11       18    23   7    7.0464   545.5    5.142      59.184
2014   11       18    23  12    7.0453   545.7    5.137      59.213
2014   11       18    23  18    7.0442   545.9    5.132      59.242
2014   11       18    23  23    7.0430   546.1    5.127      59.271
2014   11       18    23  29    7.0419   546.3    5.123      59.300
2014   11       18    23  34    7.0408   546.4    5.118      59.328
2014   11       18    23  40    7.0397   546.6    5.113      59.357
2014   11       18    23  45    7.0386   546.8    5.109      59.386
2014   11       18    23  51    7.0375   547.0    5.104      59.416
2014   11       18    23  56    7.0364   547.2    5.100      59.445
2014   11       19     0   2    7.0353   547.4    5.095      59.475
2014   11       19     0   7    7.0342   547.6    5.091      59.505
2014   11       19     0  13    7.0332   547.8    5.087      59.535
2014   11       19     0  19    7.0321   548.0    5.083      59.565
2014   11       19     0  24    7.0310   548.2    5.079      59.596
2014   11       19     0  30    7.0300   548.4    5.075      59.628
2014   11       19     0  35    7.0288   548.6    5.071      59.660
2014   11       19     0  41    7.0277   548.8    5.067      59.693
2014   11       19     0  46    7.0267   549.0    5.064      59.726
2014   11       19     0  52    7.0255   549.2    5.060      59.760
2014   11       19     0  57    7.0244   549.4    5.057      59.794
2014   11       19     1   3    7.0232   549.6    5.053      59.828
2014   11       19     1   8    7.0220   549.8    5.050      59.862
2014   11       19     1  14    7.0208   550.0    5.046      59.896
2014   11       19     1  19    7.0196   550.2    5.043      59.930
2014   11       19     1  25    7.0183   550.5    5.039      59.963
2014   11       19     1  30    7.0170   550.7    5.036      59.997
2014   11       19     1  36    7.0157   550.9    5.032      60.029
2014   11       19     1  41    7.0143   551.1    5.029      60.062
2014   11       19     1  47    7.0130   551.3    5.025      60.093
2014   11       19     1  52    7.0116   551.5    5.022      60.124
2014   11       19     1  58    7.0103   551.7    5.018      60.155
2014   11       19     2   3    7.0089   552.0    5.015      60.185
2014   11       19     2   9    7.0075   552.2    5.011      60.215
2014   11       19     2  14    7.0060   552.4    5.008      60.245
2014   11       19     2  20    7.0046   552.6    5.004      60.275
2014   11       19     2  25    7.0032   552.8    5.001      60.306
2014   11       19     2  31    7.0017   553.0    4.997      60.337
2014   11       19     2  37    7.0003   553.3    4.993      60.370
2014   11       19     2  42    6.9988   553.5    4.989      60.404
2014   11       19     2  48    6.9973   553.7    4.986      60.439
2014   11       19     2  53    6.9958   553.9    4.982      60.474
2014   11       19     2  59    6.9942   554.2    4.978      60.511
2014   11       19     3   4    6.9927   554.4    4.974      60.547
2014   11       19     3  10    6.9911   554.6    4.969      60.585
2014   11       19     3  15    6.9895   554.9    4.965      60.623
2014   11       19     3  21    6.9878   555.1    4.960      60.662
2014   11       19     3  26    6.9861   555.3    4.956      60.700
2014   11       19     3  32    6.9845   555.5    4.951      60.739
2014   11       19     3  37    6.9827   555.8    4.946      60.777
2014   11       19     3  43    6.9809   556.0    4.941      60.815
2014   11       19     3  48    6.9793   556.2    4.936      60.852
2014   11       19     3  54    6.9775   556.5    4.931      60.889
2014   11       19     3  59    6.9757   556.7    4.925      60.926
2014   11       19     4   5    6.9738   556.9    4.920      60.962
2014   11       19     4  10    6.9720   557.2    4.915      60.998
2014   11       19     4  16    6.9701   557.4    4.909      61.034
2014   11       19     4  21    6.9683   557.6    4.904      61.069
2014   11       19     4  27    6.9664   557.8    4.898      61.103
2014   11       19     4  32    6.9644   558.1    4.892      61.137
2014   11       19     4  38    6.9625   558.3    4.887      61.171
2014   11       19     4  44    6.9606   558.5    4.881      61.204
2014   11       19     4  49    6.9586   558.8    4.875      61.237
2014   11       19     4  55    6.9566   559.0    4.869      61.270
2014   11       19     5   0    6.9546   559.2    4.863      61.302
2014   11       19     5   6    6.9526   559.5    4.857      61.333
2014   11       19     5  11    6.9506   559.7    4.851      61.364
2014   11       19     5  17    6.9485   559.9    4.845      61.395
2014   11       19     5  22    6.9465   560.2    4.839      61.426
2014   11       19     5  28    6.9444   560.4    4.833      61.456
2014   11       19     5  33    6.9422   560.6    4.827      61.486
2014   11       19     5  39    6.9402   560.8    4.821      61.516
2014   11       19     5  44    6.9379   561.1    4.815      61.545
2014   11       19     5  50    6.9358   561.3    4.809      61.575
2014   11       19     5  55    6.9336   561.5    4.803      61.604
2014   11       19     6   1    6.9315   561.8    4.797      61.633
2014   11       19     6   6    6.9293   562.0    4.791      61.662
2014   11       19     6  12    6.9271   562.2    4.785      61.691
2014   11       19     6  17    6.9249   562.4    4.779      61.720
2014   11       19     6  23    6.9226   562.7    4.773      61.749
2014   11       19     6  28    6.9204   562.9    4.767      61.779
2014   11       19     6  34    6.9181   563.1    4.761      61.808
2014   11       19     6  39    6.9159   563.4    4.756      61.838
2014   11       19     6  45    6.9136   563.6    4.750      61.868
2014   11       19     6  50    6.9113   563.8    4.744      61.899
2014   11       19     6  56    6.9090   564.0    4.739      61.930
2014   11       19     7   2    6.9067   564.3    4.733      61.961
2014   11       19     7   7    6.9044   564.5    4.728      61.993
2014   11       19     7  13    6.9021   564.7    4.723      62.026
2014   11       19     7  18    6.8998   565.0    4.717      62.059
2014   11       19     7  24    6.8975   565.2    4.712      62.092
2014   11       19     7  29    6.8952   565.4    4.707      62.127
2014   11       19     7  35    6.8928   565.7    4.703      62.162
2014   11       19     7  40    6.8904   565.9    4.698      62.199
2014   11       19     7  46    6.8880   566.1    4.693      62.236
2014   11       19     7  51    6.8856   566.4    4.689      62.274
2014   11       19     7  57    6.8831   566.6    4.684      62.313
2014   11       19     8   2    6.8805   566.9    4.680      62.352
2014   11       19     8   8    6.8781   567.1    4.675      62.391
2014   11       19     8  13    6.8756   567.3    4.671      62.430
2014   11       19     8  19    6.8728   567.6    4.666      62.469
2014   11       19     8  24    6.8704   567.8    4.661      62.508
2014   11       19     8  30    6.8677   568.1    4.657      62.546
2014   11       19     8  35    6.8650   568.3    4.652      62.583
2014   11       19     8  41    6.8622   568.6    4.647      62.620
2014   11       19     8  46    6.8596   568.9    4.642      62.655
2014   11       19     8  52    6.8568   569.1    4.637      62.689
2014   11       19     8  57    6.8540   569.4    4.632      62.722
2014   11       19     9   3    6.8512   569.6    4.627      62.755
2014   11       19     9   8    6.8483   569.9    4.622      62.786
2014   11       19     9  14    6.8455   570.1    4.616      62.817
2014   11       19     9  20    6.8426   570.4    4.611      62.846
2014   11       19     9  25    6.8397   570.6    4.606      62.876
2014   11       19     9  31    6.8366   570.9    4.600      62.904
2014   11       19     9  36    6.8337   571.1    4.595      62.932
2014   11       19     9  42    6.8309   571.4    4.589      62.960
2014   11       19     9  47    6.8279   571.6    4.583      62.987
2014   11       19     9  53    6.8248   571.9    4.578      63.014
2014   11       19     9  58    6.8219   572.1    4.572      63.040
2014   11       19    10   4    6.8187   572.4    4.566      63.067
2014   11       19    10   9    6.8158   572.7    4.560      63.093
2014   11       19    10  15    6.8128   572.9    4.554      63.119
2014   11       19    10  20    6.8095   573.2    4.549      63.145
2014   11       19    10  26    6.8066   573.4    4.543      63.170
2014   11       19    10  31    6.8033   573.7    4.537      63.196
2014   11       19    10  37    6.8001   573.9    4.531      63.221
2014   11       19    10  42    6.7969   574.2    4.524      63.247
2014   11       19    10  48    6.7938   574.4    4.518      63.272
2014   11       19    10  53    6.7905   574.7    4.512      63.297
2014   11       19    10  59    6.7873   574.9    4.506      63.321
2014   11       19    11   4    6.7840   575.2    4.500      63.346
2014   11       19    11  10    6.7809   575.5    4.494      63.370
2014   11       19    11  15    6.7774   575.7    4.487      63.394
2014   11       19    11  21    6.7742   576.0    4.481      63.418
2014   11       19    11  26    6.7709   576.2    4.475      63.441
2014   11       19    11  32    6.7675   576.5    4.468      63.464
2014   11       19    11  38    6.7640   576.7    4.462      63.487
2014   11       19    11  43    6.7607   577.0    4.456      63.510
2014   11       19    11  49    6.7572   577.2    4.449      63.532
2014   11       19    11  54    6.7536   577.5    4.443      63.554
2014   11       19    12   0    6.7501   577.7    4.436      63.576
2014   11       19    12   5    6.7466   578.0    4.430      63.597
2014   11       19    12  11    6.7430   578.2    4.423      63.618
2014   11       19    12  16    6.7396   578.5    4.417      63.639
2014   11       19    12  22    6.7360   578.7    4.410      63.660
2014   11       19    12  27    6.7324   579.0    4.404      63.680
2014   11       19    12  33    6.7287   579.2    4.397      63.700
2014   11       19    12  38    6.7251   579.5    4.391      63.720
2014   11       19    12  44    6.7213   579.7    4.384      63.739
2014   11       19    12  49    6.7175   580.0    4.377      63.759
2014   11       19    12  55    6.7139   580.2    4.371      63.778
2014   11       19    13   0    6.7100   580.5    4.364      63.797
2014   11       19    13   6    6.7064   580.7    4.357      63.816
2014   11       19    13  11    6.7026   581.0    4.351      63.835
2014   11       19    13  17    6.6988   581.2    4.344      63.854
2014   11       19    13  22    6.6949   581.4    4.337      63.873
2014   11       19    13  28    6.6911   581.7    4.331      63.892
2014   11       19    13  33    6.6872   581.9    4.324      63.910
2014   11       19    13  39    6.6833   582.2    4.317      63.929
2014   11       19    13  45    6.6794   582.4    4.311      63.948
2014   11       19    13  50    6.6754   582.6    4.304      63.966
2014   11       19    13  56    6.6713   582.9    4.297      63.985
2014   11       19    14   1    6.6675   583.1    4.291      64.004
2014   11       19    14   7    6.6635   583.3    4.284      64.023
2014   11       19    14  12    6.6595   583.6    4.278      64.042
2014   11       19    14  18    6.6554   583.8    4.271      64.061
2014   11       19    14  23    6.6514   584.0    4.265      64.081
2014   11       19    14  29    6.6473   584.3    4.259      64.101
2014   11       19    14  34    6.6433   584.5    4.253      64.120
2014   11       19    14  40    6.6392   584.7    4.246      64.140
2014   11       19    14  45    6.6350   585.0    4.240      64.160
2014   11       19    14  51    6.6309   585.2    4.234      64.180
2014   11       19    14  56    6.6268   585.4    4.228      64.200
2014   11       19    15   2    6.6225   585.7    4.222      64.220
2014   11       19    15   7    6.6183   585.9    4.216      64.240
2014   11       19    15  13    6.6141   586.1    4.210      64.260
2014   11       19    15  18    6.6100   586.3    4.205      64.280
2014   11       19    15  24    6.6056   586.6    4.199      64.299
2014   11       19    15  29    6.6014   586.8    4.193      64.319
2014   11       19    15  35    6.5973   587.0    4.187      64.338
2014   11       19    15  40    6.5930   587.3    4.182      64.358
2014   11       19    15  46    6.5887   587.5    4.176      64.376
2014   11       19    15  51    6.5843   587.7    4.170      64.394
2014   11       19    15  57    6.5798   588.0    4.165      64.412
2014   11       19    16   2    6.5755   588.2    4.159      64.429
2014   11       19    16   8    6.5710   588.4    4.153      64.446
2014   11       19    16  14    6.5665   588.6    4.148      64.462
2014   11       19    16  19    6.5622   588.9    4.142      64.477
2014   11       19    16  25    6.5578   589.1    4.136      64.492
2014   11       19    16  30    6.5533   589.3    4.130      64.506
2014   11       19    16  36    6.5488   589.5    4.124      64.519
2014   11       19    16  41    6.5442   589.7    4.119      64.531
2014   11       19    16  47    6.5397   590.0    4.113      64.544
2014   11       19    16  52    6.5351   590.2    4.107      64.555
2014   11       19    16  58    6.5305   590.4    4.101      64.566
2014   11       19    17   3    6.5260   590.6    4.096      64.577
2014   11       19    17   9    6.5214   590.8    4.090      64.587
2014   11       19    17  14    6.5168   591.1    4.084      64.597
2014   11       19    17  20    6.5122   591.3    4.078      64.607
2014   11       19    17  25    6.5074   591.5    4.073      64.616
2014   11       19    17  31    6.5029   591.7    4.067      64.625
2014   11       19    17  36    6.4982   591.9    4.061      64.634
2014   11       19    17  42    6.4937   592.1    4.056      64.643
2014   11       19    17  47    6.4890   592.3    4.050      64.651
2014   11       19    17  53    6.4844   592.5    4.045      64.660
2014   11       19    17  58    6.4798   592.7    4.039      64.668
2014   11       19    18   4    6.4751   593.0    4.034      64.677
2014   11       19    18   9    6.4705   593.2    4.028      64.685
2014   11       19    18  15    6.4657   593.4    4.023      64.693
2014   11       19    18  21    6.4612   593.6    4.018      64.701
2014   11       19    18  26    6.4564   593.8    4.013      64.709
2014   11       19    18  32    6.4519   594.0    4.007      64.716
2014   11       19    18  37    6.4472   594.2    4.002      64.724
2014   11       19    18  43    6.4425   594.4    3.997      64.732
2014   11       19    18  48    6.4379   594.6    3.992      64.739
2014   11       19    18  54    6.4332   594.8    3.987      64.747
2014   11       19    18  59    6.4284   595.0    3.982      64.754
2014   11       19    19   5    6.4238   595.2    3.977      64.762
2014   11       19    19  10    6.4192   595.4    3.972      64.770
2014   11       19    19  16    6.4144   595.6    3.967      64.778
2014   11       19    19  21    6.4097   595.8    3.963      64.786
2014   11       19    19  27    6.4050   596.0    3.958      64.794
2014   11       19    19  32    6.4004   596.2    3.953      64.802
2014   11       19    19  38    6.3956   596.4    3.948      64.810
2014   11       19    19  43    6.3910   596.6    3.943      64.817
2014   11       19    19  49    6.3863   596.8    3.938      64.824
2014   11       19    19  54    6.3815   597.0    3.933      64.831
2014   11       19    20   0    6.3768   597.1    3.928      64.837
2014   11       19    20   5    6.3720   597.3    3.923      64.843
2014   11       19    20  11    6.3672   597.5    3.918      64.849
2014   11       19    20  16    6.3624   597.7    3.913      64.854
2014   11       19    20  22    6.3577   597.9    3.907      64.859
2014   11       19    20  28    6.3529   598.1    3.902      64.863
2014   11       19    20  33    6.3480   598.3    3.897      64.867
2014   11       19    20  39    6.3431   598.5    3.892      64.870
2014   11       19    20  44    6.3383   598.7    3.886      64.873
2014   11       19    20  50    6.3334   598.9    3.881      64.876
2014   11       19    20  55    6.3286   599.0    3.876      64.878
2014   11       19    21   1    6.3237   599.2    3.870      64.880
2014   11       19    21   6    6.3188   599.4    3.865      64.882
2014   11       19    21  12    6.3140   599.6    3.860      64.883
2014   11       19    21  17    6.3091   599.8    3.854      64.884
2014   11       19    21  23    6.3041   600.0    3.849      64.885
2014   11       19    21  28    6.2992   600.1    3.843      64.886
2014   11       19    21  34    6.2943   600.3    3.838      64.886
2014   11       19    21  39    6.2893   600.5    3.833      64.886
2014   11       19    21  45    6.2844   600.7    3.827      64.886
2014   11       19    21  50    6.2794   600.9    3.822      64.886
2014   11       19    21  56    6.2744   601.0    3.817      64.885
2014   11       19    22   1    6.2695   601.2    3.811      64.884
2014   11       19    22   7    6.2645   601.4    3.806      64.882
2014   11       19    22  12    6.2595   601.6    3.800      64.880
2014   11       19    22  18    6.2545   601.7    3.795      64.878
2014   11       19    22  23    6.2495   601.9    3.790      64.875
2014   11       19    22  29    6.2444   602.1    3.784      64.871
2014   11       19    22  34    6.2393   602.3    3.779      64.867
2014   11       19    22  40    6.2343   602.4    3.774      64.863
2014   11       19    22  45    6.2292   602.6    3.768      64.858
2014   11       19    22  51    6.2241   602.8    3.763      64.853
2014   11       19    22  57    6.2190   602.9    3.758      64.847
2014   11       19    23   2    6.2139   603.1    3.752      64.841
2014   11       19    23   8    6.2087   603.2    3.747      64.834
2014   11       19    23  13    6.2036   603.4    3.742      64.826
2014   11       19    23  19    6.1985   603.6    3.737      64.819
2014   11       19    23  24    6.1933   603.7    3.731      64.810
2014   11       19    23  30    6.1881   603.9    3.726      64.802
2014   11       19    23  35    6.1830   604.0    3.721      64.793
2014   11       19    23  41    6.1778   604.2    3.716      64.783
2014   11       19    23  46    6.1726   604.3    3.711      64.773
2014   11       19    23  52    6.1674   604.5    3.706      64.763
2014   11       19    23  57    6.1623   604.6    3.701      64.753
2014   11       20     0   3    6.1571   604.8    3.696      64.742
2014   11       20     0   8    6.1519   604.9    3.691      64.731
2014   11       20     0  14    6.1467   605.1    3.686      64.720
2014   11       20     0  19    6.1415   605.2    3.681      64.708
2014   11       20     0  25    6.1363   605.3    3.676      64.697
2014   11       20     0  30    6.1311   605.5    3.672      64.686
2014   11       20     0  36    6.1260   605.6    3.667      64.674
2014   11       20     0  41    6.1208   605.8    3.662      64.662
2014   11       20     0  47    6.1157   605.9    3.658      64.651
2014   11       20     0  52    6.1105   606.0    3.653      64.639
2014   11       20     0  58    6.1054   606.1    3.649      64.628
2014   11       20     1   4    6.1002   606.3    3.645      64.617
2014   11       20     1   9    6.0951   606.4    3.641      64.606
2014   11       20     1  15    6.0900   606.5    3.637      64.595
2014   11       20     1  20    6.0849   606.6    3.633      64.585
2014   11       20     1  26    6.0798   606.8    3.629      64.574
2014   11       20     1  31    6.0747   606.9    3.625      64.564
2014   11       20     1  37    6.0696   607.0    3.621      64.555
2014   11       20     1  42    6.0646   607.1    3.617      64.545
2014   11       20     1  48    6.0595   607.2    3.614      64.536
2014   11       20     1  53    6.0545   607.3    3.610      64.527
2014   11       20     1  59    6.0495   607.5    3.607      64.519
2014   11       20     2   4    6.0445   607.6    3.603      64.510
2014   11       20     2  10    6.0395   607.7    3.600      64.503
2014   11       20     2  15    6.0346   607.8    3.597      64.496
2014   11       20     2  21    6.0296   607.9    3.593      64.490
2014   11       20     2  26    6.0247   608.0    3.590      64.484
2014   11       20     2  32    6.0198   608.1    3.587      64.479
2014   11       20     2  37    6.0149   608.2    3.584      64.474
2014   11       20     2  43    6.0100   608.3    3.581      64.470
2014   11       20     2  48    6.0052   608.4    3.578      64.465
2014   11       20     2  54    6.0003   608.5    3.575      64.461
2014   11       20     2  59    5.9955   608.7    3.572      64.457
2014   11       20     3   5    5.9906   608.8    3.569      64.452
2014   11       20     3  11    5.9858   608.9    3.565      64.448
2014   11       20     3  16    5.9809   609.0    3.562      64.443
2014   11       20     3  22    5.9760   609.1    3.559      64.438
2014   11       20     3  27    5.9712   609.2    3.556      64.432
2014   11       20     3  33    5.9663   609.3    3.552      64.426
2014   11       20     3  38    5.9614   609.4    3.549      64.419
2014   11       20     3  44    5.9565   609.5    3.546      64.411
2014   11       20     3  49    5.9516   609.6    3.542      64.404
2014   11       20     3  55    5.9468   609.7    3.539      64.395
2014   11       20     4   0    5.9419   609.8    3.535      64.386
2014   11       20     4   6    5.9370   609.9    3.531      64.377
2014   11       20     4  11    5.9320   610.0    3.528      64.367
2014   11       20     4  17    5.9271   610.2    3.524      64.357
2014   11       20     4  22    5.9221   610.3    3.521      64.347
2014   11       20     4  28    5.9172   610.4    3.517      64.335
2014   11       20     4  33    5.9123   610.5    3.513      64.324
2014   11       20     4  39    5.9074   610.6    3.509      64.312
2014   11       20     4  44    5.9024   610.7    3.506      64.300
2014   11       20     4  50    5.8974   610.8    3.502      64.287
2014   11       20     4  55    5.8925   610.9    3.498      64.273
2014   11       20     5   1    5.8875   611.0    3.494      64.260
2014   11       20     5   6    5.8825   611.1    3.490      64.245
2014   11       20     5  12    5.8776   611.2    3.486      64.231
2014   11       20     5  17    5.8726   611.3    3.482      64.215
2014   11       20     5  23    5.8676   611.4    3.478      64.199
2014   11       20     5  28    5.8626   611.5    3.474      64.183
2014   11       20     5  34    5.8576   611.6    3.470      64.166
2014   11       20     5  40    5.8526   611.6    3.467      64.149
2014   11       20     5  45    5.8476   611.7    3.463      64.131
2014   11       20     5  51    5.8426   611.8    3.459      64.113
2014   11       20     5  56    5.8375   611.9    3.455      64.094
2014   11       20     6   2    5.8326   612.0    3.450      64.075
2014   11       20     6   7    5.8275   612.1    3.446      64.056
2014   11       20     6  13    5.8224   612.2    3.442      64.036
2014   11       20     6  18    5.8174   612.3    3.438      64.015
2014   11       20     6  24    5.8124   612.3    3.435      63.994
2014   11       20     6  29    5.8073   612.4    3.431      63.973
2014   11       20     6  35    5.8023   612.5    3.427      63.952
2014   11       20     6  40    5.7972   612.6    3.423      63.930
2014   11       20     6  46    5.7922   612.7    3.419      63.908
2014   11       20     6  51    5.7871   612.7    3.415      63.886
2014   11       20     6  57    5.7822   612.8    3.411      63.863
2014   11       20     7   2    5.7771   612.9    3.407      63.840
2014   11       20     7   8    5.7721   612.9    3.404      63.817
2014   11       20     7  13    5.7670   613.0    3.400      63.794
2014   11       20     7  19    5.7620   613.1    3.396      63.771
2014   11       20     7  24    5.7570   613.1    3.393      63.747
2014   11       20     7  30    5.7521   613.2    3.389      63.724
2014   11       20     7  35    5.7472   613.3    3.386      63.700
2014   11       20     7  41    5.7421   613.3    3.382      63.677
2014   11       20     7  46    5.7372   613.4    3.379      63.653
2014   11       20     7  52    5.7323   613.4    3.376      63.630
2014   11       20     7  58    5.7273   613.5    3.372      63.606
2014   11       20     8   3    5.7224   613.6    3.369      63.583
2014   11       20     8   9    5.7175   613.6    3.366      63.559
2014   11       20     8  14    5.7126   613.7    3.363      63.535
2014   11       20     8  20    5.7078   613.7    3.360      63.512
2014   11       20     8  25    5.7029   613.8    3.357      63.488
2014   11       20     8  31    5.6981   613.8    3.354      63.464
2014   11       20     8  36    5.6933   613.9    3.351      63.441
2014   11       20     8  42    5.6884   613.9    3.348      63.417
2014   11       20     8  47    5.6837   613.9    3.346      63.393
2014   11       20     8  53    5.6789   614.0    3.343      63.370
2014   11       20     8  58    5.6741   614.0    3.340      63.346
2014   11       20     9   4    5.6694   614.1    3.338      63.322
2014   11       20     9   9    5.6647   614.1    3.335      63.299
2014   11       20     9  15    5.6600   614.1    3.332      63.276
2014   11       20     9  20    5.6554   614.2    3.330      63.252
2014   11       20     9  26    5.6507   614.2    3.327      63.229
2014   11       20     9  31    5.6461   614.2    3.325      63.206
2014   11       20     9  37    5.6416   614.3    3.322      63.183
2014   11       20     9  42    5.6369   614.3    3.320      63.161
2014   11       20     9  48    5.6324   614.3    3.318      63.138
2014   11       20     9  53    5.6278   614.4    3.315      63.116
2014   11       20     9  59    5.6233   614.4    3.313      63.094
2014   11       20    10   5    5.6188   614.4    3.311      63.072
2014   11       20    10  10    5.6143   614.5    3.308      63.051
2014   11       20    10  16    5.6098   614.5    3.306      63.030
2014   11       20    10  21    5.6053   614.5    3.304      63.009
2014   11       20    10  27    5.6009   614.6    3.302      62.988
2014   11       20    10  32    5.5964   614.6    3.300      62.968
2014   11       20    10  38    5.5920   614.6    3.297      62.947
2014   11       20    10  43    5.5876   614.7    3.295      62.927
2014   11       20    10  49    5.5830   614.7    3.293      62.907
2014   11       20    10  54    5.5785   614.7    3.290      62.886
2014   11       20    11   0    5.5742   614.7    3.288      62.866
2014   11       20    11   5    5.5696   614.8    3.286      62.845
2014   11       20    11  11    5.5651   614.8    3.283      62.824
2014   11       20    11  16    5.5606   614.8    3.281      62.803
2014   11       20    11  22    5.5561   614.8    3.279      62.783
2014   11       20    11  27    5.5518   614.9    3.276      62.761
2014   11       20    11  33    5.5472   614.9    3.274      62.740
2014   11       20    11  38    5.5427   614.9    3.271      62.719
2014   11       20    11  44    5.5382   614.9    3.268      62.697
2014   11       20    11  49    5.5338   615.0    3.266      62.675
2014   11       20    11  55    5.5292   615.0    3.263      62.652
2014   11       20    12   0    5.5247   615.0    3.261      62.630
2014   11       20    12   6    5.5202   615.0    3.258      62.607
2014   11       20    12  11    5.5158   615.0    3.255      62.583
2014   11       20    12  17    5.5113   615.0    3.253      62.559
2014   11       20    12  23    5.5068   615.1    3.250      62.535
2014   11       20    12  28    5.5023   615.1    3.247      62.511
2014   11       20    12  34    5.4978   615.1    3.244      62.486
2014   11       20    12  39    5.4934   615.1    3.242      62.460
2014   11       20    12  45    5.4889   615.1    3.239      62.434
2014   11       20    12  50    5.4845   615.1    3.236      62.407
2014   11       20    12  56    5.4800   615.1    3.233      62.380
2014   11       20    13   1    5.4754   615.2    3.230      62.353
2014   11       20    13   7    5.4709   615.2    3.227      62.325
2014   11       20    13  12    5.4664   615.2    3.225      62.297
2014   11       20    13  18    5.4619   615.2    3.222      62.268
2014   11       20    13  23    5.4575   615.2    3.219      62.238
2014   11       20    13  29    5.4530   615.2    3.216      62.209
2014   11       20    13  34    5.4484   615.2    3.213      62.178
2014   11       20    13  40    5.4439   615.2    3.210      62.148
2014   11       20    13  45    5.4394   615.2    3.207      62.117
2014   11       20    13  51    5.4350   615.2    3.204      62.085
2014   11       20    13  56    5.4305   615.2    3.202      62.053
2014   11       20    14   2    5.4259   615.2    3.199      62.021
2014   11       20    14   7    5.4215   615.2    3.196      61.988
2014   11       20    14  13    5.4169   615.1    3.193      61.956
2014   11       20    14  18    5.4124   615.1    3.190      61.923
2014   11       20    14  24    5.4079   615.1    3.188      61.889
2014   11       20    14  29    5.4035   615.1    3.185      61.856
2014   11       20    14  35    5.3990   615.1    3.182      61.823
2014   11       20    14  41    5.3947   615.1    3.180      61.789
2014   11       20    14  46    5.3902   615.0    3.177      61.756
2014   11       20    14  52    5.3858   615.0    3.175      61.722
2014   11       20    14  57    5.3815   615.0    3.173      61.689
2014   11       20    15   3    5.3771   615.0    3.170      61.656
2014   11       20    15   8    5.3728   614.9    3.168      61.623
2014   11       20    15  14    5.3685   614.9    3.166      61.590
2014   11       20    15  19    5.3642   614.9    3.164      61.558
2014   11       20    15  25    5.3599   614.8    3.162      61.526
2014   11       20    15  30    5.3558   614.8    3.160      61.494
2014   11       20    15  36    5.3515   614.8    3.159      61.463
2014   11       20    15  41    5.3474   614.7    3.157      61.432
2014   11       20    15  47    5.3432   614.7    3.155      61.401
2014   11       20    15  52    5.3390   614.6    3.154      61.371
2014   11       20    15  58    5.3350   614.6    3.152      61.340
2014   11       20    16   3    5.3308   614.6    3.151      61.311
2014   11       20    16   9    5.3268   614.5    3.150      61.281
2014   11       20    16  14    5.3228   614.5    3.148      61.252
2014   11       20    16  20    5.3187   614.5    3.147      61.223
2014   11       20    16  25    5.3148   614.4    3.146      61.195
2014   11       20    16  31    5.3108   614.4    3.145      61.166
2014   11       20    16  36    5.3068   614.3    3.144      61.138
2014   11       20    16  42    5.3029   614.3    3.143      61.110
2014   11       20    16  48    5.2990   614.2    3.142      61.082
2014   11       20    16  53    5.2950   614.2    3.141      61.054
2014   11       20    16  59    5.2911   614.2    3.140      61.026
2014   11       20    17   4    5.2872   614.1    3.139      60.999
2014   11       20    17  10    5.2834   614.1    3.138      60.971
2014   11       20    17  15    5.2794   614.0    3.137      60.943
2014   11       20    17  21    5.2755   614.0    3.136      60.916
2014   11       20    17  26    5.2716   613.9    3.135      60.888
2014   11       20    17  32    5.2678   613.9    3.134      60.860
2014   11       20    17  37    5.2639   613.8    3.134      60.833
2014   11       20    17  43    5.2600   613.8    3.133      60.806
2014   11       20    17  48    5.2562   613.7    3.132      60.779
2014   11       20    17  54    5.2524   613.7    3.131      60.753
2014   11       20    17  59    5.2486   613.6    3.130      60.726
2014   11       20    18   5    5.2448   613.6    3.129      60.700
2014   11       20    18  10    5.2410   613.5    3.128      60.674
2014   11       20    18  16    5.2372   613.5    3.127      60.648
2014   11       20    18  21    5.2334   613.4    3.125      60.622
2014   11       20    18  27    5.2297   613.4    3.124      60.596
2014   11       20    18  32    5.2260   613.3    3.123      60.570
2014   11       20    18  38    5.2223   613.3    3.122      60.544
2014   11       20    18  43    5.2185   613.2    3.121      60.517
2014   11       20    18  49    5.2147   613.2    3.119      60.490
2014   11       20    18  54    5.2110   613.1    3.118      60.462
2014   11       20    19   0    5.2073   613.1    3.116      60.433
2014   11       20    19   6    5.2036   613.0    3.115      60.404
2014   11       20    19  11    5.2000   613.0    3.113      60.375
2014   11       20    19  17    5.1963   612.9    3.112      60.345
2014   11       20    19  22    5.1925   612.8    3.110      60.315
2014   11       20    19  28    5.1889   612.8    3.109      60.284
2014   11       20    19  33    5.1853   612.7    3.107      60.252
2014   11       20    19  39    5.1816   612.7    3.105      60.220
2014   11       20    19  44    5.1778   612.6    3.104      60.187
2014   11       20    19  50    5.1742   612.5    3.102      60.154
2014   11       20    19  55    5.1707   612.5    3.100      60.120
2014   11       20    20   1    5.1669   612.4    3.098      60.086
2014   11       20    20   6    5.1632   612.4    3.096      60.051
2014   11       20    20  12    5.1596   612.3    3.095      60.016
2014   11       20    20  17    5.1561   612.2    3.093      59.980
2014   11       20    20  23    5.1525   612.2    3.091      59.943
2014   11       20    20  28    5.1489   612.1    3.089      59.906
2014   11       20    20  34    5.1453   612.0    3.087      59.868
2014   11       20    20  39    5.1417   612.0    3.085      59.830
2014   11       20    20  45    5.1379   611.9    3.083      59.791
2014   11       20    20  50    5.1343   611.8    3.081      59.752
2014   11       20    20  56    5.1307   611.8    3.079      59.713
2014   11       20    21   1    5.1272   611.7    3.077      59.673
2014   11       20    21   7    5.1236   611.6    3.075      59.633
2014   11       20    21  12    5.1198   611.6    3.072      59.592
2014   11       20    21  18    5.1162   611.5    3.070      59.551
2014   11       20    21  24    5.1128   611.4    3.068      59.509
2014   11       20    21  29    5.1090   611.3    3.066      59.467
2014   11       20    21  35    5.1054   611.3    3.064      59.425
2014   11       20    21  40    5.1018   611.2    3.062      59.383
2014   11       20    21  46    5.0984   611.1    3.060      59.340
2014   11       20    21  51    5.0948   611.0    3.058      59.297
2014   11       20    21  57    5.0912   610.9    3.056      59.254
2014   11       20    22   2    5.0877   610.9    3.054      59.211
2014   11       20    22   8    5.0841   610.8    3.052      59.168
2014   11       20    22  13    5.0805   610.7    3.050      59.125
2014   11       20    22  19    5.0771   610.6    3.048      59.082
2014   11       20    22  24    5.0735   610.5    3.046      59.039
2014   11       20    22  30    5.0701   610.4    3.044      58.997
2014   11       20    22  35    5.0666   610.3    3.043      58.955
2014   11       20    22  41    5.0632   610.2    3.041      58.914
2014   11       20    22  46    5.0598   610.1    3.040      58.873
2014   11       20    22  52    5.0564   610.0    3.038      58.832
2014   11       20    22  57    5.0530   609.9    3.037      58.792
2014   11       20    23   3    5.0498   609.8    3.036      58.753
2014   11       20    23   8    5.0464   609.7    3.034      58.714
2014   11       20    23  14    5.0432   609.6    3.033      58.676
2014   11       20    23  19    5.0399   609.5    3.032      58.638
2014   11       20    23  25    5.0366   609.4    3.032      58.601
2014   11       20    23  30    5.0334   609.3    3.031      58.565
2014   11       20    23  36    5.0301   609.2    3.030      58.529
2014   11       20    23  42    5.0269   609.1    3.029      58.493
2014   11       20    23  47    5.0237   609.0    3.029      58.458
2014   11       20    23  53    5.0204   608.9    3.028      58.423
2014   11       20    23  58    5.0171   608.8    3.028      58.388
2014   11       21     0   4    5.0139   608.7    3.027      58.354
