year    month   day   hour  minute  B_enl V_enl   n_enl       T_enl
[year] [month] [day] [hour][minute] [nT]  [km/s]  [cm-3]      [kK]
2015    1        6     0   0    5.9939   544.4    4.224      38.766
2015    1        6     0   5    5.9974   544.2    4.230      38.732
2015    1        6     0  10    6.0010   544.0    4.235      38.698
2015    1        6     0  15    6.0046   543.8    4.241      38.664
2015    1        6     0  20    6.0081   543.6    4.247      38.631
2015    1        6     0  25    6.0117   543.4    4.252      38.597
2015    1        6     0  30    6.0154   543.2    4.258      38.563
2015    1        6     0  35    6.0190   543.0    4.263      38.530
2015    1        6     0  40    6.0227   542.8    4.269      38.496
2015    1        6     0  45    6.0264   542.6    4.275      38.463
2015    1        6     0  50    6.0301   542.4    4.280      38.429
2015    1        6     0  55    6.0338   542.2    4.286      38.396
2015    1        6     0  59    6.0375   542.0    4.291      38.364
2015    1        6     1   4    6.0413   541.8    4.297      38.331
2015    1        6     1   9    6.0450   541.6    4.302      38.298
2015    1        6     1  14    6.0488   541.4    4.308      38.266
2015    1        6     1  19    6.0526   541.2    4.313      38.234
2015    1        6     1  24    6.0565   541.0    4.319      38.202
2015    1        6     1  29    6.0603   540.8    4.324      38.171
2015    1        6     1  34    6.0641   540.6    4.330      38.140
2015    1        6     1  39    6.0680   540.4    4.335      38.110
2015    1        6     1  44    6.0719   540.2    4.341      38.080
2015    1        6     1  49    6.0758   540.0    4.347      38.050
2015    1        6     1  54    6.0797   539.8    4.352      38.021
2015    1        6     1  58    6.0836   539.6    4.358      37.993
2015    1        6     2   3    6.0876   539.5    4.364      37.965
2015    1        6     2   8    6.0915   539.3    4.369      37.938
2015    1        6     2  13    6.0955   539.1    4.375      37.911
2015    1        6     2  18    6.0995   538.9    4.381      37.886
2015    1        6     2  23    6.1035   538.7    4.387      37.861
2015    1        6     2  28    6.1075   538.5    4.393      37.837
2015    1        6     2  33    6.1116   538.3    4.399      37.813
2015    1        6     2  38    6.1156   538.2    4.405      37.791
2015    1        6     2  43    6.1197   538.0    4.411      37.769
2015    1        6     2  48    6.1238   537.8    4.417      37.748
2015    1        6     2  52    6.1279   537.6    4.423      37.728
2015    1        6     2  57    6.1320   537.4    4.430      37.710
2015    1        6     3   2    6.1361   537.3    4.436      37.692
2015    1        6     3   7    6.1403   537.1    4.443      37.675
2015    1        6     3  12    6.1445   536.9    4.450      37.659
2015    1        6     3  17    6.1487   536.8    4.456      37.644
2015    1        6     3  22    6.1529   536.6    4.463      37.630
2015    1        6     3  27    6.1571   536.4    4.470      37.617
2015    1        6     3  32    6.1614   536.3    4.477      37.606
2015    1        6     3  37    6.1656   536.1    4.485      37.595
2015    1        6     3  42    6.1699   535.9    4.492      37.585
2015    1        6     3  46    6.1742   535.8    4.499      37.576
2015    1        6     3  51    6.1786   535.6    4.507      37.568
2015    1        6     3  56    6.1829   535.5    4.514      37.561
2015    1        6     4   1    6.1873   535.3    4.522      37.555
2015    1        6     4   6    6.1917   535.2    4.530      37.550
2015    1        6     4  11    6.1961   535.0    4.538      37.545
2015    1        6     4  16    6.2005   534.9    4.546      37.540
2015    1        6     4  21    6.2049   534.7    4.554      37.536
2015    1        6     4  26    6.2093   534.6    4.562      37.532
2015    1        6     4  31    6.2138   534.4    4.570      37.529
2015    1        6     4  36    6.2182   534.3    4.578      37.525
2015    1        6     4  41    6.2227   534.1    4.586      37.521
2015    1        6     4  46    6.2271   534.0    4.594      37.517
2015    1        6     4  50    6.2317   533.8    4.602      37.513
2015    1        6     4  55    6.2362   533.7    4.610      37.509
2015    1        6     5   0    6.2407   533.6    4.619      37.506
2015    1        6     5   5    6.2452   533.4    4.627      37.502
2015    1        6     5  10    6.2498   533.3    4.635      37.499
2015    1        6     5  15    6.2543   533.1    4.643      37.496
2015    1        6     5  20    6.2589   533.0    4.651      37.492
2015    1        6     5  25    6.2635   532.9    4.659      37.489
2015    1        6     5  30    6.2681   532.7    4.667      37.484
2015    1        6     5  35    6.2728   532.6    4.675      37.480
2015    1        6     5  40    6.2774   532.5    4.683      37.475
2015    1        6     5  45    6.2820   532.4    4.691      37.469
2015    1        6     5  50    6.2867   532.3    4.698      37.463
2015    1        6     5  55    6.2913   532.1    4.706      37.456
2015    1        6     5  59    6.2960   532.0    4.713      37.449
2015    1        6     6   4    6.3006   531.9    4.720      37.441
2015    1        6     6   9    6.3053   531.8    4.727      37.432
2015    1        6     6  14    6.3099   531.7    4.734      37.423
2015    1        6     6  19    6.3145   531.6    4.741      37.413
2015    1        6     6  24    6.3192   531.4    4.747      37.404
2015    1        6     6  29    6.3238   531.3    4.754      37.393
2015    1        6     6  34    6.3284   531.2    4.760      37.382
2015    1        6     6  39    6.3331   531.1    4.766      37.371
2015    1        6     6  44    6.3377   531.0    4.772      37.359
2015    1        6     6  49    6.3424   530.9    4.778      37.347
2015    1        6     6  54    6.3470   530.8    4.784      37.334
2015    1        6     6  59    6.3516   530.7    4.789      37.322
2015    1        6     7   3    6.3563   530.6    4.795      37.309
2015    1        6     7   8    6.3609   530.5    4.800      37.295
2015    1        6     7  13    6.3656   530.4    4.806      37.282
2015    1        6     7  18    6.3703   530.3    4.811      37.268
2015    1        6     7  23    6.3749   530.2    4.816      37.254
2015    1        6     7  28    6.3796   530.1    4.821      37.240
2015    1        6     7  33    6.3843   530.0    4.826      37.226
2015    1        6     7  38    6.3890   529.9    4.831      37.212
2015    1        6     7  43    6.3937   529.8    4.836      37.198
2015    1        6     7  48    6.3983   529.7    4.841      37.183
2015    1        6     7  53    6.4031   529.6    4.845      37.169
2015    1        6     7  58    6.4078   529.5    4.850      37.155
2015    1        6     8   2    6.4125   529.4    4.855      37.141
2015    1        6     8   7    6.4172   529.3    4.859      37.126
2015    1        6     8  12    6.4219   529.2    4.864      37.112
2015    1        6     8  17    6.4267   529.1    4.868      37.099
2015    1        6     8  22    6.4314   529.0    4.873      37.085
2015    1        6     8  27    6.4362   528.9    4.877      37.072
2015    1        6     8  32    6.4409   528.8    4.881      37.059
2015    1        6     8  37    6.4457   528.7    4.886      37.046
2015    1        6     8  42    6.4505   528.6    4.890      37.033
2015    1        6     8  47    6.4552   528.5    4.894      37.021
2015    1        6     8  52    6.4600   528.4    4.898      37.010
2015    1        6     8  57    6.4648   528.4    4.903      36.998
2015    1        6     9   1    6.4696   528.3    4.907      36.988
2015    1        6     9   6    6.4744   528.2    4.911      36.977
2015    1        6     9  11    6.4792   528.1    4.915      36.967
2015    1        6     9  16    6.4840   528.0    4.919      36.957
2015    1        6     9  21    6.4888   527.9    4.923      36.948
2015    1        6     9  26    6.4936   527.8    4.927      36.939
2015    1        6     9  31    6.4984   527.7    4.932      36.931
2015    1        6     9  36    6.5032   527.7    4.936      36.922
2015    1        6     9  41    6.5080   527.6    4.940      36.915
2015    1        6     9  46    6.5128   527.5    4.944      36.908
2015    1        6     9  51    6.5176   527.4    4.948      36.901
2015    1        6     9  55    6.5225   527.3    4.952      36.895
2015    1        6    10   0    6.5273   527.2    4.957      36.889
2015    1        6    10   5    6.5321   527.2    4.961      36.884
2015    1        6    10  10    6.5370   527.1    4.965      36.880
2015    1        6    10  15    6.5418   527.0    4.969      36.876
2015    1        6    10  20    6.5466   526.9    4.974      36.873
2015    1        6    10  25    6.5515   526.8    4.978      36.870
2015    1        6    10  30    6.5563   526.8    4.982      36.868
2015    1        6    10  35    6.5612   526.7    4.987      36.867
2015    1        6    10  40    6.5660   526.6    4.991      36.867
2015    1        6    10  45    6.5709   526.5    4.996      36.867
2015    1        6    10  49    6.5758   526.5    5.000      36.868
2015    1        6    10  54    6.5806   526.4    5.005      36.870
2015    1        6    10  59    6.5855   526.3    5.010      36.873
2015    1        6    11   4    6.5903   526.3    5.014      36.876
2015    1        6    11   9    6.5952   526.2    5.019      36.880
2015    1        6    11  14    6.6001   526.1    5.024      36.885
2015    1        6    11  19    6.6050   526.1    5.029      36.891
2015    1        6    11  24    6.6099   526.0    5.034      36.897
2015    1        6    11  29    6.6148   525.9    5.039      36.904
2015    1        6    11  34    6.6197   525.9    5.044      36.913
2015    1        6    11  39    6.6246   525.8    5.050      36.921
2015    1        6    11  44    6.6295   525.7    5.055      36.931
2015    1        6    11  49    6.6344   525.7    5.060      36.942
2015    1        6    11  53    6.6393   525.6    5.066      36.953
2015    1        6    11  58    6.6443   525.5    5.072      36.966
2015    1        6    12   3    6.6492   525.5    5.078      36.979
2015    1        6    12   8    6.6542   525.4    5.084      36.993
2015    1        6    12  13    6.6592   525.3    5.090      37.009
2015    1        6    12  18    6.6642   525.3    5.096      37.025
2015    1        6    12  23    6.6692   525.2    5.102      37.042
2015    1        6    12  28    6.6742   525.2    5.109      37.059
2015    1        6    12  33    6.6793   525.1    5.116      37.077
2015    1        6    12  38    6.6844   525.1    5.123      37.096
2015    1        6    12  43    6.6894   525.0    5.130      37.115
2015    1        6    12  48    6.6945   525.0    5.137      37.135
2015    1        6    12  53    6.6997   524.9    5.144      37.154
2015    1        6    12  58    6.7049   524.9    5.151      37.174
2015    1        6    13   2    6.7100   524.8    5.158      37.194
2015    1        6    13   7    6.7153   524.8    5.166      37.215
2015    1        6    13  12    6.7205   524.7    5.173      37.237
2015    1        6    13  17    6.7257   524.7    5.180      37.259
2015    1        6    13  22    6.7310   524.7    5.188      37.282
2015    1        6    13  27    6.7362   524.6    5.195      37.306
2015    1        6    13  32    6.7415   524.6    5.203      37.330
2015    1        6    13  37    6.7467   524.6    5.210      37.355
2015    1        6    13  42    6.7519   524.6    5.217      37.380
2015    1        6    13  47    6.7571   524.5    5.223      37.405
2015    1        6    13  52    6.7623   524.5    5.230      37.428
2015    1        6    13  57    6.7674   524.5    5.236      37.452
2015    1        6    14   1    6.7726   524.5    5.242      37.474
2015    1        6    14   6    6.7777   524.5    5.247      37.495
2015    1        6    14  11    6.7828   524.4    5.253      37.515
2015    1        6    14  16    6.7878   524.4    5.258      37.534
2015    1        6    14  21    6.7929   524.4    5.263      37.552
2015    1        6    14  26    6.7980   524.4    5.268      37.570
2015    1        6    14  31    6.8030   524.4    5.272      37.586
2015    1        6    14  36    6.8080   524.4    5.277      37.601
2015    1        6    14  41    6.8130   524.4    5.281      37.616
2015    1        6    14  46    6.8180   524.3    5.285      37.630
2015    1        6    14  51    6.8230   524.3    5.289      37.643
2015    1        6    14  56    6.8279   524.3    5.293      37.655
2015    1        6    15   1    6.8329   524.3    5.296      37.667
2015    1        6    15   5    6.8379   524.3    5.299      37.678
2015    1        6    15  10    6.8428   524.3    5.303      37.688
2015    1        6    15  15    6.8478   524.2    5.306      37.698
2015    1        6    15  20    6.8527   524.2    5.309      37.708
2015    1        6    15  25    6.8576   524.2    5.312      37.717
2015    1        6    15  30    6.8626   524.2    5.315      37.726
2015    1        6    15  35    6.8675   524.2    5.317      37.735
2015    1        6    15  40    6.8724   524.2    5.320      37.744
2015    1        6    15  45    6.8773   524.1    5.322      37.752
2015    1        6    15  50    6.8823   524.1    5.325      37.760
2015    1        6    15  55    6.8872   524.1    5.327      37.769
2015    1        6    16   0    6.8921   524.1    5.329      37.776
2015    1        6    16   4    6.8970   524.1    5.332      37.784
2015    1        6    16   9    6.9019   524.1    5.334      37.792
2015    1        6    16  14    6.9068   524.0    5.336      37.800
2015    1        6    16  19    6.9117   524.0    5.338      37.807
2015    1        6    16  24    6.9166   524.0    5.340      37.815
2015    1        6    16  29    6.9215   524.0    5.342      37.822
2015    1        6    16  34    6.9263   524.0    5.344      37.830
2015    1        6    16  39    6.9312   524.0    5.346      37.837
2015    1        6    16  44    6.9361   524.0    5.347      37.844
2015    1        6    16  49    6.9409   523.9    5.349      37.851
2015    1        6    16  54    6.9458   523.9    5.351      37.858
2015    1        6    16  58    6.9507   523.9    5.352      37.864
2015    1        6    17   3    6.9555   523.9    5.354      37.871
2015    1        6    17   8    6.9604   523.9    5.356      37.877
2015    1        6    17  13    6.9652   523.9    5.357      37.884
2015    1        6    17  18    6.9701   523.9    5.359      37.890
2015    1        6    17  23    6.9749   523.9    5.360      37.896
2015    1        6    17  28    6.9798   523.9    5.362      37.903
2015    1        6    17  33    6.9846   523.8    5.363      37.909
2015    1        6    17  38    6.9894   523.8    5.365      37.916
2015    1        6    17  43    6.9943   523.8    5.366      37.923
2015    1        6    17  48    6.9991   523.8    5.368      37.930
2015    1        6    17  52    7.0040   523.8    5.369      37.937
2015    1        6    17  57    7.0088   523.8    5.371      37.944
2015    1        6    18   2    7.0137   523.8    5.372      37.952
2015    1        6    18   7    7.0185   523.8    5.374      37.960
2015    1        6    18  12    7.0234   523.8    5.375      37.968
2015    1        6    18  17    7.0282   523.8    5.377      37.977
2015    1        6    18  22    7.0331   523.8    5.378      37.986
2015    1        6    18  27    7.0380   523.8    5.380      37.996
2015    1        6    18  32    7.0428   523.8    5.382      38.006
2015    1        6    18  37    7.0477   523.8    5.384      38.017
2015    1        6    18  42    7.0526   523.8    5.385      38.028
2015    1        6    18  47    7.0575   523.8    5.387      38.040
2015    1        6    18  52    7.0624   523.8    5.389      38.053
2015    1        6    18  56    7.0673   523.8    5.391      38.066
2015    1        6    19   1    7.0722   523.8    5.394      38.080
2015    1        6    19   6    7.0771   523.8    5.396      38.095
2015    1        6    19  11    7.0821   523.8    5.398      38.111
2015    1        6    19  16    7.0870   523.8    5.401      38.127
2015    1        6    19  21    7.0919   523.8    5.403      38.145
2015    1        6    19  26    7.0969   523.8    5.406      38.164
2015    1        6    19  31    7.1018   523.8    5.409      38.183
2015    1        6    19  36    7.1068   523.8    5.412      38.204
2015    1        6    19  41    7.1117   523.8    5.415      38.226
2015    1        6    19  46    7.1167   523.8    5.419      38.248
2015    1        6    19  51    7.1217   523.8    5.423      38.272
2015    1        6    19  56    7.1267   523.8    5.426      38.297
2015    1        6    20   0    7.1317   523.8    5.430      38.324
2015    1        6    20   5    7.1368   523.8    5.435      38.352
2015    1        6    20  10    7.1418   523.8    5.439      38.380
2015    1        6    20  15    7.1469   523.9    5.444      38.410
2015    1        6    20  20    7.1520   523.9    5.449      38.442
2015    1        6    20  25    7.1572   523.9    5.454      38.475
2015    1        6    20  30    7.1623   523.9    5.460      38.510
2015    1        6    20  35    7.1675   523.9    5.466      38.547
2015    1        6    20  40    7.1726   524.0    5.471      38.584
2015    1        6    20  45    7.1778   524.0    5.477      38.624
2015    1        6    20  50    7.1829   524.0    5.483      38.666
2015    1        6    20  55    7.1880   524.1    5.489      38.708
2015    1        6    21   0    7.1931   524.1    5.494      38.752
2015    1        6    21   4    7.1982   524.2    5.500      38.796
2015    1        6    21   9    7.2032   524.2    5.505      38.840
2015    1        6    21  14    7.2082   524.3    5.510      38.885
2015    1        6    21  19    7.2131   524.4    5.515      38.931
2015    1        6    21  24    7.2180   524.4    5.520      38.977
2015    1        6    21  29    7.2229   524.5    5.524      39.023
2015    1        6    21  34    7.2276   524.5    5.529      39.069
2015    1        6    21  39    7.2324   524.6    5.533      39.115
2015    1        6    21  44    7.2371   524.7    5.536      39.160
2015    1        6    21  49    7.2418   524.7    5.540      39.206
2015    1        6    21  54    7.2464   524.8    5.543      39.250
2015    1        6    21  59    7.2510   524.8    5.546      39.294
2015    1        6    22   4    7.2555   524.9    5.548      39.337
2015    1        6    22   8    7.2601   525.0    5.551      39.379
2015    1        6    22  13    7.2646   525.0    5.553      39.420
2015    1        6    22  18    7.2691   525.1    5.556      39.460
2015    1        6    22  23    7.2736   525.1    5.558      39.500
2015    1        6    22  28    7.2781   525.2    5.559      39.538
2015    1        6    22  33    7.2826   525.2    5.561      39.577
2015    1        6    22  38    7.2871   525.3    5.563      39.614
2015    1        6    22  43    7.2916   525.4    5.564      39.651
2015    1        6    22  48    7.2960   525.4    5.566      39.686
2015    1        6    22  53    7.3005   525.5    5.567      39.722
2015    1        6    22  58    7.3050   525.5    5.568      39.757
2015    1        6    23   3    7.3095   525.6    5.569      39.791
2015    1        6    23   7    7.3139   525.6    5.570      39.824
2015    1        6    23  12    7.3184   525.7    5.571      39.858
2015    1        6    23  17    7.3229   525.7    5.572      39.890
2015    1        6    23  22    7.3274   525.8    5.572      39.922
2015    1        6    23  27    7.3319   525.9    5.573      39.954
2015    1        6    23  32    7.3364   525.9    5.574      39.985
2015    1        6    23  37    7.3409   526.0    5.574      40.016
2015    1        6    23  42    7.3454   526.0    5.575      40.046
2015    1        6    23  47    7.3499   526.1    5.575      40.076
2015    1        6    23  52    7.3544   526.1    5.575      40.105
2015    1        6    23  57    7.3589   526.2    5.576      40.134
2015    1        7     0   1    7.3634   526.2    5.576      40.163
2015    1        7     0   6    7.3679   526.3    5.576      40.191
2015    1        7     0  11    7.3724   526.3    5.576      40.219
2015    1        7     0  16    7.3769   526.4    5.577      40.247
2015    1        7     0  21    7.3815   526.4    5.577      40.274
2015    1        7     0  26    7.3860   526.5    5.577      40.301
2015    1        7     0  31    7.3905   526.5    5.577      40.328
2015    1        7     0  36    7.3950   526.6    5.577      40.355
2015    1        7     0  41    7.3995   526.7    5.577      40.381
2015    1        7     0  46    7.4040   526.7    5.577      40.407
2015    1        7     0  51    7.4086   526.8    5.577      40.432
2015    1        7     0  56    7.4131   526.8    5.576      40.458
2015    1        7     1   0    7.4176   526.9    5.576      40.483
2015    1        7     1   5    7.4222   526.9    5.576      40.509
2015    1        7     1  10    7.4267   527.0    5.576      40.534
2015    1        7     1  15    7.4313   527.1    5.576      40.559
2015    1        7     1  20    7.4358   527.1    5.576      40.584
2015    1        7     1  25    7.4403   527.2    5.576      40.609
2015    1        7     1  30    7.4449   527.2    5.576      40.635
2015    1        7     1  35    7.4495   527.3    5.576      40.660
2015    1        7     1  40    7.4540   527.3    5.575      40.685
2015    1        7     1  45    7.4586   527.4    5.575      40.711
2015    1        7     1  50    7.4632   527.5    5.575      40.736
2015    1        7     1  54    7.4678   527.5    5.575      40.763
2015    1        7     1  59    7.4723   527.6    5.575      40.789
2015    1        7     2   4    7.4769   527.6    5.575      40.815
2015    1        7     2   9    7.4815   527.7    5.576      40.842
2015    1        7     2  14    7.4860   527.8    5.576      40.870
2015    1        7     2  19    7.4905   527.8    5.576      40.897
2015    1        7     2  24    7.4951   527.9    5.576      40.926
2015    1        7     2  29    7.4996   528.0    5.577      40.954
2015    1        7     2  34    7.5041   528.0    5.577      40.984
2015    1        7     2  39    7.5086   528.1    5.578      41.014
2015    1        7     2  44    7.5131   528.2    5.578      41.044
2015    1        7     2  49    7.5175   528.3    5.579      41.075
2015    1        7     2  53    7.5220   528.3    5.580      41.107
2015    1        7     2  58    7.5264   528.4    5.581      41.139
2015    1        7     3   3    7.5308   528.5    5.581      41.172
2015    1        7     3   8    7.5352   528.5    5.583      41.206
2015    1        7     3  13    7.5396   528.6    5.584      41.240
2015    1        7     3  18    7.5440   528.7    5.585      41.276
2015    1        7     3  23    7.5484   528.8    5.586      41.311
2015    1        7     3  28    7.5527   528.9    5.588      41.348
2015    1        7     3  33    7.5571   528.9    5.589      41.386
2015    1        7     3  38    7.5614   529.0    5.591      41.424
2015    1        7     3  43    7.5657   529.1    5.593      41.463
2015    1        7     3  47    7.5701   529.2    5.595      41.502
2015    1        7     3  52    7.5743   529.3    5.597      41.543
2015    1        7     3  57    7.5786   529.3    5.600      41.584
2015    1        7     4   2    7.5829   529.4    5.602      41.626
2015    1        7     4   7    7.5871   529.5    5.605      41.670
2015    1        7     4  12    7.5912   529.6    5.607      41.716
2015    1        7     4  17    7.5954   529.7    5.610      41.763
2015    1        7     4  22    7.5995   529.8    5.612      41.813
2015    1        7     4  27    7.6035   529.9    5.615      41.864
2015    1        7     4  32    7.6076   530.0    5.617      41.917
2015    1        7     4  37    7.6116   530.1    5.620      41.971
2015    1        7     4  42    7.6155   530.2    5.622      42.026
2015    1        7     4  46    7.6195   530.3    5.624      42.082
2015    1        7     4  51    7.6234   530.4    5.626      42.138
2015    1        7     4  56    7.6273   530.5    5.629      42.194
2015    1        7     5   1    7.6312   530.6    5.631      42.250
2015    1        7     5   6    7.6351   530.7    5.633      42.308
2015    1        7     5  11    7.6390   530.8    5.635      42.366
2015    1        7     5  16    7.6428   530.9    5.637      42.425
2015    1        7     5  21    7.6466   531.1    5.639      42.484
2015    1        7     5  26    7.6505   531.2    5.640      42.544
2015    1        7     5  31    7.6542   531.3    5.642      42.605
2015    1        7     5  36    7.6580   531.4    5.644      42.665
2015    1        7     5  41    7.6618   531.5    5.645      42.725
2015    1        7     5  45    7.6655   531.6    5.647      42.785
2015    1        7     5  50    7.6693   531.8    5.648      42.844
2015    1        7     5  55    7.6730   531.9    5.649      42.902
2015    1        7     6   0    7.6767   532.0    5.651      42.960
2015    1        7     6   5    7.6804   532.1    5.652      43.018
2015    1        7     6  10    7.6841   532.2    5.653      43.076
2015    1        7     6  15    7.6879   532.4    5.653      43.134
2015    1        7     6  20    7.6916   532.5    5.654      43.191
2015    1        7     6  25    7.6953   532.6    5.655      43.249
2015    1        7     6  30    7.6990   532.7    5.655      43.306
2015    1        7     6  35    7.7028   532.9    5.655      43.363
2015    1        7     6  40    7.7065   533.0    5.656      43.420
2015    1        7     6  45    7.7102   533.1    5.656      43.476
2015    1        7     6  49    7.7139   533.3    5.655      43.530
2015    1        7     6  54    7.7177   533.4    5.655      43.584
2015    1        7     6  59    7.7214   533.5    5.655      43.637
2015    1        7     7   4    7.7250   533.7    5.654      43.690
2015    1        7     7   9    7.7287   533.8    5.654      43.741
2015    1        7     7  14    7.7323   534.0    5.653      43.792
2015    1        7     7  19    7.7359   534.1    5.652      43.843
2015    1        7     7  24    7.7395   534.2    5.651      43.892
2015    1        7     7  29    7.7430   534.4    5.650      43.941
2015    1        7     7  34    7.7466   534.5    5.649      43.989
2015    1        7     7  39    7.7501   534.7    5.648      44.037
2015    1        7     7  44    7.7537   534.8    5.647      44.084
2015    1        7     7  49    7.7572   534.9    5.645      44.131
2015    1        7     7  53    7.7607   535.1    5.644      44.177
2015    1        7     7  58    7.7642   535.2    5.643      44.223
2015    1        7     8   3    7.7677   535.4    5.641      44.268
2015    1        7     8   8    7.7711   535.5    5.640      44.313
2015    1        7     8  13    7.7746   535.6    5.639      44.358
2015    1        7     8  18    7.7781   535.8    5.637      44.403
2015    1        7     8  23    7.7816   535.9    5.636      44.447
2015    1        7     8  28    7.7850   536.1    5.635      44.491
2015    1        7     8  33    7.7885   536.2    5.633      44.535
2015    1        7     8  38    7.7920   536.3    5.632      44.579
2015    1        7     8  43    7.7954   536.5    5.631      44.623
2015    1        7     8  48    7.7988   536.6    5.630      44.668
2015    1        7     8  53    7.8022   536.8    5.629      44.713
2015    1        7     8  58    7.8056   536.9    5.628      44.759
2015    1        7     9   2    7.8089   537.1    5.627      44.805
2015    1        7     9   7    7.8122   537.2    5.625      44.852
2015    1        7     9  12    7.8154   537.4    5.624      44.900
2015    1        7     9  17    7.8186   537.5    5.623      44.948
2015    1        7     9  22    7.8218   537.7    5.622      44.996
2015    1        7     9  27    7.8249   537.9    5.621      45.043
2015    1        7     9  32    7.8279   538.0    5.619      45.091
2015    1        7     9  37    7.8309   538.2    5.618      45.139
2015    1        7     9  42    7.8339   538.3    5.617      45.188
2015    1        7     9  47    7.8368   538.5    5.616      45.237
2015    1        7     9  52    7.8397   538.6    5.615      45.286
2015    1        7     9  57    7.8426   538.8    5.614      45.335
2015    1        7    10   2    7.8455   538.9    5.613      45.384
2015    1        7    10   7    7.8484   539.1    5.612      45.435
2015    1        7    10  12    7.8513   539.2    5.611      45.486
2015    1        7    10  16    7.8541   539.4    5.610      45.539
2015    1        7    10  21    7.8570   539.6    5.610      45.593
2015    1        7    10  26    7.8599   539.7    5.609      45.647
2015    1        7    10  31    7.8628   539.9    5.608      45.703
2015    1        7    10  36    7.8657   540.1    5.607      45.759
2015    1        7    10  41    7.8686   540.3    5.606      45.815
2015    1        7    10  46    7.8715   540.4    5.605      45.871
2015    1        7    10  51    7.8744   540.6    5.604      45.926
2015    1        7    10  56    7.8772   540.8    5.602      45.981
2015    1        7    11   1    7.8800   541.0    5.601      46.034
2015    1        7    11   6    7.8828   541.1    5.599      46.087
2015    1        7    11  11    7.8855   541.3    5.598      46.140
2015    1        7    11  15    7.8883   541.5    5.596      46.192
2015    1        7    11  20    7.8909   541.6    5.594      46.243
2015    1        7    11  25    7.8936   541.8    5.593      46.294
2015    1        7    11  30    7.8963   542.0    5.591      46.345
2015    1        7    11  35    7.8989   542.2    5.589      46.395
2015    1        7    11  40    7.9015   542.3    5.588      46.445
2015    1        7    11  45    7.9041   542.5    5.586      46.496
2015    1        7    11  50    7.9067   542.7    5.584      46.547
2015    1        7    11  55    7.9092   542.9    5.582      46.599
2015    1        7    12   0    7.9118   543.0    5.580      46.651
2015    1        7    12   5    7.9143   543.2    5.578      46.703
2015    1        7    12  10    7.9167   543.4    5.576      46.756
2015    1        7    12  14    7.9192   543.6    5.574      46.809
2015    1        7    12  19    7.9215   543.8    5.572      46.862
2015    1        7    12  24    7.9239   544.0    5.570      46.915
2015    1        7    12  29    7.9262   544.2    5.568      46.967
2015    1        7    12  34    7.9286   544.4    5.565      47.018
2015    1        7    12  39    7.9308   544.5    5.563      47.070
2015    1        7    12  44    7.9331   544.7    5.560      47.121
2015    1        7    12  49    7.9353   544.9    5.558      47.172
2015    1        7    12  54    7.9375   545.1    5.556      47.223
2015    1        7    12  59    7.9398   545.3    5.553      47.274
2015    1        7    13   4    7.9420   545.5    5.551      47.327
2015    1        7    13   9    7.9442   545.7    5.549      47.379
2015    1        7    13  13    7.9464   545.9    5.547      47.432
2015    1        7    13  18    7.9487   546.1    5.544      47.486
2015    1        7    13  23    7.9509   546.3    5.542      47.540
2015    1        7    13  28    7.9532   546.5    5.540      47.595
2015    1        7    13  33    7.9555   546.7    5.537      47.651
2015    1        7    13  38    7.9579   546.9    5.535      47.707
2015    1        7    13  43    7.9602   547.1    5.533      47.762
2015    1        7    13  48    7.9626   547.3    5.530      47.817
2015    1        7    13  53    7.9649   547.5    5.528      47.873
2015    1        7    13  58    7.9673   547.7    5.526      47.929
2015    1        7    14   3    7.9697   547.9    5.524      47.987
2015    1        7    14   8    7.9720   548.2    5.521      48.045
2015    1        7    14  13    7.9744   548.4    5.519      48.103
2015    1        7    14  17    7.9767   548.6    5.516      48.162
2015    1        7    14  22    7.9789   548.8    5.513      48.221
2015    1        7    14  27    7.9812   549.1    5.511      48.280
2015    1        7    14  32    7.9833   549.3    5.508      48.339
2015    1        7    14  37    7.9855   549.6    5.505      48.398
2015    1        7    14  42    7.9875   549.8    5.502      48.456
2015    1        7    14  47    7.9895   550.0    5.499      48.513
2015    1        7    14  52    7.9914   550.3    5.496      48.571
2015    1        7    14  57    7.9933   550.5    5.492      48.628
2015    1        7    15   2    7.9951   550.7    5.489      48.685
2015    1        7    15   7    7.9968   551.0    5.486      48.741
2015    1        7    15  12    7.9985   551.2    5.482      48.798
2015    1        7    15  17    8.0002   551.5    5.479      48.854
2015    1        7    15  21    8.0018   551.7    5.476      48.910
2015    1        7    15  26    8.0034   551.9    5.472      48.966
2015    1        7    15  31    8.0049   552.2    5.469      49.023
2015    1        7    15  36    8.0064   552.4    5.466      49.080
2015    1        7    15  41    8.0078   552.7    5.463      49.137
2015    1        7    15  46    8.0092   552.9    5.460      49.195
2015    1        7    15  51    8.0105   553.2    5.456      49.253
2015    1        7    15  56    8.0117   553.4    5.453      49.312
2015    1        7    16   1    8.0128   553.7    5.450      49.370
2015    1        7    16   6    8.0139   554.0    5.446      49.429
2015    1        7    16  11    8.0150   554.2    5.443      49.487
2015    1        7    16  16    8.0159   554.5    5.439      49.544
2015    1        7    16  21    8.0168   554.7    5.436      49.601
2015    1        7    16  26    8.0177   555.0    5.432      49.657
2015    1        7    16  30    8.0185   555.2    5.429      49.714
2015    1        7    16  35    8.0192   555.5    5.425      49.770
2015    1        7    16  40    8.0199   555.7    5.422      49.827
2015    1        7    16  45    8.0206   556.0    5.418      49.883
2015    1        7    16  50    8.0213   556.2    5.415      49.939
2015    1        7    16  55    8.0219   556.5    5.412      49.996
2015    1        7    17   0    8.0225   556.7    5.408      50.055
2015    1        7    17   5    8.0231   557.0    5.405      50.115
2015    1        7    17  10    8.0238   557.3    5.402      50.176
2015    1        7    17  15    8.0244   557.5    5.398      50.237
2015    1        7    17  20    8.0250   557.8    5.395      50.299
2015    1        7    17  25    8.0255   558.1    5.391      50.361
2015    1        7    17  30    8.0259   558.4    5.387      50.423
2015    1        7    17  35    8.0264   558.7    5.382      50.484
2015    1        7    17  39    8.0267   559.0    5.378      50.543
2015    1        7    17  44    8.0269   559.3    5.373      50.600
2015    1        7    17  49    8.0270   559.6    5.368      50.656
2015    1        7    17  54    8.0271   559.9    5.362      50.711
2015    1        7    17  59    8.0270   560.1    5.357      50.764
2015    1        7    18   4    8.0269   560.4    5.351      50.816
2015    1        7    18   9    8.0267   560.7    5.345      50.867
2015    1        7    18  14    8.0264   561.0    5.339      50.916
2015    1        7    18  19    8.0261   561.3    5.333      50.965
2015    1        7    18  24    8.0258   561.6    5.326      51.012
2015    1        7    18  29    8.0253   561.9    5.320      51.058
2015    1        7    18  34    8.0249   562.2    5.313      51.103
2015    1        7    18  38    8.0244   562.4    5.306      51.148
2015    1        7    18  43    8.0238   562.7    5.299      51.192
2015    1        7    18  48    8.0232   563.0    5.292      51.236
2015    1        7    18  53    8.0226   563.3    5.285      51.278
2015    1        7    18  58    8.0219   563.6    5.278      51.320
2015    1        7    19   3    8.0212   563.9    5.271      51.361
2015    1        7    19   8    8.0205   564.1    5.263      51.402
2015    1        7    19  13    8.0197   564.4    5.256      51.442
2015    1        7    19  18    8.0189   564.7    5.248      51.481
2015    1        7    19  23    8.0180   565.0    5.241      51.520
2015    1        7    19  28    8.0170   565.3    5.233      51.558
2015    1        7    19  33    8.0160   565.5    5.225      51.596
2015    1        7    19  37    8.0150   565.8    5.217      51.632
2015    1        7    19  42    8.0139   566.1    5.209      51.669
2015    1        7    19  47    8.0128   566.4    5.202      51.705
2015    1        7    19  52    8.0116   566.7    5.194      51.741
2015    1        7    19  57    8.0104   567.0    5.186      51.776
2015    1        7    20   2    8.0091   567.2    5.178      51.811
2015    1        7    20   7    8.0078   567.5    5.170      51.845
2015    1        7    20  12    8.0065   567.8    5.162      51.878
2015    1        7    20  17    8.0051   568.0    5.154      51.911
2015    1        7    20  22    8.0038   568.3    5.147      51.944
2015    1        7    20  27    8.0024   568.5    5.139      51.976
2015    1        7    20  32    8.0011   568.8    5.132      52.008
2015    1        7    20  37    7.9998   569.0    5.125      52.040
2015    1        7    20  41    7.9986   569.2    5.118      52.073
2015    1        7    20  46    7.9974   569.4    5.112      52.107
2015    1        7    20  51    7.9962   569.7    5.105      52.143
2015    1        7    20  56    7.9951   569.9    5.099      52.181
2015    1        7    21   1    7.9940   570.2    5.092      52.223
2015    1        7    21   6    7.9930   570.4    5.086      52.267
2015    1        7    21  11    7.9919   570.7    5.080      52.313
2015    1        7    21  16    7.9909   571.0    5.074      52.362
2015    1        7    21  21    7.9897   571.3    5.068      52.413
2015    1        7    21  26    7.9886   571.6    5.062      52.464
2015    1        7    21  31    7.9872   571.9    5.055      52.515
2015    1        7    21  36    7.9858   572.1    5.049      52.564
2015    1        7    21  40    7.9843   572.4    5.043      52.612
2015    1        7    21  45    7.9827   572.7    5.036      52.660
2015    1        7    21  50    7.9809   573.0    5.029      52.708
2015    1        7    21  55    7.9790   573.3    5.023      52.755
2015    1        7    22   0    7.9771   573.6    5.016      52.803
2015    1        7    22   5    7.9750   573.9    5.009      52.849
2015    1        7    22  10    7.9729   574.1    5.002      52.896
2015    1        7    22  15    7.9706   574.4    4.995      52.943
2015    1        7    22  20    7.9683   574.7    4.988      52.990
2015    1        7    22  25    7.9658   575.0    4.982      53.036
2015    1        7    22  30    7.9633   575.3    4.975      53.083
2015    1        7    22  35    7.9608   575.5    4.968      53.130
2015    1        7    22  40    7.9581   575.8    4.961      53.177
2015    1        7    22  44    7.9554   576.1    4.955      53.224
2015    1        7    22  49    7.9526   576.4    4.948      53.271
2015    1        7    22  54    7.9498   576.7    4.941      53.317
2015    1        7    22  59    7.9469   577.0    4.934      53.363
2015    1        7    23   4    7.9439   577.3    4.928      53.409
2015    1        7    23   9    7.9409   577.5    4.921      53.454
2015    1        7    23  14    7.9378   577.8    4.914      53.497
2015    1        7    23  19    7.9346   578.1    4.908      53.540
2015    1        7    23  24    7.9314   578.4    4.901      53.582
2015    1        7    23  29    7.9281   578.6    4.894      53.623
2015    1        7    23  34    7.9249   578.9    4.888      53.662
2015    1        7    23  39    7.9215   579.2    4.881      53.701
2015    1        7    23  44    7.9181   579.5    4.875      53.738
2015    1        7    23  49    7.9146   579.7    4.868      53.775
2015    1        7    23  53    7.9111   580.0    4.862      53.811
2015    1        7    23  58    7.9075   580.3    4.855      53.846
2015    1        8     0   3    7.9040   580.5    4.849      53.880
2015    1        8     0   8    7.9003   580.8    4.843      53.914
2015    1        8     0  13    7.8967   581.1    4.836      53.946
2015    1        8     0  18    7.8929   581.4    4.830      53.977
2015    1        8     0  23    7.8891   581.6    4.823      54.007
2015    1        8     0  28    7.8852   581.9    4.817      54.036
2015    1        8     0  33    7.8813   582.2    4.810      54.063
2015    1        8     0  38    7.8773   582.5    4.803      54.088
2015    1        8     0  43    7.8733   582.7    4.796      54.112
2015    1        8     0  48    7.8692   583.0    4.789      54.135
2015    1        8     0  53    7.8650   583.3    4.782      54.156
2015    1        8     0  58    7.8607   583.5    4.775      54.176
2015    1        8     1   3    7.8565   583.8    4.768      54.195
2015    1        8     1   7    7.8521   584.0    4.761      54.213
2015    1        8     1  12    7.8478   584.3    4.754      54.230
2015    1        8     1  17    7.8434   584.5    4.746      54.246
2015    1        8     1  22    7.8390   584.8    4.739      54.262
2015    1        8     1  27    7.8345   585.0    4.732      54.278
2015    1        8     1  32    7.8301   585.3    4.724      54.293
2015    1        8     1  37    7.8255   585.5    4.717      54.308
2015    1        8     1  42    7.8211   585.8    4.709      54.323
2015    1        8     1  47    7.8165   586.0    4.702      54.337
2015    1        8     1  52    7.8120   586.2    4.694      54.352
2015    1        8     1  57    7.8074   586.5    4.686      54.366
2015    1        8     2   2    7.8028   586.7    4.679      54.380
2015    1        8     2   6    7.7982   586.9    4.671      54.394
2015    1        8     2  11    7.7936   587.2    4.663      54.407
2015    1        8     2  16    7.7889   587.4    4.656      54.421
2015    1        8     2  21    7.7843   587.6    4.648      54.434
2015    1        8     2  26    7.7796   587.8    4.640      54.447
2015    1        8     2  31    7.7749   588.1    4.632      54.459
2015    1        8     2  36    7.7702   588.3    4.624      54.471
2015    1        8     2  41    7.7655   588.5    4.616      54.483
2015    1        8     2  46    7.7607   588.7    4.608      54.495
2015    1        8     2  51    7.7559   588.9    4.600      54.507
2015    1        8     2  56    7.7511   589.2    4.592      54.518
2015    1        8     3   1    7.7463   589.4    4.584      54.529
2015    1        8     3   5    7.7415   589.6    4.576      54.540
2015    1        8     3  10    7.7367   589.8    4.568      54.549
2015    1        8     3  15    7.7318   590.0    4.560      54.558
2015    1        8     3  20    7.7270   590.2    4.551      54.566
2015    1        8     3  25    7.7221   590.4    4.544      54.574
2015    1        8     3  30    7.7173   590.6    4.536      54.580
2015    1        8     3  35    7.7125   590.7    4.528      54.587
2015    1        8     3  40    7.7077   590.9    4.521      54.593
2015    1        8     3  45    7.7030   591.1    4.513      54.600
2015    1        8     3  50    7.6984   591.2    4.506      54.608
2015    1        8     3  55    7.6937   591.4    4.499      54.617
2015    1        8     4   0    7.6892   591.5    4.492      54.627
2015    1        8     4   5    7.6846   591.7    4.485      54.639
2015    1        8     4   9    7.6801   591.9    4.478      54.654
2015    1        8     4  14    7.6756   592.1    4.471      54.672
2015    1        8     4  19    7.6711   592.3    4.465      54.691
2015    1        8     4  24    7.6665   592.5    4.458      54.712
2015    1        8     4  29    7.6620   592.7    4.452      54.734
2015    1        8     4  34    7.6573   592.9    4.446      54.756
2015    1        8     4  39    7.6525   593.1    4.439      54.777
2015    1        8     4  44    7.6477   593.3    4.433      54.797
2015    1        8     4  49    7.6428   593.5    4.426      54.816
2015    1        8     4  54    7.6378   593.7    4.420      54.835
2015    1        8     4  59    7.6328   593.9    4.413      54.852
2015    1        8     5   4    7.6276   594.1    4.406      54.869
2015    1        8     5   8    7.6225   594.3    4.400      54.885
2015    1        8     5  13    7.6172   594.5    4.393      54.901
2015    1        8     5  18    7.6119   594.7    4.386      54.916
2015    1        8     5  23    7.6066   594.9    4.380      54.931
2015    1        8     5  28    7.6012   595.1    4.373      54.945
2015    1        8     5  33    7.5957   595.2    4.366      54.958
2015    1        8     5  38    7.5903   595.4    4.360      54.971
2015    1        8     5  43    7.5847   595.6    4.353      54.985
2015    1        8     5  48    7.5792   595.8    4.346      54.997
2015    1        8     5  53    7.5736   596.0    4.340      55.010
2015    1        8     5  58    7.5681   596.1    4.333      55.022
2015    1        8     6   3    7.5625   596.3    4.327      55.034
2015    1        8     6   8    7.5568   596.5    4.321      55.046
2015    1        8     6  13    7.5512   596.6    4.314      55.057
2015    1        8     6  17    7.5455   596.8    4.308      55.068
2015    1        8     6  22    7.5398   597.0    4.302      55.078
2015    1        8     6  27    7.5341   597.1    4.296      55.088
2015    1        8     6  32    7.5284   597.3    4.290      55.097
2015    1        8     6  37    7.5227   597.4    4.284      55.106
2015    1        8     6  42    7.5170   597.6    4.279      55.114
2015    1        8     6  47    7.5113   597.7    4.273      55.122
2015    1        8     6  52    7.5056   597.9    4.267      55.129
2015    1        8     6  57    7.4998   598.0    4.262      55.135
2015    1        8     7   2    7.4941   598.2    4.257      55.140
2015    1        8     7   7    7.4884   598.3    4.251      55.145
2015    1        8     7  12    7.4827   598.4    4.246      55.148
2015    1        8     7  17    7.4770   598.6    4.241      55.151
2015    1        8     7  22    7.4713   598.7    4.236      55.151
2015    1        8     7  26    7.4656   598.8    4.231      55.150
2015    1        8     7  31    7.4599   598.9    4.227      55.147
2015    1        8     7  36    7.4543   599.0    4.222      55.143
2015    1        8     7  41    7.4486   599.2    4.217      55.137
2015    1        8     7  46    7.4430   599.3    4.212      55.131
2015    1        8     7  51    7.4374   599.4    4.208      55.123
2015    1        8     7  56    7.4318   599.5    4.203      55.114
2015    1        8     8   1    7.4262   599.6    4.199      55.103
2015    1        8     8   6    7.4206   599.7    4.194      55.091
2015    1        8     8  11    7.4151   599.8    4.190      55.078
2015    1        8     8  16    7.4096   599.9    4.185      55.064
2015    1        8     8  21    7.4041   599.9    4.181      55.049
2015    1        8     8  26    7.3986   600.0    4.176      55.033
2015    1        8     8  31    7.3932   600.1    4.171      55.017
2015    1        8     8  35    7.3878   600.2    4.167      55.000
2015    1        8     8  40    7.3824   600.3    4.162      54.982
2015    1        8     8  45    7.3770   600.3    4.157      54.964
2015    1        8     8  50    7.3717   600.4    4.153      54.945
2015    1        8     8  55    7.3664   600.5    4.148      54.925
2015    1        8     9   0    7.3611   600.5    4.143      54.905
2015    1        8     9   5    7.3558   600.6    4.138      54.885
2015    1        8     9  10    7.3506   600.7    4.133      54.864
2015    1        8     9  15    7.3453   600.7    4.128      54.842
2015    1        8     9  20    7.3402   600.8    4.124      54.820
2015    1        8     9  25    7.3350   600.8    4.119      54.798
2015    1        8     9  30    7.3298   600.9    4.114      54.775
2015    1        8     9  34    7.3247   600.9    4.109      54.751
2015    1        8     9  39    7.3196   601.0    4.104      54.727
2015    1        8     9  44    7.3145   601.0    4.099      54.703
2015    1        8     9  49    7.3095   601.1    4.094      54.678
2015    1        8     9  54    7.3045   601.1    4.089      54.653
2015    1        8     9  59    7.2995   601.2    4.084      54.627
2015    1        8    10   4    7.2945   601.2    4.079      54.601
2015    1        8    10   9    7.2896   601.2    4.074      54.575
2015    1        8    10  14    7.2847   601.3    4.069      54.548
2015    1        8    10  19    7.2798   601.3    4.064      54.521
2015    1        8    10  24    7.2750   601.3    4.059      54.494
2015    1        8    10  29    7.2702   601.4    4.054      54.467
2015    1        8    10  33    7.2655   601.4    4.050      54.440
2015    1        8    10  38    7.2608   601.4    4.045      54.412
2015    1        8    10  43    7.2561   601.4    4.040      54.386
2015    1        8    10  48    7.2515   601.4    4.036      54.359
2015    1        8    10  53    7.2470   601.5    4.032      54.333
2015    1        8    10  58    7.2424   601.5    4.027      54.307
2015    1        8    11   3    7.2380   601.5    4.023      54.283
2015    1        8    11   8    7.2336   601.5    4.019      54.259
2015    1        8    11  13    7.2292   601.5    4.015      54.236
2015    1        8    11  18    7.2249   601.5    4.011      54.213
2015    1        8    11  23    7.2206   601.6    4.008      54.192
2015    1        8    11  28    7.2163   601.6    4.004      54.173
2015    1        8    11  32    7.2121   601.6    4.001      54.155
2015    1        8    11  37    7.2078   601.6    3.998      54.138
2015    1        8    11  42    7.2035   601.7    3.994      54.122
2015    1        8    11  47    7.1992   601.7    3.991      54.108
2015    1        8    11  52    7.1949   601.7    3.988      54.095
2015    1        8    11  57    7.1905   601.8    3.985      54.084
2015    1        8    12   2    7.1861   601.8    3.982      54.073
2015    1        8    12   7    7.1817   601.8    3.978      54.063
2015    1        8    12  12    7.1772   601.9    3.975      54.054
2015    1        8    12  17    7.1727   601.9    3.972      54.044
2015    1        8    12  22    7.1682   601.9    3.968      54.034
2015    1        8    12  27    7.1637   602.0    3.965      54.023
2015    1        8    12  31    7.1591   602.0    3.961      54.013
2015    1        8    12  36    7.1545   602.0    3.958      54.002
2015    1        8    12  41    7.1499   602.1    3.954      53.991
2015    1        8    12  46    7.1453   602.1    3.950      53.979
2015    1        8    12  51    7.1407   602.1    3.947      53.967
2015    1        8    12  56    7.1361   602.1    3.943      53.955
2015    1        8    13   1    7.1315   602.2    3.939      53.943
2015    1        8    13   6    7.1268   602.2    3.936      53.931
2015    1        8    13  11    7.1222   602.2    3.932      53.919
2015    1        8    13  16    7.1176   602.2    3.928      53.906
2015    1        8    13  21    7.1129   602.2    3.925      53.894
2015    1        8    13  26    7.1083   602.2    3.921      53.881
2015    1        8    13  31    7.1037   602.3    3.917      53.869
2015    1        8    13  35    7.0991   602.3    3.914      53.856
2015    1        8    13  40    7.0945   602.3    3.910      53.844
2015    1        8    13  45    7.0899   602.3    3.907      53.831
2015    1        8    13  50    7.0854   602.3    3.903      53.819
2015    1        8    13  55    7.0808   602.3    3.900      53.806
2015    1        8    14   0    7.0763   602.3    3.896      53.794
2015    1        8    14   5    7.0718   602.3    3.893      53.782
2015    1        8    14  10    7.0673   602.3    3.890      53.770
2015    1        8    14  15    7.0629   602.3    3.887      53.757
2015    1        8    14  20    7.0584   602.3    3.883      53.744
2015    1        8    14  25    7.0540   602.2    3.880      53.731
2015    1        8    14  30    7.0496   602.2    3.877      53.717
2015    1        8    14  35    7.0453   602.2    3.874      53.702
2015    1        8    14  39    7.0410   602.2    3.871      53.687
2015    1        8    14  44    7.0367   602.2    3.868      53.671
2015    1        8    14  49    7.0324   602.2    3.865      53.655
2015    1        8    14  54    7.0282   602.2    3.863      53.638
2015    1        8    14  59    7.0240   602.2    3.860      53.620
2015    1        8    15   4    7.0198   602.1    3.857      53.601
2015    1        8    15   9    7.0156   602.1    3.855      53.582
2015    1        8    15  14    7.0115   602.1    3.852      53.562
2015    1        8    15  19    7.0074   602.1    3.850      53.541
2015    1        8    15  24    7.0034   602.0    3.847      53.519
2015    1        8    15  29    6.9994   602.0    3.845      53.498
2015    1        8    15  34    6.9954   602.0    3.843      53.475
2015    1        8    15  39    6.9915   602.0    3.840      53.453
2015    1        8    15  44    6.9876   602.0    3.838      53.431
2015    1        8    15  48    6.9837   601.9    3.836      53.408
2015    1        8    15  53    6.9798   601.9    3.834      53.385
2015    1        8    15  58    6.9759   601.9    3.831      53.362
2015    1        8    16   3    6.9720   601.9    3.829      53.339
2015    1        8    16   8    6.9681   601.8    3.827      53.316
2015    1        8    16  13    6.9643   601.8    3.825      53.292
2015    1        8    16  18    6.9604   601.8    3.824      53.269
2015    1        8    16  23    6.9566   601.7    3.822      53.246
2015    1        8    16  28    6.9527   601.7    3.820      53.223
2015    1        8    16  33    6.9488   601.7    3.818      53.198
2015    1        8    16  38    6.9450   601.6    3.817      53.173
2015    1        8    16  43    6.9412   601.6    3.815      53.147
2015    1        8    16  47    6.9373   601.6    3.813      53.120
2015    1        8    16  52    6.9335   601.5    3.812      53.093
2015    1        8    16  57    6.9297   601.5    3.810      53.066
2015    1        8    17   2    6.9259   601.4    3.809      53.038
2015    1        8    17   7    6.9222   601.4    3.807      53.010
2015    1        8    17  12    6.9184   601.3    3.806      52.982
2015    1        8    17  17    6.9147   601.3    3.804      52.954
2015    1        8    17  22    6.9110   601.2    3.803      52.925
2015    1        8    17  27    6.9073   601.2    3.801      52.896
2015    1        8    17  32    6.9036   601.1    3.800      52.867
2015    1        8    17  37    6.8999   601.1    3.798      52.837
2015    1        8    17  41    6.8962   601.0    3.797      52.806
2015    1        8    17  46    6.8926   601.0    3.795      52.774
2015    1        8    17  51    6.8889   600.9    3.794      52.742
2015    1        8    17  56    6.8852   600.9    3.792      52.709
2015    1        8    18   1    6.8816   600.8    3.791      52.676
2015    1        8    18   6    6.8780   600.7    3.789      52.643
2015    1        8    18  11    6.8743   600.7    3.787      52.609
2015    1        8    18  16    6.8707   600.6    3.786      52.575
2015    1        8    18  21    6.8671   600.6    3.784      52.541
2015    1        8    18  26    6.8636   600.5    3.782      52.507
2015    1        8    18  31    6.8600   600.4    3.781      52.473
2015    1        8    18  36    6.8565   600.4    3.779      52.439
2015    1        8    18  40    6.8529   600.3    3.777      52.406
2015    1        8    18  45    6.8495   600.2    3.776      52.373
2015    1        8    18  50    6.8460   600.2    3.774      52.340
2015    1        8    18  55    6.8425   600.1    3.773      52.307
2015    1        8    19   0    6.8390   600.0    3.771      52.275
2015    1        8    19   5    6.8355   600.0    3.770      52.244
2015    1        8    19  10    6.8320   599.9    3.768      52.215
2015    1        8    19  15    6.8285   599.8    3.767      52.187
2015    1        8    19  20    6.8250   599.8    3.765      52.160
2015    1        8    19  25    6.8215   599.7    3.764      52.133
2015    1        8    19  30    6.8180   599.6    3.762      52.107
2015    1        8    19  35    6.8145   599.6    3.760      52.081
2015    1        8    19  39    6.8110   599.5    3.759      52.054
2015    1        8    19  44    6.8075   599.4    3.757      52.027
2015    1        8    19  49    6.8040   599.4    3.755      52.000
2015    1        8    19  54    6.8005   599.3    3.753      51.974
2015    1        8    19  59    6.7970   599.2    3.751      51.947
2015    1        8    20   4    6.7936   599.2    3.749      51.920
2015    1        8    20   9    6.7901   599.1    3.747      51.893
2015    1        8    20  14    6.7866   599.0    3.745      51.866
2015    1        8    20  19    6.7832   598.9    3.743      51.838
2015    1        8    20  24    6.7798   598.8    3.741      51.810
2015    1        8    20  29    6.7764   598.8    3.739      51.782
2015    1        8    20  34    6.7730   598.7    3.737      51.753
2015    1        8    20  38    6.7696   598.6    3.735      51.724
2015    1        8    20  43    6.7663   598.5    3.733      51.695
2015    1        8    20  48    6.7630   598.4    3.730      51.665
2015    1        8    20  53    6.7597   598.3    3.728      51.635
2015    1        8    20  58    6.7564   598.2    3.726      51.605
2015    1        8    21   3    6.7532   598.2    3.723      51.574
2015    1        8    21   8    6.7500   598.1    3.721      51.543
2015    1        8    21  13    6.7469   598.0    3.719      51.512
2015    1        8    21  18    6.7437   597.9    3.717      51.481
2015    1        8    21  23    6.7406   597.8    3.714      51.449
2015    1        8    21  28    6.7376   597.7    3.712      51.418
2015    1        8    21  33    6.7346   597.6    3.710      51.386
2015    1        8    21  38    6.7316   597.5    3.707      51.354
2015    1        8    21  42    6.7286   597.4    3.705      51.322
2015    1        8    21  47    6.7257   597.3    3.703      51.290
2015    1        8    21  52    6.7228   597.2    3.701      51.258
2015    1        8    21  57    6.7199   597.1    3.698      51.226
2015    1        8    22   2    6.7171   597.0    3.696      51.195
2015    1        8    22   7    6.7143   596.9    3.694      51.163
2015    1        8    22  12    6.7115   596.8    3.692      51.132
2015    1        8    22  17    6.7088   596.7    3.690      51.100
2015    1        8    22  22    6.7061   596.6    3.688      51.070
2015    1        8    22  27    6.7034   596.5    3.686      51.040
2015    1        8    22  32    6.7007   596.4    3.684      51.010
2015    1        8    22  37    6.6980   596.3    3.682      50.981
2015    1        8    22  42    6.6953   596.2    3.680      50.952
2015    1        8    22  47    6.6926   596.1    3.679      50.924
2015    1        8    22  51    6.6899   596.0    3.677      50.897
2015    1        8    22  56    6.6872   595.9    3.676      50.870
2015    1        8    23   1    6.6845   595.8    3.674      50.844
2015    1        8    23   6    6.6817   595.7    3.673      50.819
2015    1        8    23  11    6.6789   595.6    3.671      50.794
2015    1        8    23  16    6.6761   595.5    3.670      50.770
2015    1        8    23  21    6.6733   595.4    3.669      50.746
2015    1        8    23  26    6.6704   595.3    3.668      50.722
2015    1        8    23  31    6.6676   595.2    3.667      50.699
2015    1        8    23  36    6.6647   595.1    3.666      50.676
2015    1        8    23  41    6.6618   595.0    3.665      50.654
2015    1        8    23  46    6.6588   594.9    3.664      50.631
2015    1        8    23  50    6.6559   594.8    3.663      50.609
2015    1        8    23  55    6.6529   594.7    3.663      50.586
2015    1        9     0   0    6.6500   594.6    3.662      50.562
2015    1        9     0   5    6.6470   594.5    3.661      50.538
2015    1        9     0  10    6.6441   594.4    3.661      50.514
2015    1        9     0  15    6.6411   594.3    3.660      50.489
2015    1        9     0  20    6.6382   594.2    3.659      50.465
2015    1        9     0  25    6.6352   594.1    3.659      50.440
2015    1        9     0  30    6.6323   594.0    3.658      50.416
2015    1        9     0  35    6.6293   593.9    3.658      50.391
2015    1        9     0  40    6.6264   593.8    3.658      50.367
2015    1        9     0  44    6.6235   593.7    3.657      50.342
2015    1        9     0  49    6.6205   593.6    3.657      50.318
2015    1        9     0  54    6.6176   593.5    3.656      50.294
2015    1        9     0  59    6.6146   593.4    3.656      50.269
2015    1        9     1   4    6.6117   593.3    3.656      50.243
2015    1        9     1   9    6.6087   593.2    3.655      50.218
2015    1        9     1  14    6.6057   593.1    3.655      50.191
2015    1        9     1  19    6.6027   593.0    3.655      50.163
2015    1        9     1  24    6.5997   592.8    3.654      50.135
2015    1        9     1  29    6.5967   592.7    3.654      50.106
2015    1        9     1  34    6.5937   592.6    3.653      50.076
2015    1        9     1  39    6.5907   592.5    3.652      50.046
2015    1        9     1  43    6.5878   592.4    3.652      50.015
2015    1        9     1  48    6.5848   592.3    3.651      49.983
2015    1        9     1  53    6.5818   592.1    3.650      49.951
2015    1        9     1  58    6.5788   592.0    3.650      49.918
2015    1        9     2   3    6.5759   591.9    3.649      49.885
2015    1        9     2   8    6.5729   591.8    3.648      49.851
2015    1        9     2  13    6.5700   591.6    3.648      49.817
2015    1        9     2  18    6.5671   591.5    3.647      49.782
2015    1        9     2  23    6.5643   591.4    3.646      49.747
2015    1        9     2  28    6.5614   591.3    3.646      49.712
2015    1        9     2  33    6.5586   591.1    3.645      49.677
2015    1        9     2  38    6.5558   591.0    3.644      49.642
2015    1        9     2  42    6.5530   590.8    3.644      49.606
2015    1        9     2  47    6.5503   590.7    3.643      49.571
2015    1        9     2  52    6.5476   590.6    3.643      49.535
2015    1        9     2  57    6.5449   590.4    3.643      49.499
2015    1        9     3   2    6.5423   590.3    3.642      49.464
2015    1        9     3   7    6.5397   590.1    3.642      49.429
2015    1        9     3  12    6.5371   590.0    3.642      49.394
2015    1        9     3  17    6.5346   589.8    3.642      49.359
2015    1        9     3  22    6.5321   589.7    3.642      49.325
2015    1        9     3  27    6.5297   589.5    3.642      49.291
2015    1        9     3  32    6.5274   589.4    3.642      49.259
2015    1        9     3  37    6.5251   589.2    3.642      49.227
2015    1        9     3  41    6.5229   589.0    3.643      49.195
2015    1        9     3  46    6.5208   588.9    3.644      49.165
2015    1        9     3  51    6.5188   588.7    3.644      49.136
2015    1        9     3  56    6.5168   588.6    3.645      49.110
2015    1        9     4   1    6.5149   588.4    3.646      49.084
2015    1        9     4   6    6.5130   588.3    3.647      49.060
2015    1        9     4  11    6.5112   588.1    3.648      49.038
2015    1        9     4  16    6.5094   588.0    3.649      49.016
2015    1        9     4  21    6.5076   587.9    3.650      48.993
2015    1        9     4  26    6.5058   587.7    3.651      48.971
2015    1        9     4  31    6.5041   587.6    3.651      48.948
2015    1        9     4  36    6.5023   587.4    3.652      48.925
2015    1        9     4  41    6.5006   587.3    3.653      48.901
2015    1        9     4  45    6.4989   587.1    3.653      48.878
2015    1        9     4  50    6.4973   587.0    3.654      48.855
2015    1        9     4  55    6.4956   586.9    3.655      48.832
2015    1        9     5   0    6.4940   586.7    3.655      48.809
2015    1        9     5   5    6.4924   586.6    3.655      48.786
2015    1        9     5  10    6.4907   586.4    3.656      48.763
2015    1        9     5  15    6.4891   586.3    3.656      48.740
2015    1        9     5  20    6.4874   586.2    3.656      48.717
2015    1        9     5  25    6.4858   586.0    3.656      48.692
2015    1        9     5  30    6.4841   585.9    3.656      48.668
2015    1        9     5  35    6.4823   585.8    3.656      48.643
2015    1        9     5  40    6.4805   585.7    3.656      48.617
2015    1        9     5  45    6.4787   585.5    3.655      48.591
2015    1        9     5  49    6.4768   585.4    3.655      48.564
2015    1        9     5  54    6.4749   585.3    3.654      48.536
2015    1        9     5  59    6.4730   585.2    3.653      48.508
2015    1        9     6   4    6.4710   585.0    3.652      48.478
2015    1        9     6   9    6.4690   584.9    3.651      48.447
2015    1        9     6  14    6.4670   584.8    3.650      48.415
2015    1        9     6  19    6.4649   584.7    3.649      48.383
2015    1        9     6  24    6.4628   584.5    3.648      48.349
2015    1        9     6  29    6.4607   584.4    3.647      48.315
2015    1        9     6  34    6.4585   584.3    3.645      48.280
2015    1        9     6  39    6.4563   584.1    3.644      48.244
2015    1        9     6  44    6.4541   584.0    3.643      48.208
2015    1        9     6  49    6.4519   583.9    3.641      48.170
2015    1        9     6  53    6.4497   583.7    3.640      48.133
2015    1        9     6  58    6.4475   583.6    3.638      48.095
2015    1        9     7   3    6.4452   583.4    3.636      48.056
2015    1        9     7   8    6.4430   583.3    3.635      48.017
2015    1        9     7  13    6.4408   583.1    3.633      47.977
2015    1        9     7  18    6.4385   583.0    3.631      47.937
2015    1        9     7  23    6.4363   582.9    3.629      47.897
2015    1        9     7  28    6.4340   582.7    3.628      47.856
2015    1        9     7  33    6.4317   582.6    3.626      47.815
2015    1        9     7  38    6.4295   582.4    3.624      47.773
2015    1        9     7  43    6.4272   582.3    3.622      47.732
2015    1        9     7  47    6.4249   582.1    3.620      47.690
2015    1        9     7  52    6.4226   581.9    3.619      47.648
2015    1        9     7  57    6.4203   581.8    3.617      47.605
2015    1        9     8   2    6.4181   581.6    3.615      47.562
2015    1        9     8   7    6.4158   581.5    3.613      47.519
2015    1        9     8  12    6.4135   581.3    3.611      47.476
2015    1        9     8  17    6.4112   581.1    3.609      47.432
2015    1        9     8  22    6.4089   581.0    3.608      47.388
2015    1        9     8  27    6.4066   580.8    3.606      47.344
2015    1        9     8  32    6.4043   580.6    3.604      47.300
2015    1        9     8  37    6.4020   580.5    3.602      47.256
2015    1        9     8  42    6.3997   580.3    3.601      47.212
2015    1        9     8  46    6.3974   580.1    3.599      47.167
2015    1        9     8  51    6.3952   579.9    3.597      47.123
2015    1        9     8  56    6.3929   579.8    3.596      47.079
2015    1        9     9   1    6.3907   579.6    3.594      47.035
2015    1        9     9   6    6.3884   579.4    3.593      46.990
2015    1        9     9  11    6.3862   579.2    3.591      46.946
2015    1        9     9  16    6.3840   579.1    3.590      46.902
2015    1        9     9  21    6.3818   578.9    3.588      46.858
2015    1        9     9  26    6.3796   578.7    3.587      46.813
2015    1        9     9  31    6.3775   578.5    3.586      46.770
2015    1        9     9  36    6.3753   578.4    3.585      46.726
2015    1        9     9  41    6.3732   578.2    3.584      46.682
2015    1        9     9  45    6.3711   578.0    3.582      46.639
2015    1        9     9  50    6.3690   577.8    3.581      46.596
2015    1        9     9  55    6.3669   577.6    3.581      46.553
2015    1        9    10   0    6.3648   577.4    3.580      46.510
2015    1        9    10   5    6.3627   577.3    3.579      46.468
2015    1        9    10  10    6.3607   577.1    3.578      46.425
2015    1        9    10  15    6.3586   576.9    3.577      46.383
2015    1        9    10  20    6.3566   576.7    3.577      46.341
2015    1        9    10  25    6.3546   576.5    3.576      46.300
2015    1        9    10  30    6.3526   576.3    3.576      46.259
2015    1        9    10  35    6.3506   576.1    3.576      46.218
2015    1        9    10  40    6.3486   575.9    3.575      46.177
2015    1        9    10  44    6.3466   575.7    3.575      46.137
2015    1        9    10  49    6.3446   575.5    3.575      46.097
2015    1        9    10  54    6.3427   575.3    3.575      46.058
2015    1        9    10  59    6.3408   575.1    3.575      46.020
2015    1        9    11   4    6.3389   574.9    3.576      45.982
2015    1        9    11   9    6.3370   574.7    3.576      45.944
2015    1        9    11  14    6.3352   574.5    3.577      45.908
2015    1        9    11  19    6.3334   574.3    3.578      45.873
2015    1        9    11  24    6.3317   574.1    3.579      45.840
2015    1        9    11  29    6.3300   573.8    3.580      45.807
2015    1        9    11  34    6.3284   573.6    3.581      45.775
2015    1        9    11  39    6.3269   573.4    3.583      45.746
2015    1        9    11  43    6.3255   573.2    3.585      45.719
2015    1        9    11  48    6.3240   573.0    3.587      45.695
2015    1        9    11  53    6.3227   572.8    3.589      45.672
2015    1        9    11  58    6.3214   572.6    3.591      45.652
2015    1        9    12   3    6.3201   572.4    3.594      45.634
2015    1        9    12   8    6.3188   572.2    3.596      45.616
2015    1        9    12  13    6.3175   572.1    3.598      45.599
2015    1        9    12  18    6.3163   571.9    3.601      45.581
2015    1        9    12  23    6.3150   571.7    3.603      45.564
2015    1        9    12  28    6.3137   571.5    3.606      45.547
2015    1        9    12  33    6.3124   571.3    3.608      45.530
2015    1        9    12  38    6.3111   571.1    3.611      45.513
2015    1        9    12  43    6.3097   571.0    3.613      45.495
2015    1        9    12  47    6.3084   570.8    3.615      45.478
2015    1        9    12  52    6.3070   570.6    3.618      45.460
2015    1        9    12  57    6.3057   570.4    3.620      45.441
2015    1        9    13   2    6.3043   570.2    3.622      45.422
2015    1        9    13   7    6.3029   570.0    3.624      45.403
2015    1        9    13  12    6.3015   569.8    3.626      45.384
2015    1        9    13  17    6.3002   569.6    3.629      45.364
2015    1        9    13  22    6.2988   569.4    3.631      45.343
2015    1        9    13  27    6.2974   569.2    3.633      45.322
2015    1        9    13  32    6.2960   569.0    3.635      45.301
2015    1        9    13  37    6.2946   568.8    3.637      45.280
2015    1        9    13  42    6.2932   568.6    3.639      45.258
2015    1        9    13  47    6.2919   568.4    3.641      45.236
2015    1        9    13  51    6.2905   568.2    3.643      45.214
2015    1        9    13  56    6.2891   568.1    3.645      45.191
2015    1        9    14   1    6.2878   567.9    3.646      45.169
2015    1        9    14   6    6.2864   567.7    3.648      45.147
2015    1        9    14  11    6.2850   567.5    3.650      45.125
2015    1        9    14  16    6.2836   567.3    3.652      45.103
2015    1        9    14  21    6.2823   567.1    3.654      45.080
2015    1        9    14  26    6.2809   566.9    3.655      45.057
2015    1        9    14  31    6.2795   566.7    3.657      45.033
2015    1        9    14  36    6.2781   566.5    3.658      45.010
2015    1        9    14  41    6.2767   566.3    3.660      44.986
2015    1        9    14  46    6.2754   566.1    3.661      44.961
2015    1        9    14  50    6.2740   565.9    3.663      44.937
2015    1        9    14  55    6.2726   565.7    3.664      44.911
2015    1        9    15   0    6.2713   565.5    3.666      44.886
2015    1        9    15   5    6.2699   565.3    3.667      44.860
2015    1        9    15  10    6.2685   565.1    3.668      44.833
2015    1        9    15  15    6.2671   564.9    3.670      44.807
2015    1        9    15  20    6.2658   564.7    3.671      44.780
2015    1        9    15  25    6.2644   564.5    3.672      44.753
2015    1        9    15  30    6.2630   564.3    3.673      44.726
2015    1        9    15  35    6.2616   564.1    3.674      44.700
2015    1        9    15  40    6.2603   563.9    3.675      44.673
2015    1        9    15  45    6.2589   563.7    3.676      44.647
2015    1        9    15  49    6.2575   563.5    3.676      44.620
2015    1        9    15  54    6.2561   563.4    3.677      44.594
2015    1        9    15  59    6.2547   563.2    3.678      44.567
2015    1        9    16   4    6.2532   563.0    3.678      44.541
2015    1        9    16   9    6.2518   562.8    3.679      44.513
2015    1        9    16  14    6.2504   562.6    3.679      44.486
2015    1        9    16  19    6.2490   562.4    3.679      44.458
2015    1        9    16  24    6.2476   562.2    3.679      44.430
2015    1        9    16  29    6.2462   562.0    3.680      44.402
2015    1        9    16  34    6.2447   561.8    3.680      44.373
2015    1        9    16  39    6.2434   561.6    3.680      44.344
2015    1        9    16  43    6.2420   561.4    3.680      44.315
2015    1        9    16  48    6.2406   561.2    3.680      44.285
2015    1        9    16  53    6.2392   561.0    3.680      44.255
2015    1        9    16  58    6.2378   560.8    3.679      44.224
2015    1        9    17   3    6.2364   560.6    3.679      44.193
2015    1        9    17   8    6.2351   560.4    3.679      44.162
2015    1        9    17  13    6.2337   560.2    3.679      44.130
2015    1        9    17  18    6.2324   560.0    3.678      44.098
2015    1        9    17  23    6.2311   559.8    3.678      44.065
2015    1        9    17  28    6.2298   559.6    3.678      44.032
2015    1        9    17  33    6.2286   559.4    3.677      43.999
2015    1        9    17  38    6.2273   559.2    3.677      43.965
2015    1        9    17  42    6.2260   559.0    3.676      43.931
2015    1        9    17  47    6.2248   558.8    3.676      43.897
2015    1        9    17  52    6.2236   558.6    3.675      43.862
2015    1        9    17  57    6.2224   558.4    3.675      43.826
2015    1        9    18   2    6.2212   558.2    3.674      43.791
2015    1        9    18   7    6.2200   558.0    3.674      43.755
2015    1        9    18  12    6.2189   557.7    3.673      43.718
2015    1        9    18  17    6.2177   557.5    3.673      43.681
2015    1        9    18  22    6.2166   557.3    3.672      43.645
2015    1        9    18  27    6.2155   557.1    3.672      43.607
2015    1        9    18  32    6.2144   556.9    3.671      43.570
2015    1        9    18  37    6.2133   556.7    3.671      43.532
2015    1        9    18  41    6.2123   556.5    3.670      43.495
2015    1        9    18  46    6.2112   556.2    3.670      43.457
2015    1        9    18  51    6.2102   556.0    3.670      43.419
2015    1        9    18  56    6.2092   555.8    3.669      43.382
2015    1        9    19   1    6.2082   555.6    3.669      43.344
2015    1        9    19   6    6.2072   555.4    3.669      43.306
2015    1        9    19  11    6.2063   555.1    3.669      43.269
2015    1        9    19  16    6.2053   554.9    3.669      43.232
2015    1        9    19  21    6.2044   554.7    3.669      43.195
2015    1        9    19  26    6.2035   554.5    3.669      43.158
2015    1        9    19  31    6.2026   554.3    3.669      43.122
2015    1        9    19  36    6.2017   554.0    3.669      43.085
2015    1        9    19  41    6.2008   553.8    3.669      43.050
2015    1        9    19  45    6.1999   553.6    3.670      43.014
2015    1        9    19  50    6.1990   553.4    3.670      42.979
2015    1        9    19  55    6.1980   553.1    3.671      42.943
2015    1        9    20   0    6.1970   552.9    3.671      42.908
2015    1        9    20   5    6.1960   552.7    3.672      42.874
2015    1        9    20  10    6.1950   552.5    3.673      42.839
2015    1        9    20  15    6.1939   552.2    3.673      42.805
2015    1        9    20  20    6.1928   552.0    3.674      42.770
2015    1        9    20  25    6.1917   551.8    3.675      42.736
2015    1        9    20  30    6.1905   551.5    3.676      42.701
2015    1        9    20  35    6.1893   551.3    3.677      42.667
2015    1        9    20  40    6.1881   551.1    3.678      42.632
2015    1        9    20  45    6.1868   550.8    3.679      42.597
2015    1        9    20  49    6.1856   550.6    3.680      42.563
2015    1        9    20  54    6.1843   550.3    3.681      42.528
2015    1        9    20  59    6.1831   550.1    3.682      42.492
2015    1        9    21   4    6.1818   549.9    3.683      42.457
2015    1        9    21   9    6.1805   549.6    3.684      42.422
2015    1        9    21  14    6.1792   549.3    3.685      42.386
2015    1        9    21  19    6.1779   549.1    3.687      42.350
2015    1        9    21  24    6.1767   548.8    3.688      42.314
2015    1        9    21  29    6.1754   548.6    3.689      42.279
2015    1        9    21  34    6.1742   548.3    3.691      42.243
2015    1        9    21  39    6.1730   548.0    3.692      42.207
2015    1        9    21  44    6.1719   547.8    3.694      42.172
2015    1        9    21  48    6.1708   547.5    3.695      42.136
2015    1        9    21  53    6.1698   547.2    3.697      42.102
2015    1        9    21  58    6.1688   547.0    3.699      42.068
2015    1        9    22   3    6.1678   546.7    3.701      42.034
2015    1        9    22   8    6.1670   546.4    3.703      42.002
2015    1        9    22  13    6.1662   546.1    3.705      41.971
2015    1        9    22  18    6.1655   545.9    3.708      41.941
2015    1        9    22  23    6.1649   545.6    3.710      41.913
2015    1        9    22  28    6.1643   545.3    3.713      41.887
2015    1        9    22  33    6.1638   545.1    3.716      41.863
2015    1        9    22  38    6.1633   544.8    3.719      41.840
2015    1        9    22  43    6.1629   544.5    3.722      41.817
2015    1        9    22  47    6.1625   544.3    3.725      41.795
2015    1        9    22  52    6.1622   544.0    3.728      41.775
2015    1        9    22  57    6.1620   543.8    3.732      41.755
2015    1        9    23   2    6.1618   543.5    3.735      41.736
2015    1        9    23   7    6.1617   543.2    3.739      41.718
2015    1        9    23  12    6.1616   543.0    3.743      41.702
2015    1        9    23  17    6.1616   542.7    3.747      41.686
2015    1        9    23  22    6.1617   542.5    3.751      41.672
2015    1        9    23  27    6.1619   542.2    3.755      41.658
2015    1        9    23  32    6.1621   541.9    3.759      41.647
2015    1        9    23  37    6.1623   541.7    3.764      41.636
2015    1        9    23  41    6.1626   541.4    3.768      41.625
2015    1        9    23  46    6.1630   541.2    3.773      41.616
2015    1        9    23  51    6.1634   540.9    3.777      41.606
2015    1        9    23  56    6.1638   540.7    3.782      41.597
2015    1       10     0   1    6.1643   540.5    3.787      41.588
2015    1       10     0   6    6.1648   540.2    3.792      41.579
2015    1       10     0  11    6.1654   540.0    3.796      41.571
2015    1       10     0  16    6.1660   539.7    3.801      41.562
2015    1       10     0  21    6.1666   539.5    3.806      41.554
2015    1       10     0  26    6.1672   539.2    3.811      41.545
2015    1       10     0  31    6.1679   539.0    3.816      41.536
2015    1       10     0  36    6.1686   538.7    3.821      41.527
2015    1       10     0  40    6.1693   538.5    3.826      41.517
2015    1       10     0  45    6.1700   538.2    3.831      41.507
2015    1       10     0  50    6.1708   538.0    3.835      41.496
2015    1       10     0  55    6.1715   537.7    3.840      41.486
2015    1       10     1   0    6.1723   537.5    3.845      41.476
2015    1       10     1   5    6.1731   537.2    3.849      41.465
2015    1       10     1  10    6.1740   537.0    3.853      41.455
2015    1       10     1  15    6.1748   536.7    3.858      41.444
2015    1       10     1  20    6.1757   536.5    3.862      41.434
2015    1       10     1  25    6.1765   536.2    3.866      41.422
2015    1       10     1  30    6.1774   536.0    3.870      41.410
2015    1       10     1  35    6.1783   535.8    3.874      41.397
2015    1       10     1  39    6.1793   535.5    3.878      41.384
2015    1       10     1  44    6.1802   535.3    3.882      41.370
2015    1       10     1  49    6.1812   535.0    3.885      41.355
2015    1       10     1  54    6.1822   534.8    3.889      41.340
2015    1       10     1  59    6.1832   534.5    3.892      41.325
2015    1       10     2   4    6.1842   534.3    3.896      41.309
2015    1       10     2   9    6.1853   534.0    3.899      41.293
2015    1       10     2  14    6.1864   533.8    3.902      41.276
2015    1       10     2  19    6.1875   533.6    3.905      41.259
2015    1       10     2  24    6.1886   533.3    3.908      41.242
2015    1       10     2  29    6.1898   533.1    3.911      41.224
2015    1       10     2  34    6.1910   532.8    3.914      41.206
2015    1       10     2  38    6.1922   532.6    3.917      41.188
2015    1       10     2  43    6.1934   532.4    3.920      41.170
2015    1       10     2  48    6.1946   532.1    3.923      41.151
2015    1       10     2  53    6.1959   531.9    3.926      41.132
2015    1       10     2  58    6.1972   531.6    3.928      41.113
2015    1       10     3   3    6.1985   531.4    3.931      41.093
2015    1       10     3   8    6.1998   531.2    3.933      41.074
2015    1       10     3  13    6.2011   530.9    3.936      41.054
2015    1       10     3  18    6.2025   530.7    3.938      41.034
2015    1       10     3  23    6.2038   530.5    3.940      41.013
2015    1       10     3  28    6.2052   530.2    3.943      40.992
2015    1       10     3  33    6.2066   530.0    3.945      40.972
2015    1       10     3  38    6.2081   529.7    3.947      40.950
2015    1       10     3  42    6.2095   529.5    3.949      40.929
2015    1       10     3  47    6.2110   529.3    3.951      40.907
2015    1       10     3  52    6.2124   529.0    3.953      40.885
2015    1       10     3  57    6.2140   528.8    3.955      40.863
2015    1       10     4   2    6.2155   528.6    3.957      40.840
2015    1       10     4   7    6.2171   528.3    3.959      40.818
2015    1       10     4  12    6.2186   528.1    3.961      40.795
2015    1       10     4  17    6.2203   527.8    3.963      40.771
2015    1       10     4  22    6.2219   527.6    3.965      40.748
2015    1       10     4  27    6.2236   527.4    3.967      40.725
2015    1       10     4  32    6.2253   527.1    3.969      40.702
2015    1       10     4  37    6.2270   526.9    3.971      40.679
2015    1       10     4  42    6.2288   526.6    3.973      40.656
2015    1       10     4  46    6.2306   526.4    3.975      40.633
2015    1       10     4  51    6.2324   526.2    3.978      40.611
2015    1       10     4  56    6.2344   525.9    3.980      40.589
2015    1       10     5   1    6.2363   525.7    3.982      40.568
2015    1       10     5   6    6.2383   525.5    3.985      40.547
2015    1       10     5  11    6.2403   525.2    3.987      40.527
2015    1       10     5  16    6.2423   525.0    3.990      40.508
2015    1       10     5  21    6.2444   524.8    3.992      40.489
2015    1       10     5  26    6.2466   524.6    3.995      40.472
2015    1       10     5  31    6.2487   524.3    3.998      40.455
2015    1       10     5  36    6.2509   524.1    4.001      40.439
2015    1       10     5  40    6.2532   523.9    4.004      40.424
2015    1       10     5  45    6.2555   523.7    4.008      40.410
2015    1       10     5  50    6.2578   523.5    4.011      40.397
2015    1       10     5  55    6.2601   523.2    4.015      40.385
2015    1       10     6   0    6.2625   523.0    4.019      40.374
2015    1       10     6   5    6.2649   522.8    4.023      40.364
2015    1       10     6  10    6.2673   522.6    4.027      40.355
2015    1       10     6  15    6.2697   522.4    4.031      40.347
2015    1       10     6  20    6.2722   522.2    4.035      40.340
2015    1       10     6  25    6.2747   522.0    4.039      40.333
2015    1       10     6  30    6.2771   521.8    4.044      40.328
2015    1       10     6  35    6.2797   521.6    4.049      40.323
2015    1       10     6  39    6.2822   521.4    4.053      40.319
2015    1       10     6  44    6.2847   521.2    4.058      40.315
2015    1       10     6  49    6.2873   521.0    4.063      40.313
2015    1       10     6  54    6.2899   520.8    4.068      40.311
2015    1       10     6  59    6.2924   520.6    4.073      40.309
2015    1       10     7   4    6.2950   520.4    4.079      40.308
2015    1       10     7   9    6.2977   520.2    4.084      40.308
2015    1       10     7  14    6.3003   520.0    4.090      40.309
2015    1       10     7  19    6.3029   519.8    4.095      40.310
2015    1       10     7  24    6.3056   519.6    4.101      40.312
2015    1       10     7  29    6.3083   519.4    4.107      40.314
2015    1       10     7  34    6.3110   519.2    4.113      40.317
2015    1       10     7  38    6.3137   519.0    4.119      40.321
2015    1       10     7  43    6.3164   518.8    4.124      40.325
2015    1       10     7  48    6.3192   518.6    4.130      40.330
2015    1       10     7  53    6.3221   518.4    4.137      40.335
2015    1       10     7  58    6.3249   518.2    4.143      40.341
2015    1       10     8   3    6.3278   518.0    4.149      40.347
2015    1       10     8   8    6.3307   517.9    4.155      40.353
2015    1       10     8  13    6.3337   517.7    4.161      40.359
2015    1       10     8  18    6.3367   517.5    4.168      40.366
2015    1       10     8  23    6.3397   517.3    4.174      40.372
2015    1       10     8  28    6.3428   517.1    4.180      40.379
2015    1       10     8  33    6.3459   517.0    4.187      40.386
2015    1       10     8  37    6.3491   516.8    4.193      40.394
2015    1       10     8  42    6.3523   516.6    4.200      40.401
2015    1       10     8  47    6.3555   516.4    4.207      40.408
2015    1       10     8  52    6.3588   516.3    4.213      40.416
2015    1       10     8  57    6.3621   516.1    4.220      40.424
2015    1       10     9   2    6.3654   515.9    4.227      40.432
2015    1       10     9   7    6.3688   515.8    4.234      40.440
2015    1       10     9  12    6.3722   515.6    4.241      40.449
2015    1       10     9  17    6.3755   515.4    4.248      40.457
2015    1       10     9  22    6.3790   515.3    4.255      40.467
2015    1       10     9  27    6.3824   515.1    4.262      40.477
2015    1       10     9  31    6.3859   515.0    4.269      40.488
2015    1       10     9  36    6.3893   514.8    4.276      40.500
2015    1       10     9  41    6.3928   514.7    4.282      40.513
2015    1       10     9  46    6.3963   514.5    4.289      40.528
2015    1       10     9  51    6.3998   514.4    4.296      40.543
2015    1       10     9  56    6.4033   514.2    4.302      40.560
2015    1       10    10   1    6.4068   514.1    4.308      40.578
2015    1       10    10   6    6.4103   513.9    4.315      40.596
2015    1       10    10  11    6.4138   513.8    4.321      40.615
2015    1       10    10  16    6.4173   513.6    4.327      40.635
2015    1       10    10  21    6.4208   513.5    4.332      40.654
2015    1       10    10  26    6.4242   513.4    4.338      40.674
2015    1       10    10  31    6.4277   513.2    4.344      40.693
2015    1       10    10  35    6.4312   513.1    4.349      40.713
2015    1       10    10  40    6.4347   513.0    4.354      40.731
2015    1       10    10  45    6.4381   512.8    4.359      40.750
2015    1       10    10  50    6.4416   512.7    4.364      40.769
2015    1       10    10  55    6.4450   512.6    4.369      40.787
2015    1       10    11   0    6.4484   512.5    4.374      40.805
2015    1       10    11   5    6.4519   512.3    4.378      40.822
2015    1       10    11  10    6.4553   512.2    4.383      40.839
2015    1       10    11  15    6.4587   512.1    4.387      40.856
2015    1       10    11  20    6.4621   512.0    4.391      40.872
2015    1       10    11  25    6.4655   511.8    4.395      40.887
2015    1       10    11  30    6.4690   511.7    4.399      40.901
2015    1       10    11  35    6.4723   511.6    4.403      40.916
2015    1       10    11  39    6.4757   511.5    4.407      40.929
2015    1       10    11  44    6.4791   511.4    4.411      40.942
2015    1       10    11  49    6.4825   511.2    4.414      40.954
2015    1       10    11  54    6.4859   511.1    4.418      40.966
2015    1       10    11  59    6.4893   511.0    4.421      40.977
2015    1       10    12   4    6.4927   510.9    4.424      40.987
2015    1       10    12   9    6.4960   510.8    4.428      40.998
2015    1       10    12  14    6.4994   510.7    4.431      41.007
2015    1       10    12  19    6.5028   510.6    4.434      41.016
2015    1       10    12  24    6.5061   510.4    4.437      41.025
2015    1       10    12  29    6.5095   510.3    4.440      41.033
2015    1       10    12  33    6.5129   510.2    4.443      41.041
2015    1       10    12  38    6.5162   510.1    4.445      41.048
2015    1       10    12  43    6.5195   510.0    4.448      41.054
2015    1       10    12  48    6.5229   509.9    4.451      41.061
2015    1       10    12  53    6.5262   509.8    4.454      41.067
2015    1       10    12  58    6.5295   509.7    4.456      41.072
2015    1       10    13   3    6.5328   509.6    4.459      41.077
2015    1       10    13   8    6.5362   509.4    4.461      41.082
2015    1       10    13  13    6.5395   509.3    4.464      41.086
2015    1       10    13  18    6.5428   509.2    4.466      41.090
2015    1       10    13  23    6.5461   509.1    4.469      41.094
2015    1       10    13  28    6.5494   509.0    4.471      41.097
2015    1       10    13  32    6.5527   508.9    4.473      41.100
2015    1       10    13  37    6.5560   508.8    4.476      41.103
2015    1       10    13  42    6.5592   508.7    4.478      41.106
2015    1       10    13  47    6.5625   508.6    4.481      41.109
2015    1       10    13  52    6.5658   508.5    4.483      41.111
2015    1       10    13  57    6.5691   508.4    4.486      41.114
2015    1       10    14   2    6.5724   508.2    4.488      41.117
2015    1       10    14   7    6.5757   508.1    4.491      41.119
2015    1       10    14  12    6.5789   508.0    4.493      41.122
2015    1       10    14  17    6.5822   507.9    4.496      41.124
2015    1       10    14  22    6.5855   507.8    4.498      41.128
2015    1       10    14  27    6.5888   507.7    4.501      41.131
2015    1       10    14  31    6.5922   507.6    4.504      41.135
2015    1       10    14  36    6.5955   507.5    4.507      41.139
2015    1       10    14  41    6.5988   507.4    4.510      41.143
2015    1       10    14  46    6.6022   507.3    4.513      41.148
2015    1       10    14  51    6.6056   507.2    4.517      41.154
2015    1       10    14  56    6.6090   507.1    4.520      41.160
2015    1       10    15   1    6.6124   507.0    4.524      41.167
2015    1       10    15   6    6.6159   506.9    4.527      41.175
2015    1       10    15  11    6.6194   506.8    4.531      41.184
2015    1       10    15  16    6.6229   506.7    4.535      41.193
2015    1       10    15  21    6.6264   506.6    4.539      41.203
2015    1       10    15  25    6.6299   506.5    4.544      41.214
2015    1       10    15  30    6.6335   506.4    4.548      41.226
2015    1       10    15  35    6.6371   506.3    4.553      41.239
2015    1       10    15  40    6.6407   506.2    4.558      41.253
2015    1       10    15  45    6.6443   506.1    4.563      41.267
2015    1       10    15  50    6.6479   506.1    4.568      41.283
2015    1       10    15  55    6.6515   506.0    4.573      41.299
2015    1       10    16   0    6.6551   505.9    4.579      41.316
2015    1       10    16   5    6.6587   505.8    4.584      41.334
2015    1       10    16  10    6.6623   505.8    4.590      41.353
2015    1       10    16  15    6.6658   505.7    4.596      41.373
2015    1       10    16  20    6.6693   505.6    4.602      41.395
2015    1       10    16  24    6.6728   505.5    4.608      41.418
2015    1       10    16  29    6.6763   505.5    4.614      41.442
2015    1       10    16  34    6.6797   505.4    4.619      41.469
2015    1       10    16  39    6.6831   505.4    4.625      41.496
2015    1       10    16  44    6.6865   505.3    4.631      41.526
2015    1       10    16  49    6.6898   505.2    4.637      41.556
2015    1       10    16  54    6.6931   505.2    4.643      41.588
2015    1       10    16  59    6.6963   505.1    4.648      41.621
2015    1       10    17   4    6.6995   505.1    4.654      41.655
2015    1       10    17   9    6.7027   505.0    4.659      41.690
2015    1       10    17  14    6.7058   504.9    4.664      41.724
2015    1       10    17  19    6.7090   504.9    4.669      41.760
2015    1       10    17  23    6.7120   504.8    4.674      41.795
2015    1       10    17  28    6.7151   504.8    4.679      41.829
2015    1       10    17  33    6.7181   504.7    4.684      41.863
2015    1       10    17  38    6.7211   504.6    4.689      41.897
2015    1       10    17  43    6.7241   504.6    4.693      41.930
2015    1       10    17  48    6.7271   504.5    4.698      41.963
2015    1       10    17  53    6.7300   504.5    4.702      41.995
2015    1       10    17  58    6.7329   504.4    4.706      42.027
2015    1       10    18   3    6.7358   504.3    4.711      42.058
2015    1       10    18   8    6.7387   504.3    4.715      42.088
2015    1       10    18  13    6.7416   504.2    4.719      42.118
2015    1       10    18  18    6.7444   504.2    4.723      42.147
2015    1       10    18  23    6.7473   504.1    4.726      42.176
2015    1       10    18  27    6.7501   504.1    4.730      42.204
2015    1       10    18  32    6.7529   504.0    4.734      42.232
2015    1       10    18  37    6.7557   504.0    4.737      42.259
2015    1       10    18  42    6.7584   503.9    4.741      42.286
2015    1       10    18  47    6.7612   503.8    4.744      42.312
2015    1       10    18  52    6.7640   503.8    4.747      42.338
2015    1       10    18  57    6.7667   503.7    4.751      42.363
2015    1       10    19   2    6.7695   503.7    4.754      42.388
2015    1       10    19   7    6.7722   503.6    4.757      42.413
2015    1       10    19  12    6.7749   503.6    4.760      42.437
2015    1       10    19  17    6.7777   503.5    4.762      42.460
2015    1       10    19  22    6.7804   503.5    4.765      42.483
2015    1       10    19  26    6.7831   503.4    4.768      42.506
2015    1       10    19  31    6.7858   503.4    4.771      42.528
2015    1       10    19  36    6.7885   503.3    4.773      42.550
2015    1       10    19  41    6.7912   503.3    4.776      42.572
2015    1       10    19  46    6.7939   503.2    4.778      42.593
2015    1       10    19  51    6.7967   503.2    4.781      42.614
2015    1       10    19  56    6.7994   503.1    4.783      42.634
2015    1       10    20   1    6.8021   503.1    4.785      42.654
2015    1       10    20   6    6.8048   503.0    4.788      42.674
2015    1       10    20  11    6.8075   503.0    4.790      42.693
2015    1       10    20  16    6.8102   502.9    4.792      42.712
2015    1       10    20  21    6.8130   502.9    4.794      42.731
2015    1       10    20  25    6.8157   502.8    4.797      42.750
2015    1       10    20  30    6.8184   502.8    4.799      42.768
2015    1       10    20  35    6.8212   502.7    4.801      42.786
2015    1       10    20  40    6.8239   502.7    4.803      42.804
2015    1       10    20  45    6.8267   502.6    4.805      42.822
2015    1       10    20  50    6.8294   502.6    4.807      42.840
2015    1       10    20  55    6.8322   502.5    4.809      42.857
2015    1       10    21   0    6.8349   502.5    4.811      42.875
2015    1       10    21   5    6.8377   502.4    4.813      42.892
2015    1       10    21  10    6.8405   502.4    4.815      42.909
2015    1       10    21  15    6.8433   502.3    4.817      42.926
2015    1       10    21  19    6.8460   502.3    4.819      42.943
2015    1       10    21  24    6.8488   502.3    4.821      42.961
2015    1       10    21  29    6.8517   502.2    4.823      42.978
2015    1       10    21  34    6.8545   502.2    4.825      42.995
2015    1       10    21  39    6.8573   502.1    4.827      43.012
2015    1       10    21  44    6.8601   502.1    4.829      43.029
2015    1       10    21  49    6.8630   502.0    4.831      43.047
2015    1       10    21  54    6.8658   502.0    4.833      43.065
2015    1       10    21  59    6.8687   502.0    4.835      43.082
2015    1       10    22   4    6.8716   501.9    4.837      43.100
2015    1       10    22   9    6.8744   501.9    4.840      43.118
2015    1       10    22  14    6.8773   501.8    4.842      43.137
2015    1       10    22  18    6.8802   501.8    4.844      43.156
2015    1       10    22  23    6.8831   501.8    4.846      43.175
2015    1       10    22  28    6.8860   501.7    4.848      43.194
2015    1       10    22  33    6.8888   501.7    4.851      43.213
2015    1       10    22  38    6.8917   501.7    4.853      43.233
2015    1       10    22  43    6.8945   501.6    4.856      43.253
2015    1       10    22  48    6.8973   501.6    4.858      43.273
2015    1       10    22  53    6.9001   501.6    4.860      43.294
2015    1       10    22  58    6.9028   501.5    4.863      43.315
2015    1       10    23   3    6.9055   501.5    4.865      43.337
2015    1       10    23   8    6.9082   501.5    4.868      43.359
2015    1       10    23  12    6.9109   501.5    4.870      43.382
2015    1       10    23  17    6.9136   501.4    4.872      43.405
2015    1       10    23  22    6.9162   501.4    4.875      43.429
2015    1       10    23  27    6.9188   501.4    4.877      43.453
2015    1       10    23  32    6.9214   501.4    4.880      43.478
2015    1       10    23  37    6.9239   501.3    4.882      43.503
2015    1       10    23  42    6.9265   501.3    4.884      43.528
2015    1       10    23  47    6.9290   501.3    4.887      43.553
2015    1       10    23  52    6.9315   501.3    4.889      43.579
2015    1       10    23  57    6.9340   501.2    4.891      43.605
2015    1       11     0   2    6.9364   501.2    4.894      43.631
2015    1       11     0   7    6.9389   501.2    4.896      43.657
2015    1       11     0  11    6.9413   501.2    4.898      43.683
2015    1       11     0  16    6.9437   501.1    4.900      43.709
2015    1       11     0  21    6.9462   501.1    4.903      43.735
2015    1       11     0  26    6.9486   501.1    4.905      43.761
2015    1       11     0  31    6.9510   501.1    4.907      43.787
2015    1       11     0  36    6.9534   501.0    4.910      43.813
2015    1       11     0  41    6.9558   501.0    4.912      43.839
2015    1       11     0  46    6.9581   501.0    4.914      43.865
2015    1       11     0  51    6.9605   501.0    4.916      43.892
2015    1       11     0  56    6.9629   500.9    4.918      43.917
2015    1       11     1   1    6.9652   500.9    4.920      43.943
2015    1       11     1   6    6.9676   500.9    4.923      43.969
2015    1       11     1  10    6.9699   500.9    4.925      43.995
2015    1       11     1  15    6.9723   500.9    4.927      44.020
2015    1       11     1  20    6.9746   500.8    4.929      44.046
2015    1       11     1  25    6.9769   500.8    4.931      44.071
2015    1       11     1  30    6.9792   500.8    4.933      44.096
2015    1       11     1  35    6.9816   500.8    4.935      44.121
2015    1       11     1  40    6.9839   500.7    4.937      44.146
2015    1       11     1  45    6.9862   500.7    4.939      44.171
2015    1       11     1  50    6.9885   500.7    4.941      44.196
2015    1       11     1  55    6.9908   500.7    4.943      44.221
2015    1       11     2   0    6.9931   500.7    4.945      44.245
2015    1       11     2   5    6.9954   500.6    4.947      44.270
2015    1       11     2  10    6.9977   500.6    4.949      44.294
2015    1       11     2  14    7.0000   500.6    4.950      44.318
2015    1       11     2  19    7.0022   500.6    4.952      44.343
2015    1       11     2  24    7.0045   500.6    4.954      44.367
2015    1       11     2  29    7.0068   500.5    4.956      44.391
2015    1       11     2  34    7.0091   500.5    4.957      44.414
2015    1       11     2  39    7.0113   500.5    4.959      44.438
2015    1       11     2  44    7.0136   500.5    4.961      44.462
2015    1       11     2  49    7.0158   500.5    4.962      44.486
2015    1       11     2  54    7.0181   500.4    4.964      44.510
2015    1       11     2  59    7.0204   500.4    4.966      44.533
2015    1       11     3   4    7.0226   500.4    4.967      44.557
2015    1       11     3   8    7.0249   500.4    4.969      44.580
2015    1       11     3  13    7.0271   500.4    4.970      44.604
2015    1       11     3  18    7.0294   500.4    4.972      44.627
2015    1       11     3  23    7.0316   500.3    4.974      44.651
2015    1       11     3  28    7.0339   500.3    4.975      44.675
2015    1       11     3  33    7.0361   500.3    4.977      44.698
2015    1       11     3  38    7.0384   500.3    4.978      44.722
2015    1       11     3  43    7.0406   500.3    4.980      44.746
2015    1       11     3  48    7.0429   500.3    4.981      44.769
2015    1       11     3  53    7.0451   500.2    4.983      44.793
2015    1       11     3  58    7.0474   500.2    4.985      44.817
2015    1       11     4   3    7.0496   500.2    4.986      44.841
2015    1       11     4   7    7.0519   500.2    4.988      44.865
2015    1       11     4  12    7.0541   500.2    4.989      44.889
2015    1       11     4  17    7.0564   500.2    4.991      44.913
2015    1       11     4  22    7.0586   500.2    4.992      44.937
2015    1       11     4  27    7.0609   500.1    4.994      44.961
2015    1       11     4  32    7.0631   500.1    4.996      44.985
2015    1       11     4  37    7.0653   500.1    4.997      45.010
2015    1       11     4  42    7.0676   500.1    4.999      45.034
2015    1       11     4  47    7.0698   500.1    5.000      45.059
2015    1       11     4  52    7.0721   500.1    5.002      45.083
2015    1       11     4  57    7.0743   500.1    5.004      45.108
2015    1       11     5   2    7.0765   500.1    5.005      45.133
2015    1       11     5   6    7.0788   500.1    5.007      45.158
2015    1       11     5  11    7.0810   500.0    5.008      45.183
2015    1       11     5  16    7.0832   500.0    5.010      45.208
2015    1       11     5  21    7.0854   500.0    5.012      45.233
2015    1       11     5  26    7.0876   500.0    5.013      45.258
2015    1       11     5  31    7.0898   500.0    5.015      45.283
2015    1       11     5  36    7.0920   500.0    5.017      45.309
2015    1       11     5  41    7.0942   500.0    5.018      45.334
2015    1       11     5  46    7.0964   500.0    5.020      45.359
2015    1       11     5  51    7.0986   500.0    5.021      45.385
2015    1       11     5  56    7.1008   500.0    5.023      45.411
2015    1       11     6   0    7.1030   500.0    5.025      45.437
2015    1       11     6   5    7.1051   500.0    5.026      45.462
2015    1       11     6  10    7.1073   500.0    5.028      45.488
2015    1       11     6  15    7.1095   500.0    5.029      45.514
2015    1       11     6  20    7.1116   500.0    5.031      45.540
2015    1       11     6  25    7.1138   500.0    5.033      45.566
2015    1       11     6  30    7.1159   499.9    5.034      45.592
2015    1       11     6  35    7.1180   499.9    5.036      45.618
2015    1       11     6  40    7.1201   499.9    5.037      45.644
2015    1       11     6  45    7.1223   499.9    5.039      45.671
2015    1       11     6  50    7.1244   499.9    5.040      45.697
2015    1       11     6  54    7.1265   499.9    5.042      45.723
2015    1       11     6  59    7.1285   499.9    5.043      45.749
2015    1       11     7   4    7.1306   499.9    5.045      45.776
2015    1       11     7   9    7.1327   499.9    5.046      45.802
2015    1       11     7  14    7.1348   499.9    5.048      45.829
2015    1       11     7  19    7.1368   499.9    5.049      45.855
2015    1       11     7  24    7.1389   499.9    5.051      45.882
2015    1       11     7  29    7.1409   499.9    5.052      45.908
2015    1       11     7  34    7.1430   499.9    5.053      45.935
2015    1       11     7  39    7.1450   499.9    5.055      45.962
2015    1       11     7  44    7.1471   499.9    5.056      45.988
2015    1       11     7  49    7.1491   499.9    5.057      46.015
2015    1       11     7  53    7.1511   499.9    5.059      46.041
2015    1       11     7  58    7.1531   499.9    5.060      46.068
2015    1       11     8   3    7.1551   499.9    5.061      46.095
2015    1       11     8   8    7.1571   500.0    5.063      46.121
2015    1       11     8  13    7.1591   500.0    5.064      46.148
2015    1       11     8  18    7.1611   500.0    5.065      46.175
2015    1       11     8  23    7.1631   500.0    5.067      46.201
2015    1       11     8  28    7.1650   500.0    5.068      46.228
2015    1       11     8  33    7.1670   500.0    5.069      46.255
2015    1       11     8  38    7.1690   500.0    5.070      46.281
2015    1       11     8  43    7.1709   500.0    5.071      46.308
2015    1       11     8  48    7.1729   500.0    5.073      46.335
2015    1       11     8  52    7.1748   500.0    5.074      46.361
2015    1       11     8  57    7.1767   500.0    5.075      46.388
2015    1       11     9   2    7.1787   500.0    5.076      46.415
2015    1       11     9   7    7.1806   500.0    5.077      46.441
2015    1       11     9  12    7.1825   500.0    5.078      46.468
2015    1       11     9  17    7.1844   500.0    5.079      46.494
2015    1       11     9  22    7.1863   500.0    5.080      46.521
2015    1       11     9  27    7.1882   500.0    5.081      46.548
2015    1       11     9  32    7.1901   500.0    5.083      46.574
2015    1       11     9  37    7.1920   500.0    5.084      46.601
2015    1       11     9  42    7.1938   500.0    5.085      46.628
2015    1       11     9  47    7.1957   500.1    5.086      46.654
2015    1       11     9  51    7.1976   500.1    5.087      46.681
2015    1       11     9  56    7.1994   500.1    5.088      46.708
2015    1       11    10   1    7.2013   500.1    5.089      46.734
2015    1       11    10   6    7.2031   500.1    5.090      46.761
2015    1       11    10  11    7.2050   500.1    5.091      46.788
2015    1       11    10  16    7.2068   500.1    5.091      46.815
2015    1       11    10  21    7.2086   500.1    5.092      46.841
2015    1       11    10  26    7.2105   500.1    5.093      46.868
2015    1       11    10  31    7.2123   500.1    5.094      46.895
2015    1       11    10  36    7.2141   500.1    5.095      46.922
2015    1       11    10  41    7.2160   500.2    5.096      46.949
2015    1       11    10  46    7.2178   500.2    5.097      46.976
2015    1       11    10  50    7.2196   500.2    5.098      47.003
2015    1       11    10  55    7.2214   500.2    5.099      47.030
2015    1       11    11   0    7.2232   500.2    5.100      47.057
2015    1       11    11   5    7.2251   500.2    5.101      47.084
2015    1       11    11  10    7.2269   500.2    5.102      47.111
2015    1       11    11  15    7.2287   500.2    5.102      47.138
2015    1       11    11  20    7.2305   500.2    5.103      47.165
2015    1       11    11  25    7.2323   500.3    5.104      47.193
2015    1       11    11  30    7.2341   500.3    5.105      47.220
2015    1       11    11  35    7.2359   500.3    5.106      47.247
2015    1       11    11  40    7.2377   500.3    5.107      47.275
2015    1       11    11  45    7.2395   500.3    5.108      47.302
2015    1       11    11  49    7.2413   500.3    5.109      47.330
2015    1       11    11  54    7.2431   500.3    5.110      47.358
2015    1       11    11  59    7.2449   500.4    5.110      47.385
2015    1       11    12   4    7.2467   500.4    5.111      47.413
2015    1       11    12   9    7.2485   500.4    5.112      47.441
2015    1       11    12  14    7.2503   500.4    5.113      47.469
2015    1       11    12  19    7.2522   500.4    5.114      47.497
2015    1       11    12  24    7.2539   500.4    5.115      47.525
2015    1       11    12  29    7.2557   500.5    5.116      47.553
2015    1       11    12  34    7.2576   500.5    5.117      47.581
2015    1       11    12  39    7.2594   500.5    5.118      47.609
2015    1       11    12  43    7.2611   500.5    5.119      47.638
2015    1       11    12  48    7.2630   500.5    5.119      47.666
2015    1       11    12  53    7.2647   500.5    5.120      47.695
2015    1       11    12  58    7.2665   500.6    5.121      47.723
2015    1       11    13   3    7.2683   500.6    5.122      47.752
2015    1       11    13   8    7.2701   500.6    5.123      47.781
2015    1       11    13  13    7.2719   500.6    5.124      47.809
2015    1       11    13  18    7.2737   500.6    5.125      47.838
2015    1       11    13  23    7.2755   500.7    5.126      47.867
2015    1       11    13  28    7.2773   500.7    5.127      47.896
2015    1       11    13  33    7.2790   500.7    5.127      47.925
2015    1       11    13  37    7.2808   500.7    5.128      47.954
2015    1       11    13  42    7.2826   500.7    5.129      47.983
2015    1       11    13  47    7.2843   500.8    5.130      48.012
2015    1       11    13  52    7.2861   500.8    5.131      48.041
2015    1       11    13  57    7.2878   500.8    5.132      48.071
2015    1       11    14   2    7.2896   500.8    5.133      48.100
2015    1       11    14   7    7.2913   500.9    5.134      48.129
2015    1       11    14  12    7.2931   500.9    5.134      48.158
2015    1       11    14  17    7.2948   500.9    5.135      48.188
2015    1       11    14  22    7.2965   500.9    5.136      48.217
2015    1       11    14  27    7.2982   500.9    5.137      48.246
2015    1       11    14  32    7.2999   501.0    5.138      48.276
2015    1       11    14  36    7.3016   501.0    5.139      48.305
2015    1       11    14  41    7.3033   501.0    5.139      48.335
2015    1       11    14  46    7.3050   501.0    5.140      48.364
2015    1       11    14  51    7.3067   501.1    5.141      48.394
2015    1       11    14  56    7.3084   501.1    5.142      48.423
2015    1       11    15   1    7.3101   501.1    5.142      48.453
2015    1       11    15   6    7.3117   501.1    5.143      48.482
2015    1       11    15  11    7.3134   501.2    5.144      48.512
2015    1       11    15  16    7.3150   501.2    5.145      48.541
2015    1       11    15  21    7.3167   501.2    5.145      48.571
2015    1       11    15  26    7.3183   501.2    5.146      48.601
2015    1       11    15  30    7.3200   501.3    5.147      48.630
2015    1       11    15  35    7.3216   501.3    5.147      48.660
2015    1       11    15  40    7.3232   501.3    5.148      48.690
2015    1       11    15  45    7.3248   501.3    5.149      48.719
2015    1       11    15  50    7.3264   501.4    5.149      48.749
2015    1       11    15  55    7.3280   501.4    5.150      48.779
2015    1       11    16   0    7.3296   501.4    5.151      48.808
2015    1       11    16   5    7.3312   501.4    5.151      48.838
2015    1       11    16  10    7.3328   501.5    5.152      48.867
2015    1       11    16  15    7.3344   501.5    5.152      48.897
2015    1       11    16  20    7.3359   501.5    5.153      48.926
2015    1       11    16  25    7.3375   501.5    5.153      48.956
2015    1       11    16  29    7.3391   501.6    5.154      48.985
2015    1       11    16  34    7.3406   501.6    5.154      49.014
2015    1       11    16  39    7.3422   501.6    5.155      49.044
2015    1       11    16  44    7.3437   501.7    5.155      49.073
2015    1       11    16  49    7.3453   501.7    5.155      49.102
2015    1       11    16  54    7.3468   501.7    5.156      49.130
2015    1       11    16  59    7.3483   501.7    5.156      49.159
2015    1       11    17   4    7.3499   501.8    5.157      49.188
2015    1       11    17   9    7.3514   501.8    5.157      49.217
2015    1       11    17  14    7.3530   501.8    5.157      49.246
2015    1       11    17  19    7.3545   501.9    5.158      49.274
2015    1       11    17  24    7.3560   501.9    5.158      49.303
2015    1       11    17  28    7.3576   501.9    5.158      49.331
2015    1       11    17  33    7.3591   501.9    5.159      49.360
2015    1       11    17  38    7.3607   502.0    5.159      49.389
2015    1       11    17  43    7.3622   502.0    5.159      49.417
2015    1       11    17  48    7.3638   502.0    5.160      49.446
2015    1       11    17  53    7.3653   502.1    5.160      49.474
2015    1       11    17  58    7.3669   502.1    5.160      49.503
2015    1       11    18   3    7.3684   502.1    5.160      49.531
2015    1       11    18   8    7.3700   502.2    5.161      49.560
2015    1       11    18  13    7.3716   502.2    5.161      49.589
2015    1       11    18  18    7.3731   502.2    5.161      49.617
2015    1       11    18  23    7.3747   502.3    5.162      49.646
2015    1       11    18  27    7.3763   502.3    5.162      49.675
2015    1       11    18  32    7.3779   502.3    5.162      49.704
2015    1       11    18  37    7.3795   502.4    5.162      49.733
2015    1       11    18  42    7.3810   502.4    5.163      49.762
2015    1       11    18  47    7.3826   502.4    5.163      49.791
2015    1       11    18  52    7.3842   502.5    5.163      49.820
2015    1       11    18  57    7.3858   502.5    5.164      49.850
2015    1       11    19   2    7.3874   502.5    5.164      49.879
2015    1       11    19   7    7.3890   502.6    5.164      49.908
2015    1       11    19  12    7.3906   502.6    5.165      49.938
2015    1       11    19  17    7.3922   502.6    5.165      49.968
2015    1       11    19  21    7.3938   502.7    5.165      49.998
2015    1       11    19  26    7.3954   502.7    5.166      50.028
2015    1       11    19  31    7.3970   502.7    5.166      50.058
2015    1       11    19  36    7.3986   502.8    5.166      50.088
2015    1       11    19  41    7.4002   502.8    5.167      50.118
2015    1       11    19  46    7.4018   502.8    5.167      50.149
2015    1       11    19  51    7.4034   502.9    5.168      50.179
2015    1       11    19  56    7.4050   502.9    5.168      50.210
2015    1       11    20   1    7.4066   503.0    5.168      50.240
2015    1       11    20   6    7.4082   503.0    5.169      50.271
2015    1       11    20  11    7.4098   503.0    5.169      50.302
2015    1       11    20  16    7.4115   503.1    5.170      50.333
2015    1       11    20  20    7.4131   503.1    5.170      50.364
2015    1       11    20  25    7.4146   503.2    5.171      50.395
2015    1       11    20  30    7.4162   503.2    5.171      50.427
2015    1       11    20  35    7.4178   503.2    5.171      50.458
2015    1       11    20  40    7.4194   503.3    5.172      50.490
2015    1       11    20  45    7.4210   503.3    5.172      50.521
2015    1       11    20  50    7.4225   503.4    5.173      50.553
2015    1       11    20  55    7.4241   503.4    5.173      50.584
2015    1       11    21   0    7.4256   503.4    5.174      50.616
2015    1       11    21   5    7.4272   503.5    5.174      50.648
2015    1       11    21  10    7.4287   503.5    5.175      50.680
2015    1       11    21  14    7.4302   503.6    5.175      50.712
2015    1       11    21  19    7.4317   503.6    5.176      50.744
2015    1       11    21  24    7.4332   503.6    5.176      50.776
2015    1       11    21  29    7.4347   503.7    5.176      50.809
2015    1       11    21  34    7.4361   503.7    5.177      50.842
2015    1       11    21  39    7.4376   503.8    5.177      50.874
2015    1       11    21  44    7.4390   503.8    5.177      50.907
2015    1       11    21  49    7.4405   503.9    5.178      50.940
2015    1       11    21  54    7.4419   503.9    5.178      50.972
2015    1       11    21  59    7.4433   504.0    5.178      51.005
2015    1       11    22   4    7.4447   504.0    5.179      51.037
2015    1       11    22   8    7.4460   504.1    5.179      51.070
2015    1       11    22  13    7.4474   504.1    5.179      51.102
2015    1       11    22  18    7.4487   504.1    5.179      51.134
2015    1       11    22  23    7.4501   504.2    5.179      51.166
2015    1       11    22  28    7.4514   504.2    5.180      51.198
2015    1       11    22  33    7.4528   504.3    5.180      51.229
2015    1       11    22  38    7.4541   504.3    5.180      51.261
2015    1       11    22  43    7.4554   504.4    5.180      51.292
2015    1       11    22  48    7.4567   504.4    5.180      51.324
2015    1       11    22  53    7.4580   504.5    5.180      51.355
2015    1       11    22  58    7.4593   504.5    5.180      51.386
2015    1       11    23   3    7.4606   504.6    5.180      51.417
2015    1       11    23   7    7.4619   504.6    5.180      51.447
2015    1       11    23  12    7.4632   504.6    5.180      51.478
2015    1       11    23  17    7.4645   504.7    5.180      51.509
2015    1       11    23  22    7.4658   504.7    5.180      51.539
2015    1       11    23  27    7.4671   504.8    5.180      51.570
2015    1       11    23  32    7.4684   504.8    5.180      51.600
2015    1       11    23  37    7.4697   504.9    5.180      51.630
2015    1       11    23  42    7.4710   504.9    5.180      51.661
2015    1       11    23  47    7.4723   505.0    5.180      51.691
2015    1       11    23  52    7.4736   505.0    5.180      51.721
2015    1       11    23  57    7.4749   505.1    5.180      51.751
2015    1       12     0   2    7.4763   505.1    5.180      51.781
2015    1       12     0   6    7.4776   505.2    5.180      51.811
2015    1       12     0  11    7.4789   505.2    5.180      51.842
2015    1       12     0  16    7.4803   505.2    5.180      51.872
2015    1       12     0  21    7.4817   505.3    5.180      51.902
2015    1       12     0  26    7.4830   505.3    5.180      51.932
2015    1       12     0  31    7.4844   505.4    5.180      51.963
2015    1       12     0  36    7.4858   505.4    5.180      51.994
2015    1       12     0  41    7.4871   505.5    5.180      52.025
2015    1       12     0  46    7.4885   505.5    5.179      52.056
2015    1       12     0  51    7.4899   505.6    5.179      52.087
2015    1       12     0  56    7.4912   505.7    5.179      52.119
2015    1       12     1   1    7.4926   505.7    5.179      52.151
2015    1       12     1   5    7.4939   505.8    5.179      52.183
2015    1       12     1  10    7.4953   505.8    5.179      52.215
2015    1       12     1  15    7.4966   505.9    5.179      52.247
2015    1       12     1  20    7.4979   505.9    5.178      52.279
2015    1       12     1  25    7.4992   506.0    5.178      52.311
2015    1       12     1  30    7.5005   506.0    5.178      52.342
2015    1       12     1  35    7.5018   506.1    5.178      52.373
2015    1       12     1  40    7.5031   506.1    5.177      52.404
2015    1       12     1  45    7.5044   506.2    5.177      52.435
2015    1       12     1  50    7.5057   506.3    5.177      52.466
2015    1       12     1  55    7.5069   506.3    5.176      52.497
2015    1       12     1  59    7.5082   506.4    5.176      52.527
2015    1       12     2   4    7.5094   506.4    5.176      52.558
2015    1       12     2   9    7.5107   506.5    5.175      52.588
2015    1       12     2  14    7.5119   506.5    5.175      52.618
2015    1       12     2  19    7.5132   506.6    5.174      52.648
2015    1       12     2  24    7.5145   506.7    5.174      52.678
2015    1       12     2  29    7.5157   506.7    5.174      52.708
2015    1       12     2  34    7.5169   506.8    5.173      52.737
2015    1       12     2  39    7.5182   506.8    5.173      52.767
2015    1       12     2  44    7.5194   506.9    5.173      52.797
2015    1       12     2  49    7.5207   506.9    5.172      52.827
2015    1       12     2  54    7.5219   507.0    5.172      52.857
2015    1       12     2  58    7.5232   507.0    5.172      52.887
2015    1       12     3   3    7.5244   507.1    5.171      52.917
2015    1       12     3   8    7.5257   507.2    5.171      52.948
2015    1       12     3  13    7.5270   507.2    5.171      52.978
2015    1       12     3  18    7.5282   507.3    5.171      53.009
2015    1       12     3  23    7.5295   507.3    5.170      53.040
2015    1       12     3  28    7.5308   507.4    5.170      53.071
2015    1       12     3  33    7.5320   507.5    5.170      53.103
2015    1       12     3  38    7.5332   507.5    5.170      53.135
2015    1       12     3  43    7.5345   507.6    5.170      53.168
2015    1       12     3  48    7.5357   507.6    5.170      53.201
2015    1       12     3  52    7.5369   507.7    5.170      53.235
2015    1       12     3  57    7.5381   507.8    5.170      53.269
2015    1       12     4   2    7.5392   507.9    5.169      53.304
2015    1       12     4   7    7.5404   507.9    5.169      53.339
2015    1       12     4  12    7.5415   508.0    5.169      53.374
2015    1       12     4  17    7.5426   508.1    5.169      53.410
2015    1       12     4  22    7.5437   508.1    5.168      53.445
2015    1       12     4  27    7.5447   508.2    5.168      53.480
2015    1       12     4  32    7.5458   508.3    5.168      53.515
2015    1       12     4  37    7.5468   508.3    5.167      53.550
2015    1       12     4  42    7.5478   508.4    5.167      53.585
2015    1       12     4  47    7.5488   508.5    5.166      53.620
2015    1       12     4  51    7.5497   508.6    5.166      53.654
2015    1       12     4  56    7.5507   508.6    5.165      53.689
2015    1       12     5   1    7.5516   508.7    5.165      53.723
2015    1       12     5   6    7.5526   508.8    5.164      53.756
2015    1       12     5  11    7.5535   508.8    5.163      53.790
2015    1       12     5  16    7.5544   508.9    5.163      53.823
2015    1       12     5  21    7.5553   509.0    5.162      53.855
2015    1       12     5  26    7.5562   509.1    5.161      53.888
2015    1       12     5  31    7.5570   509.1    5.160      53.920
2015    1       12     5  36    7.5579   509.2    5.159      53.952
2015    1       12     5  41    7.5588   509.3    5.159      53.984
2015    1       12     5  45    7.5597   509.3    5.158      54.015
2015    1       12     5  50    7.5605   509.4    5.157      54.046
2015    1       12     5  55    7.5614   509.5    5.156      54.077
2015    1       12     6   0    7.5622   509.6    5.155      54.108
2015    1       12     6   5    7.5631   509.6    5.154      54.138
2015    1       12     6  10    7.5640   509.7    5.153      54.168
2015    1       12     6  15    7.5648   509.8    5.152      54.199
2015    1       12     6  20    7.5657   509.8    5.151      54.229
2015    1       12     6  25    7.5666   509.9    5.150      54.259
2015    1       12     6  30    7.5674   510.0    5.149      54.289
2015    1       12     6  35    7.5683   510.1    5.148      54.319
2015    1       12     6  40    7.5692   510.1    5.147      54.348
2015    1       12     6  44    7.5701   510.2    5.146      54.378
2015    1       12     6  49    7.5710   510.3    5.145      54.408
2015    1       12     6  54    7.5719   510.3    5.144      54.438
2015    1       12     6  59    7.5728   510.4    5.143      54.468
2015    1       12     7   4    7.5737   510.5    5.142      54.498
2015    1       12     7   9    7.5746   510.6    5.141      54.529
2015    1       12     7  14    7.5755   510.6    5.141      54.559
2015    1       12     7  19    7.5765   510.7    5.140      54.590
2015    1       12     7  24    7.5774   510.8    5.139      54.620
2015    1       12     7  29    7.5783   510.9    5.138      54.651
2015    1       12     7  34    7.5793   510.9    5.137      54.682
2015    1       12     7  39    7.5802   511.0    5.136      54.713
2015    1       12     7  43    7.5811   511.1    5.135      54.744
2015    1       12     7  48    7.5821   511.2    5.134      54.776
2015    1       12     7  53    7.5830   511.2    5.134      54.808
2015    1       12     7  58    7.5838   511.3    5.133      54.841
2015    1       12     8   3    7.5847   511.4    5.132      54.874
2015    1       12     8   8    7.5855   511.5    5.131      54.907
2015    1       12     8  13    7.5864   511.6    5.130      54.940
2015    1       12     8  18    7.5872   511.6    5.129      54.974
2015    1       12     8  23    7.5880   511.7    5.128      55.008
2015    1       12     8  28    7.5888   511.8    5.127      55.041
2015    1       12     8  33    7.5895   511.9    5.126      55.075
2015    1       12     8  38    7.5902   512.0    5.124      55.108
2015    1       12     8  42    7.5910   512.1    5.123      55.141
2015    1       12     8  47    7.5917   512.2    5.122      55.174
2015    1       12     8  52    7.5923   512.2    5.121      55.206
2015    1       12     8  57    7.5930   512.3    5.120      55.238
2015    1       12     9   2    7.5937   512.4    5.118      55.270
2015    1       12     9   7    7.5943   512.5    5.117      55.302
2015    1       12     9  12    7.5950   512.6    5.116      55.333
2015    1       12     9  17    7.5956   512.7    5.114      55.364
2015    1       12     9  22    7.5962   512.7    5.113      55.395
2015    1       12     9  27    7.5969   512.8    5.111      55.425
2015    1       12     9  32    7.5975   512.9    5.110      55.456
2015    1       12     9  36    7.5981   513.0    5.108      55.486
2015    1       12     9  41    7.5987   513.1    5.107      55.516
2015    1       12     9  46    7.5993   513.2    5.106      55.546
2015    1       12     9  51    7.5999   513.2    5.104      55.576
2015    1       12     9  56    7.6005   513.3    5.103      55.605
2015    1       12    10   1    7.6011   513.4    5.101      55.635
2015    1       12    10   6    7.6017   513.5    5.100      55.665
2015    1       12    10  11    7.6024   513.6    5.099      55.695
2015    1       12    10  16    7.6030   513.6    5.097      55.725
2015    1       12    10  21    7.6036   513.7    5.096      55.755
2015    1       12    10  26    7.6042   513.8    5.095      55.785
2015    1       12    10  31    7.6048   513.9    5.094      55.816
2015    1       12    10  35    7.6054   514.0    5.092      55.848
2015    1       12    10  40    7.6060   514.1    5.091      55.879
2015    1       12    10  45    7.6066   514.2    5.090      55.911
2015    1       12    10  50    7.6072   514.2    5.089      55.943
2015    1       12    10  55    7.6077   514.3    5.087      55.975
2015    1       12    11   0    7.6083   514.4    5.086      56.008
2015    1       12    11   5    7.6089   514.5    5.085      56.041
2015    1       12    11  10    7.6094   514.6    5.084      56.074
2015    1       12    11  15    7.6099   514.7    5.083      56.108
2015    1       12    11  20    7.6104   514.8    5.081      56.142
2015    1       12    11  25    7.6108   514.9    5.080      56.177
2015    1       12    11  29    7.6113   515.0    5.079      56.212
2015    1       12    11  34    7.6117   515.1    5.078      56.246
2015    1       12    11  39    7.6121   515.2    5.076      56.282
2015    1       12    11  44    7.6125   515.3    5.075      56.316
2015    1       12    11  49    7.6128   515.4    5.073      56.351
2015    1       12    11  54    7.6132   515.5    5.072      56.385
2015    1       12    11  59    7.6135   515.6    5.070      56.419
2015    1       12    12   4    7.6138   515.6    5.069      56.452
2015    1       12    12   9    7.6141   515.7    5.067      56.486
2015    1       12    12  14    7.6143   515.8    5.065      56.519
2015    1       12    12  19    7.6146   515.9    5.063      56.552
2015    1       12    12  23    7.6148   516.0    5.062      56.584
2015    1       12    12  28    7.6150   516.1    5.060      56.616
2015    1       12    12  33    7.6152   516.2    5.058      56.648
2015    1       12    12  38    7.6155   516.3    5.056      56.679
2015    1       12    12  43    7.6156   516.4    5.054      56.711
2015    1       12    12  48    7.6158   516.5    5.052      56.742
2015    1       12    12  53    7.6160   516.6    5.051      56.772
2015    1       12    12  58    7.6162   516.7    5.049      56.803
2015    1       12    13   3    7.6163   516.8    5.047      56.833
2015    1       12    13   8    7.6165   516.9    5.045      56.863
2015    1       12    13  13    7.6166   517.0    5.043      56.893
2015    1       12    13  18    7.6168   517.1    5.041      56.923
2015    1       12    13  22    7.6169   517.2    5.039      56.952
2015    1       12    13  27    7.6171   517.3    5.037      56.981
2015    1       12    13  32    7.6172   517.4    5.035      57.010
2015    1       12    13  37    7.6173   517.5    5.032      57.039
2015    1       12    13  42    7.6174   517.5    5.030      57.068
2015    1       12    13  47    7.6175   517.6    5.028      57.097
2015    1       12    13  52    7.6177   517.7    5.026      57.126
2015    1       12    13  57    7.6178   517.8    5.024      57.155
2015    1       12    14   2    7.6178   517.9    5.022      57.183
2015    1       12    14   7    7.6179   518.0    5.020      57.212
2015    1       12    14  12    7.6180   518.1    5.018      57.241
2015    1       12    14  17    7.6181   518.2    5.016      57.270
2015    1       12    14  21    7.6182   518.3    5.014      57.298
2015    1       12    14  26    7.6183   518.4    5.012      57.327
2015    1       12    14  31    7.6183   518.5    5.010      57.356
2015    1       12    14  36    7.6184   518.6    5.008      57.385
2015    1       12    14  41    7.6184   518.7    5.005      57.414
2015    1       12    14  46    7.6185   518.8    5.003      57.443
2015    1       12    14  51    7.6185   518.9    5.001      57.472
2015    1       12    14  56    7.6185   519.0    4.999      57.502
2015    1       12    15   1    7.6185   519.1    4.997      57.531
2015    1       12    15   6    7.6184   519.2    4.995      57.561
2015    1       12    15  11    7.6184   519.3    4.993      57.591
2015    1       12    15  16    7.6183   519.4    4.991      57.621
2015    1       12    15  20    7.6182   519.5    4.989      57.651
2015    1       12    15  25    7.6181   519.6    4.987      57.681
2015    1       12    15  30    7.6180   519.7    4.985      57.712
2015    1       12    15  35    7.6179   519.7    4.983      57.742
2015    1       12    15  40    7.6177   519.8    4.981      57.772
2015    1       12    15  45    7.6176   519.9    4.979      57.803
2015    1       12    15  50    7.6174   520.0    4.976      57.833
2015    1       12    15  55    7.6172   520.1    4.974      57.863
2015    1       12    16   0    7.6170   520.2    4.972      57.894
2015    1       12    16   5    7.6168   520.3    4.970      57.924
2015    1       12    16  10    7.6166   520.4    4.968      57.954
2015    1       12    16  15    7.6163   520.5    4.966      57.985
2015    1       12    16  19    7.6161   520.6    4.964      58.015
2015    1       12    16  24    7.6158   520.7    4.962      58.045
2015    1       12    16  29    7.6156   520.8    4.960      58.075
2015    1       12    16  34    7.6153   520.9    4.958      58.104
2015    1       12    16  39    7.6150   521.0    4.955      58.134
2015    1       12    16  44    7.6147   521.1    4.953      58.164
2015    1       12    16  49    7.6144   521.2    4.951      58.194
2015    1       12    16  54    7.6142   521.3    4.949      58.223
2015    1       12    16  59    7.6139   521.4    4.947      58.253
2015    1       12    17   4    7.6136   521.5    4.945      58.282
2015    1       12    17   9    7.6132   521.6    4.943      58.312
2015    1       12    17  13    7.6129   521.7    4.941      58.342
2015    1       12    17  18    7.6126   521.8    4.939      58.372
2015    1       12    17  23    7.6123   521.9    4.937      58.402
2015    1       12    17  28    7.6119   522.0    4.935      58.432
2015    1       12    17  33    7.6116   522.1    4.933      58.463
2015    1       12    17  38    7.6112   522.2    4.931      58.493
2015    1       12    17  43    7.6108   522.3    4.929      58.524
2015    1       12    17  48    7.6105   522.4    4.927      58.555
2015    1       12    17  53    7.6101   522.5    4.924      58.586
2015    1       12    17  58    7.6096   522.6    4.922      58.616
2015    1       12    18   3    7.6092   522.7    4.920      58.647
2015    1       12    18   7    7.6088   522.8    4.918      58.677
2015    1       12    18  12    7.6083   522.9    4.916      58.707
2015    1       12    18  17    7.6079   522.9    4.914      58.737
2015    1       12    18  22    7.6074   523.0    4.912      58.767
2015    1       12    18  27    7.6069   523.1    4.909      58.797
2015    1       12    18  32    7.6064   523.2    4.907      58.827
2015    1       12    18  37    7.6059   523.3    4.905      58.856
2015    1       12    18  42    7.6054   523.4    4.903      58.886
2015    1       12    18  47    7.6049   523.5    4.900      58.915
2015    1       12    18  52    7.6043   523.6    4.898      58.944
2015    1       12    18  57    7.6038   523.7    4.896      58.973
2015    1       12    19   2    7.6032   523.8    4.894      59.002
2015    1       12    19   6    7.6026   523.9    4.891      59.032
2015    1       12    19  11    7.6020   524.0    4.889      59.061
2015    1       12    19  16    7.6014   524.1    4.887      59.090
2015    1       12    19  21    7.6008   524.2    4.884      59.119
2015    1       12    19  26    7.6001   524.3    4.882      59.148
2015    1       12    19  31    7.5995   524.4    4.880      59.176
2015    1       12    19  36    7.5988   524.5    4.877      59.205
2015    1       12    19  41    7.5981   524.6    4.875      59.233
2015    1       12    19  46    7.5974   524.7    4.872      59.261
2015    1       12    19  51    7.5967   524.8    4.870      59.289
2015    1       12    19  56    7.5959   524.9    4.867      59.316
2015    1       12    20   0    7.5952   525.0    4.865      59.344
2015    1       12    20   5    7.5945   525.1    4.862      59.371
2015    1       12    20  10    7.5937   525.2    4.860      59.398
2015    1       12    20  15    7.5929   525.3    4.858      59.425
2015    1       12    20  20    7.5921   525.3    4.855      59.452
2015    1       12    20  25    7.5913   525.4    4.853      59.478
2015    1       12    20  30    7.5904   525.5    4.850      59.504
2015    1       12    20  35    7.5896   525.6    4.847      59.531
2015    1       12    20  40    7.5888   525.7    4.845      59.556
2015    1       12    20  45    7.5879   525.8    4.842      59.582
2015    1       12    20  50    7.5870   525.9    4.840      59.608
2015    1       12    20  55    7.5861   526.0    4.837      59.634
2015    1       12    20  59    7.5852   526.1    4.835      59.659
2015    1       12    21   4    7.5842   526.2    4.832      59.684
2015    1       12    21   9    7.5833   526.3    4.830      59.710
2015    1       12    21  14    7.5823   526.4    4.827      59.735
2015    1       12    21  19    7.5813   526.5    4.825      59.760
2015    1       12    21  24    7.5804   526.6    4.822      59.785
2015    1       12    21  29    7.5793   526.6    4.820      59.810
2015    1       12    21  34    7.5783   526.7    4.817      59.834
2015    1       12    21  39    7.5773   526.8    4.815      59.859
2015    1       12    21  44    7.5762   526.9    4.812      59.884
2015    1       12    21  49    7.5751   527.0    4.810      59.909
2015    1       12    21  54    7.5741   527.1    4.807      59.934
2015    1       12    21  58    7.5730   527.2    4.805      59.958
2015    1       12    22   3    7.5719   527.3    4.802      59.983
2015    1       12    22   8    7.5707   527.4    4.800      60.008
2015    1       12    22  13    7.5696   527.5    4.797      60.033
2015    1       12    22  18    7.5684   527.5    4.795      60.058
2015    1       12    22  23    7.5673   527.6    4.793      60.083
2015    1       12    22  28    7.5661   527.7    4.790      60.108
2015    1       12    22  33    7.5649   527.8    4.788      60.133
2015    1       12    22  38    7.5637   527.9    4.785      60.158
2015    1       12    22  43    7.5625   528.0    4.783      60.183
2015    1       12    22  48    7.5613   528.1    4.781      60.208
2015    1       12    22  53    7.5601   528.1    4.779      60.233
2015    1       12    22  57    7.5589   528.2    4.776      60.259
2015    1       12    23   2    7.5576   528.3    4.774      60.284
2015    1       12    23   7    7.5564   528.4    4.772      60.310
2015    1       12    23  12    7.5551   528.5    4.770      60.335
2015    1       12    23  17    7.5539   528.6    4.767      60.361
2015    1       12    23  22    7.5526   528.7    4.765      60.386
2015    1       12    23  27    7.5513   528.7    4.763      60.412
2015    1       12    23  32    7.5500   528.8    4.761      60.438
2015    1       12    23  37    7.5488   528.9    4.759      60.464
2015    1       12    23  42    7.5475   529.0    4.757      60.489
2015    1       12    23  47    7.5462   529.1    4.754      60.515
2015    1       12    23  51    7.5449   529.2    4.752      60.541
2015    1       12    23  56    7.5436   529.2    4.750      60.567
2015    1       13     0   1    7.5423   529.3    4.748      60.592
2015    1       13     0   6    7.5410   529.4    4.746      60.618
2015    1       13     0  11    7.5397   529.5    4.744      60.644
2015    1       13     0  16    7.5384   529.6    4.742      60.670
2015    1       13     0  21    7.5370   529.6    4.740      60.695
2015    1       13     0  26    7.5357   529.7    4.738      60.721
2015    1       13     0  31    7.5344   529.8    4.736      60.747
2015    1       13     0  36    7.5330   529.9    4.733      60.772
2015    1       13     0  41    7.5317   530.0    4.731      60.797
2015    1       13     0  46    7.5303   530.1    4.729      60.822
2015    1       13     0  50    7.5289   530.1    4.727      60.847
2015    1       13     0  55    7.5275   530.2    4.725      60.871
2015    1       13     1   0    7.5261   530.3    4.723      60.896
2015    1       13     1   5    7.5247   530.4    4.720      60.920
2015    1       13     1  10    7.5233   530.5    4.718      60.943
2015    1       13     1  15    7.5218   530.5    4.716      60.967
2015    1       13     1  20    7.5204   530.6    4.714      60.990
2015    1       13     1  25    7.5189   530.7    4.711      61.014
2015    1       13     1  30    7.5175   530.8    4.709      61.037
2015    1       13     1  35    7.5160   530.8    4.707      61.059
2015    1       13     1  40    7.5145   530.9    4.704      61.082
2015    1       13     1  44    7.5130   531.0    4.702      61.105
2015    1       13     1  49    7.5115   531.1    4.700      61.127
2015    1       13     1  54    7.5099   531.1    4.698      61.149
2015    1       13     1  59    7.5084   531.2    4.695      61.171
2015    1       13     2   4    7.5069   531.3    4.693      61.193
2015    1       13     2   9    7.5053   531.4    4.691      61.215
2015    1       13     2  14    7.5037   531.4    4.688      61.237
2015    1       13     2  19    7.5022   531.5    4.686      61.258
2015    1       13     2  24    7.5006   531.6    4.684      61.280
2015    1       13     2  29    7.4990   531.7    4.681      61.301
2015    1       13     2  34    7.4974   531.7    4.679      61.323
2015    1       13     2  39    7.4958   531.8    4.677      61.344
2015    1       13     2  43    7.4942   531.9    4.675      61.366
2015    1       13     2  48    7.4925   532.0    4.672      61.387
2015    1       13     2  53    7.4909   532.0    4.670      61.409
2015    1       13     2  58    7.4892   532.1    4.668      61.430
2015    1       13     3   3    7.4876   532.2    4.666      61.451
2015    1       13     3   8    7.4859   532.2    4.663      61.473
2015    1       13     3  13    7.4842   532.3    4.661      61.494
2015    1       13     3  18    7.4825   532.4    4.659      61.516
2015    1       13     3  23    7.4808   532.5    4.657      61.537
2015    1       13     3  28    7.4791   532.5    4.655      61.558
2015    1       13     3  33    7.4774   532.6    4.653      61.580
2015    1       13     3  37    7.4756   532.7    4.650      61.601
2015    1       13     3  42    7.4739   532.7    4.648      61.623
2015    1       13     3  47    7.4721   532.8    4.646      61.644
2015    1       13     3  52    7.4703   532.9    4.644      61.666
2015    1       13     3  57    7.4686   532.9    4.642      61.687
2015    1       13     4   2    7.4668   533.0    4.640      61.708
2015    1       13     4   7    7.4650   533.1    4.638      61.730
2015    1       13     4  12    7.4631   533.1    4.636      61.751
2015    1       13     4  17    7.4613   533.2    4.634      61.773
2015    1       13     4  22    7.4595   533.3    4.632      61.794
2015    1       13     4  27    7.4576   533.3    4.630      61.815
2015    1       13     4  32    7.4558   533.4    4.628      61.837
2015    1       13     4  36    7.4539   533.5    4.626      61.858
2015    1       13     4  41    7.4520   533.5    4.624      61.879
2015    1       13     4  46    7.4501   533.6    4.622      61.900
2015    1       13     4  51    7.4482   533.7    4.620      61.921
2015    1       13     4  56    7.4463   533.7    4.618      61.942
2015    1       13     5   1    7.4444   533.8    4.616      61.963
2015    1       13     5   6    7.4424   533.9    4.614      61.984
2015    1       13     5  11    7.4405   533.9    4.612      62.005
2015    1       13     5  16    7.4385   534.0    4.610      62.026
2015    1       13     5  21    7.4365   534.0    4.608      62.046
2015    1       13     5  26    7.4346   534.1    4.606      62.067
2015    1       13     5  31    7.4326   534.2    4.604      62.088
2015    1       13     5  35    7.4306   534.2    4.602      62.108
2015    1       13     5  40    7.4286   534.3    4.600      62.129
2015    1       13     5  45    7.4266   534.4    4.598      62.149
2015    1       13     5  50    7.4246   534.4    4.597      62.169
2015    1       13     5  55    7.4226   534.5    4.595      62.189
2015    1       13     6   0    7.4206   534.5    4.593      62.209
2015    1       13     6   5    7.4186   534.6    4.591      62.229
2015    1       13     6  10    7.4165   534.7    4.589      62.249
2015    1       13     6  15    7.4145   534.7    4.587      62.269
2015    1       13     6  20    7.4125   534.8    4.585      62.289
2015    1       13     6  25    7.4104   534.8    4.583      62.308
2015    1       13     6  30    7.4084   534.9    4.581      62.328
2015    1       13     6  34    7.4063   535.0    4.579      62.347
2015    1       13     6  39    7.4043   535.0    4.577      62.367
2015    1       13     6  44    7.4023   535.1    4.576      62.386
2015    1       13     6  49    7.4002   535.1    4.574      62.405
2015    1       13     6  54    7.3982   535.2    4.572      62.425
2015    1       13     6  59    7.3961   535.3    4.570      62.444
2015    1       13     7   4    7.3941   535.3    4.568      62.463
2015    1       13     7   9    7.3920   535.4    4.566      62.482
2015    1       13     7  14    7.3899   535.4    4.564      62.502
2015    1       13     7  19    7.3879   535.5    4.562      62.521
2015    1       13     7  24    7.3858   535.5    4.561      62.540
2015    1       13     7  28    7.3838   535.6    4.559      62.559
2015    1       13     7  33    7.3817   535.6    4.557      62.578
2015    1       13     7  38    7.3797   535.7    4.555      62.597
2015    1       13     7  43    7.3776   535.7    4.553      62.617
2015    1       13     7  48    7.3756   535.8    4.551      62.636
2015    1       13     7  53    7.3735   535.9    4.549      62.655
2015    1       13     7  58    7.3715   535.9    4.548      62.674
2015    1       13     8   3    7.3694   536.0    4.546      62.693
2015    1       13     8   8    7.3673   536.0    4.544      62.712
2015    1       13     8  13    7.3653   536.1    4.542      62.731
2015    1       13     8  18    7.3632   536.1    4.540      62.750
2015    1       13     8  23    7.3611   536.2    4.538      62.769
2015    1       13     8  27    7.3590   536.2    4.536      62.788
2015    1       13     8  32    7.3569   536.3    4.535      62.807
2015    1       13     8  37    7.3548   536.3    4.533      62.825
2015    1       13     8  42    7.3527   536.4    4.531      62.844
2015    1       13     8  47    7.3506   536.4    4.529      62.862
2015    1       13     8  52    7.3485   536.5    4.527      62.880
2015    1       13     8  57    7.3463   536.5    4.525      62.898
2015    1       13     9   2    7.3442   536.6    4.523      62.916
2015    1       13     9   7    7.3420   536.6    4.521      62.934
2015    1       13     9  12    7.3399   536.7    4.520      62.951
2015    1       13     9  17    7.3377   536.7    4.518      62.968
2015    1       13     9  21    7.3355   536.8    4.516      62.986
2015    1       13     9  26    7.3333   536.8    4.514      63.002
2015    1       13     9  31    7.3312   536.9    4.512      63.019
2015    1       13     9  36    7.3289   536.9    4.510      63.036
2015    1       13     9  41    7.3267   537.0    4.508      63.052
2015    1       13     9  46    7.3245   537.0    4.506      63.069
2015    1       13     9  51    7.3223   537.1    4.504      63.085
2015    1       13     9  56    7.3200   537.1    4.502      63.101
2015    1       13    10   1    7.3178   537.2    4.501      63.117
2015    1       13    10   6    7.3155   537.2    4.499      63.133
2015    1       13    10  11    7.3133   537.3    4.497      63.148
2015    1       13    10  15    7.3110   537.3    4.495      63.164
2015    1       13    10  20    7.3087   537.3    4.493      63.180
2015    1       13    10  25    7.3064   537.4    4.491      63.195
2015    1       13    10  30    7.3041   537.4    4.489      63.211
2015    1       13    10  35    7.3018   537.5    4.487      63.226
2015    1       13    10  40    7.2995   537.5    4.486      63.241
2015    1       13    10  45    7.2971   537.6    4.484      63.256
2015    1       13    10  50    7.2948   537.6    4.482      63.271
2015    1       13    10  55    7.2924   537.6    4.480      63.286
2015    1       13    11   0    7.2900   537.7    4.478      63.301
2015    1       13    11   5    7.2877   537.7    4.477      63.316
2015    1       13    11  10    7.2853   537.8    4.475      63.331
2015    1       13    11  14    7.2829   537.8    4.473      63.346
2015    1       13    11  19    7.2805   537.9    4.471      63.360
2015    1       13    11  24    7.2781   537.9    4.470      63.375
2015    1       13    11  29    7.2756   537.9    4.468      63.390
2015    1       13    11  34    7.2732   538.0    4.466      63.404
2015    1       13    11  39    7.2707   538.0    4.464      63.419
2015    1       13    11  44    7.2683   538.1    4.463      63.433
2015    1       13    11  49    7.2658   538.1    4.461      63.447
2015    1       13    11  54    7.2633   538.1    4.459      63.462
2015    1       13    11  59    7.2608   538.2    4.458      63.476
2015    1       13    12   4    7.2584   538.2    4.456      63.490
2015    1       13    12   9    7.2558   538.2    4.454      63.504
2015    1       13    12  13    7.2533   538.3    4.453      63.518
2015    1       13    12  18    7.2508   538.3    4.451      63.532
2015    1       13    12  23    7.2483   538.4    4.449      63.545
2015    1       13    12  28    7.2458   538.4    4.448      63.559
2015    1       13    12  33    7.2432   538.4    4.446      63.572
2015    1       13    12  38    7.2407   538.5    4.444      63.586
2015    1       13    12  43    7.2381   538.5    4.442      63.599
2015    1       13    12  48    7.2355   538.5    4.441      63.612
2015    1       13    12  53    7.2330   538.6    4.439      63.624
2015    1       13    12  58    7.2304   538.6    4.437      63.637
2015    1       13    13   3    7.2278   538.6    4.436      63.650
2015    1       13    13   8    7.2252   538.7    4.434      63.662
2015    1       13    13  12    7.2226   538.7    4.432      63.675
2015    1       13    13  17    7.2201   538.7    4.431      63.687
2015    1       13    13  22    7.2175   538.8    4.429      63.699
2015    1       13    13  27    7.2149   538.8    4.427      63.711
2015    1       13    13  32    7.2123   538.8    4.426      63.723
2015    1       13    13  37    7.2097   538.9    4.424      63.735
2015    1       13    13  42    7.2072   538.9    4.422      63.747
2015    1       13    13  47    7.2046   538.9    4.421      63.759
2015    1       13    13  52    7.2020   539.0    4.419      63.771
2015    1       13    13  57    7.1995   539.0    4.418      63.783
2015    1       13    14   2    7.1969   539.0    4.416      63.795
2015    1       13    14   6    7.1944   539.0    4.414      63.807
2015    1       13    14  11    7.1918   539.1    4.413      63.820
2015    1       13    14  16    7.1893   539.1    4.411      63.832
2015    1       13    14  21    7.1867   539.1    4.410      63.845
2015    1       13    14  26    7.1842   539.2    4.408      63.857
2015    1       13    14  31    7.1817   539.2    4.407      63.870
2015    1       13    14  36    7.1792   539.2    4.405      63.883
2015    1       13    14  41    7.1767   539.2    4.403      63.896
2015    1       13    14  46    7.1742   539.3    4.402      63.909
2015    1       13    14  51    7.1717   539.3    4.400      63.923
2015    1       13    14  56    7.1692   539.3    4.399      63.936
2015    1       13    15   1    7.1668   539.3    4.397      63.950
2015    1       13    15   5    7.1643   539.4    4.396      63.963
2015    1       13    15  10    7.1618   539.4    4.394      63.977
2015    1       13    15  15    7.1593   539.4    4.393      63.990
2015    1       13    15  20    7.1569   539.5    4.391      64.004
2015    1       13    15  25    7.1544   539.5    4.390      64.018
2015    1       13    15  30    7.1519   539.5    4.388      64.031
2015    1       13    15  35    7.1495   539.5    4.387      64.045
2015    1       13    15  40    7.1470   539.6    4.385      64.058
2015    1       13    15  45    7.1445   539.6    4.383      64.072
2015    1       13    15  50    7.1420   539.6    4.382      64.085
2015    1       13    15  55    7.1395   539.6    4.380      64.098
2015    1       13    15  59    7.1370   539.6    4.379      64.111
2015    1       13    16   4    7.1345   539.7    4.377      64.124
2015    1       13    16   9    7.1319   539.7    4.375      64.136
2015    1       13    16  14    7.1293   539.7    4.374      64.148
2015    1       13    16  19    7.1268   539.7    4.372      64.160
2015    1       13    16  24    7.1242   539.8    4.370      64.172
2015    1       13    16  29    7.1216   539.8    4.368      64.183
2015    1       13    16  34    7.1190   539.8    4.367      64.195
2015    1       13    16  39    7.1164   539.8    4.365      64.205
2015    1       13    16  44    7.1137   539.8    4.363      64.216
2015    1       13    16  49    7.1111   539.9    4.362      64.226
2015    1       13    16  54    7.1084   539.9    4.360      64.236
2015    1       13    16  58    7.1057   539.9    4.358      64.246
2015    1       13    17   3    7.1030   539.9    4.356      64.255
2015    1       13    17   8    7.1003   539.9    4.354      64.263
2015    1       13    17  13    7.0976   540.0    4.353      64.272
2015    1       13    17  18    7.0948   540.0    4.351      64.280
2015    1       13    17  23    7.0921   540.0    4.349      64.287
2015    1       13    17  28    7.0893   540.0    4.347      64.294
2015    1       13    17  33    7.0865   540.0    4.345      64.301
2015    1       13    17  38    7.0837   540.0    4.343      64.308
2015    1       13    17  43    7.0809   540.0    4.342      64.314
2015    1       13    17  48    7.0781   540.1    4.340      64.320
2015    1       13    17  52    7.0752   540.1    4.338      64.326
2015    1       13    17  57    7.0724   540.1    4.336      64.331
2015    1       13    18   2    7.0695   540.1    4.334      64.336
2015    1       13    18   7    7.0667   540.1    4.333      64.341
2015    1       13    18  12    7.0638   540.1    4.331      64.346
2015    1       13    18  17    7.0610   540.1    4.329      64.351
2015    1       13    18  22    7.0581   540.1    4.327      64.355
2015    1       13    18  27    7.0552   540.1    4.326      64.360
2015    1       13    18  32    7.0523   540.1    4.324      64.364
2015    1       13    18  37    7.0494   540.1    4.322      64.368
2015    1       13    18  42    7.0465   540.2    4.321      64.373
2015    1       13    18  47    7.0436   540.2    4.319      64.377
2015    1       13    18  51    7.0407   540.2    4.318      64.381
2015    1       13    18  56    7.0378   540.2    4.316      64.386
2015    1       13    19   1    7.0349   540.2    4.315      64.390
2015    1       13    19   6    7.0320   540.2    4.313      64.395
2015    1       13    19  11    7.0291   540.2    4.312      64.400
2015    1       13    19  16    7.0262   540.2    4.310      64.404
2015    1       13    19  21    7.0233   540.2    4.309      64.410
2015    1       13    19  26    7.0204   540.2    4.308      64.415
2015    1       13    19  31    7.0175   540.2    4.307      64.420
2015    1       13    19  36    7.0145   540.2    4.305      64.426
2015    1       13    19  41    7.0117   540.2    4.304      64.432
2015    1       13    19  46    7.0087   540.2    4.303      64.438
2015    1       13    19  50    7.0058   540.2    4.302      64.444
2015    1       13    19  55    7.0029   540.2    4.300      64.451
2015    1       13    20   0    7.0000   540.2    4.299      64.458
2015    1       13    20   5    6.9972   540.2    4.298      64.465
2015    1       13    20  10    6.9943   540.2    4.297      64.472
2015    1       13    20  15    6.9914   540.2    4.296      64.479
2015    1       13    20  20    6.9885   540.2    4.295      64.487
2015    1       13    20  25    6.9856   540.2    4.294      64.494
2015    1       13    20  30    6.9828   540.2    4.292      64.501
2015    1       13    20  35    6.9799   540.2    4.291      64.509
2015    1       13    20  40    6.9771   540.2    4.290      64.517
2015    1       13    20  45    6.9743   540.2    4.289      64.524
2015    1       13    20  49    6.9714   540.2    4.288      64.532
2015    1       13    20  54    6.9686   540.2    4.287      64.539
2015    1       13    20  59    6.9658   540.2    4.286      64.547
2015    1       13    21   4    6.9630   540.2    4.284      64.554
2015    1       13    21   9    6.9602   540.2    4.283      64.562
2015    1       13    21  14    6.9574   540.2    4.282      64.569
2015    1       13    21  19    6.9546   540.2    4.281      64.576
2015    1       13    21  24    6.9519   540.2    4.280      64.583
2015    1       13    21  29    6.9491   540.2    4.278      64.590
2015    1       13    21  34    6.9464   540.2    4.277      64.597
2015    1       13    21  39    6.9436   540.2    4.276      64.605
2015    1       13    21  43    6.9409   540.2    4.274      64.612
2015    1       13    21  48    6.9381   540.2    4.273      64.618
2015    1       13    21  53    6.9354   540.2    4.272      64.625
2015    1       13    21  58    6.9327   540.2    4.270      64.631
2015    1       13    22   3    6.9299   540.2    4.269      64.636
2015    1       13    22   8    6.9272   540.2    4.267      64.641
2015    1       13    22  13    6.9244   540.2    4.266      64.646
2015    1       13    22  18    6.9217   540.2    4.264      64.650
2015    1       13    22  23    6.9189   540.2    4.262      64.653
2015    1       13    22  28    6.9161   540.2    4.261      64.656
2015    1       13    22  33    6.9134   540.2    4.259      64.658
2015    1       13    22  38    6.9106   540.1    4.258      64.660
2015    1       13    22  42    6.9078   540.1    4.256      64.661
2015    1       13    22  47    6.9050   540.1    4.254      64.662
2015    1       13    22  52    6.9021   540.1    4.253      64.663
2015    1       13    22  57    6.8993   540.1    4.251      64.663
2015    1       13    23   2    6.8965   540.1    4.249      64.662
2015    1       13    23   7    6.8936   540.1    4.248      64.661
2015    1       13    23  12    6.8907   540.1    4.246      64.660
2015    1       13    23  17    6.8879   540.0    4.244      64.659
2015    1       13    23  22    6.8850   540.0    4.242      64.657
2015    1       13    23  27    6.8821   540.0    4.241      64.655
2015    1       13    23  32    6.8792   540.0    4.239      64.652
2015    1       13    23  36    6.8763   540.0    4.237      64.650
2015    1       13    23  41    6.8734   540.0    4.236      64.647
2015    1       13    23  46    6.8705   540.0    4.234      64.644
2015    1       13    23  51    6.8676   539.9    4.233      64.641
2015    1       13    23  56    6.8647   539.9    4.231      64.638
2015    1       14     0   1    6.8618   539.9    4.230      64.635
2015    1       14     0   6    6.8589   539.9    4.228      64.632
2015    1       14     0  11    6.8559   539.9    4.227      64.629
2015    1       14     0  16    6.8530   539.8    4.225      64.626
2015    1       14     0  21    6.8501   539.8    4.224      64.624
2015    1       14     0  26    6.8472   539.8    4.222      64.621
2015    1       14     0  30    6.8442   539.8    4.221      64.618
2015    1       14     0  35    6.8413   539.7    4.220      64.616
2015    1       14     0  40    6.8384   539.7    4.219      64.614
2015    1       14     0  45    6.8354   539.7    4.217      64.612
2015    1       14     0  50    6.8325   539.7    4.216      64.610
2015    1       14     0  55    6.8295   539.7    4.215      64.609
2015    1       14     1   0    6.8265   539.6    4.214      64.608
2015    1       14     1   5    6.8235   539.6    4.213      64.607
2015    1       14     1  10    6.8205   539.6    4.212      64.606
2015    1       14     1  15    6.8175   539.6    4.211      64.606
2015    1       14     1  20    6.8145   539.5    4.210      64.607
2015    1       14     1  25    6.8115   539.5    4.209      64.608
2015    1       14     1  29    6.8084   539.5    4.208      64.609
2015    1       14     1  34    6.8054   539.5    4.207      64.611
2015    1       14     1  39    6.8024   539.4    4.207      64.612
2015    1       14     1  44    6.7993   539.4    4.206      64.614
2015    1       14     1  49    6.7963   539.4    4.205      64.615
2015    1       14     1  54    6.7932   539.3    4.204      64.617
2015    1       14     1  59    6.7902   539.3    4.203      64.618
2015    1       14     2   4    6.7871   539.3    4.202      64.620
2015    1       14     2   9    6.7841   539.3    4.201      64.622
2015    1       14     2  14    6.7811   539.2    4.201      64.623
2015    1       14     2  19    6.7780   539.2    4.200      64.625
2015    1       14     2  24    6.7750   539.2    4.199      64.627
2015    1       14     2  28    6.7720   539.1    4.198      64.629
2015    1       14     2  33    6.7689   539.1    4.197      64.631
2015    1       14     2  38    6.7659   539.1    4.196      64.633
2015    1       14     2  43    6.7629   539.1    4.196      64.635
2015    1       14     2  48    6.7598   539.0    4.195      64.637
2015    1       14     2  53    6.7568   539.0    4.194      64.638
2015    1       14     2  58    6.7538   539.0    4.193      64.640
2015    1       14     3   3    6.7508   539.0    4.192      64.641
2015    1       14     3   8    6.7477   538.9    4.191      64.642
2015    1       14     3  13    6.7447   538.9    4.189      64.642
2015    1       14     3  18    6.7417   538.9    4.188      64.642
2015    1       14     3  23    6.7387   538.8    4.187      64.641
2015    1       14     3  27    6.7356   538.8    4.186      64.640
2015    1       14     3  32    6.7326   538.8    4.185      64.639
2015    1       14     3  37    6.7296   538.7    4.183      64.637
2015    1       14     3  42    6.7265   538.7    4.182      64.634
2015    1       14     3  47    6.7235   538.7    4.181      64.631
2015    1       14     3  52    6.7205   538.6    4.179      64.627
2015    1       14     3  57    6.7174   538.6    4.178      64.623
2015    1       14     4   2    6.7144   538.6    4.177      64.618
2015    1       14     4   7    6.7113   538.5    4.175      64.612
2015    1       14     4  12    6.7083   538.5    4.174      64.606
2015    1       14     4  17    6.7052   538.5    4.173      64.600
2015    1       14     4  21    6.7022   538.4    4.171      64.593
2015    1       14     4  26    6.6991   538.4    4.170      64.585
2015    1       14     4  31    6.6961   538.3    4.168      64.578
2015    1       14     4  36    6.6931   538.3    4.167      64.569
2015    1       14     4  41    6.6900   538.3    4.165      64.560
2015    1       14     4  46    6.6870   538.2    4.164      64.551
2015    1       14     4  51    6.6839   538.2    4.163      64.542
2015    1       14     4  56    6.6809   538.1    4.161      64.532
2015    1       14     5   1    6.6779   538.1    4.160      64.522
2015    1       14     5   6    6.6748   538.1    4.158      64.512
2015    1       14     5  11    6.6718   538.0    4.157      64.501
2015    1       14     5  16    6.6687   538.0    4.156      64.491
2015    1       14     5  20    6.6657   537.9    4.154      64.480
2015    1       14     5  25    6.6627   537.9    4.153      64.469
2015    1       14     5  30    6.6596   537.8    4.152      64.459
2015    1       14     5  35    6.6566   537.8    4.151      64.448
2015    1       14     5  40    6.6536   537.8    4.149      64.437
2015    1       14     5  45    6.6505   537.7    4.148      64.426
2015    1       14     5  50    6.6475   537.7    4.147      64.415
2015    1       14     5  55    6.6445   537.6    4.146      64.404
2015    1       14     6   0    6.6415   537.6    4.145      64.393
2015    1       14     6   5    6.6385   537.5    4.144      64.382
2015    1       14     6  10    6.6355   537.5    4.143      64.371
2015    1       14     6  14    6.6325   537.4    4.142      64.361
2015    1       14     6  19    6.6295   537.4    4.141      64.351
2015    1       14     6  24    6.6265   537.3    4.140      64.341
2015    1       14     6  29    6.6236   537.3    4.139      64.331
2015    1       14     6  34    6.6206   537.2    4.138      64.322
2015    1       14     6  39    6.6176   537.2    4.137      64.313
2015    1       14     6  44    6.6147   537.1    4.136      64.304
2015    1       14     6  49    6.6117   537.0    4.136      64.296
2015    1       14     6  54    6.6087   537.0    4.135      64.288
2015    1       14     6  59    6.6058   536.9    4.134      64.281
2015    1       14     7   4    6.6029   536.9    4.133      64.274
2015    1       14     7   9    6.5999   536.8    4.133      64.267
2015    1       14     7  13    6.5970   536.8    4.132      64.261
2015    1       14     7  18    6.5941   536.7    4.131      64.255
2015    1       14     7  23    6.5912   536.7    4.131      64.249
2015    1       14     7  28    6.5883   536.6    4.130      64.243
2015    1       14     7  33    6.5853   536.5    4.129      64.238
2015    1       14     7  38    6.5824   536.5    4.129      64.232
2015    1       14     7  43    6.5795   536.4    4.128      64.226
2015    1       14     7  48    6.5765   536.4    4.127      64.220
2015    1       14     7  53    6.5736   536.3    4.126      64.215
2015    1       14     7  58    6.5706   536.3    4.126      64.211
2015    1       14     8   3    6.5677   536.2    4.125      64.206
2015    1       14     8   7    6.5647   536.1    4.124      64.201
2015    1       14     8  12    6.5618   536.1    4.123      64.196
2015    1       14     8  17    6.5588   536.0    4.122      64.189
2015    1       14     8  22    6.5558   536.0    4.121      64.183
2015    1       14     8  27    6.5529   535.9    4.120      64.175
2015    1       14     8  32    6.5499   535.8    4.119      64.167
2015    1       14     8  37    6.5469   535.8    4.118      64.159
2015    1       14     8  42    6.5439   535.7    4.117      64.150
2015    1       14     8  47    6.5409   535.7    4.115      64.140
2015    1       14     8  52    6.5380   535.6    4.114      64.129
2015    1       14     8  57    6.5350   535.5    4.113      64.118
2015    1       14     9   2    6.5320   535.5    4.112      64.106
2015    1       14     9   6    6.5290   535.4    4.110      64.094
2015    1       14     9  11    6.5260   535.3    4.109      64.081
2015    1       14     9  16    6.5229   535.3    4.108      64.068
2015    1       14     9  21    6.5199   535.2    4.106      64.054
2015    1       14     9  26    6.5169   535.1    4.105      64.039
2015    1       14     9  31    6.5139   535.1    4.103      64.024
2015    1       14     9  36    6.5109   535.0    4.102      64.009
2015    1       14     9  41    6.5079   534.9    4.101      63.993
2015    1       14     9  46    6.5048   534.9    4.099      63.977
2015    1       14     9  51    6.5018   534.8    4.098      63.960
2015    1       14     9  56    6.4988   534.7    4.096      63.942
2015    1       14    10   1    6.4957   534.7    4.095      63.925
2015    1       14    10   5    6.4927   534.6    4.093      63.906
2015    1       14    10  10    6.4896   534.5    4.092      63.888
2015    1       14    10  15    6.4866   534.4    4.090      63.869
2015    1       14    10  20    6.4835   534.4    4.089      63.850
2015    1       14    10  25    6.4804   534.3    4.087      63.830
2015    1       14    10  30    6.4773   534.2    4.086      63.811
2015    1       14    10  35    6.4743   534.1    4.084      63.791
2015    1       14    10  40    6.4712   534.1    4.083      63.771
2015    1       14    10  45    6.4681   534.0    4.082      63.750
2015    1       14    10  50    6.4650   533.9    4.080      63.730
2015    1       14    10  55    6.4619   533.8    4.079      63.709
2015    1       14    11   0    6.4588   533.8    4.078      63.689
2015    1       14    11   4    6.4558   533.7    4.076      63.668
2015    1       14    11   9    6.4527   533.6    4.075      63.647
2015    1       14    11  14    6.4496   533.5    4.074      63.627
2015    1       14    11  19    6.4465   533.4    4.073      63.606
2015    1       14    11  24    6.4435   533.4    4.072      63.586
2015    1       14    11  29    6.4404   533.3    4.071      63.565
2015    1       14    11  34    6.4373   533.2    4.070      63.545
2015    1       14    11  39    6.4342   533.1    4.069      63.525
2015    1       14    11  44    6.4312   533.0    4.068      63.506
2015    1       14    11  49    6.4281   533.0    4.067      63.486
2015    1       14    11  54    6.4251   532.9    4.067      63.467
2015    1       14    11  58    6.4220   532.8    4.066      63.448
2015    1       14    12   3    6.4190   532.7    4.065      63.430
2015    1       14    12   8    6.4159   532.6    4.065      63.411
2015    1       14    12  13    6.4129   532.6    4.064      63.393
2015    1       14    12  18    6.4098   532.5    4.064      63.376
2015    1       14    12  23    6.4068   532.4    4.063      63.359
2015    1       14    12  28    6.4038   532.3    4.063      63.342
2015    1       14    12  33    6.4007   532.2    4.062      63.325
2015    1       14    12  38    6.3977   532.1    4.062      63.309
2015    1       14    12  43    6.3947   532.0    4.062      63.293
2015    1       14    12  48    6.3916   532.0    4.061      63.277
2015    1       14    12  53    6.3886   531.9    4.061      63.262
2015    1       14    12  57    6.3856   531.8    4.061      63.246
2015    1       14    13   2    6.3825   531.7    4.061      63.231
2015    1       14    13   7    6.3795   531.6    4.060      63.216
2015    1       14    13  12    6.3764   531.5    4.060      63.201
2015    1       14    13  17    6.3734   531.4    4.060      63.187
2015    1       14    13  22    6.3703   531.3    4.060      63.172
2015    1       14    13  27    6.3673   531.3    4.059      63.159
2015    1       14    13  32    6.3642   531.2    4.059      63.145
2015    1       14    13  37    6.3612   531.1    4.059      63.132
2015    1       14    13  42    6.3581   531.0    4.058      63.118
2015    1       14    13  47    6.3551   530.9    4.058      63.105
2015    1       14    13  51    6.3521   530.8    4.057      63.090
2015    1       14    13  56    6.3490   530.7    4.057      63.075
2015    1       14    14   1    6.3460   530.6    4.057      63.060
2015    1       14    14   6    6.3430   530.5    4.056      63.045
2015    1       14    14  11    6.3400   530.4    4.055      63.029
2015    1       14    14  16    6.3370   530.3    4.055      63.013
2015    1       14    14  21    6.3340   530.2    4.054      62.996
2015    1       14    14  26    6.3310   530.1    4.054      62.978
2015    1       14    14  31    6.3280   530.0    4.053      62.961
2015    1       14    14  36    6.3251   529.9    4.053      62.942
2015    1       14    14  41    6.3222   529.8    4.052      62.924
2015    1       14    14  45    6.3193   529.7    4.051      62.905
2015    1       14    14  50    6.3164   529.6    4.051      62.886
2015    1       14    14  55    6.3135   529.5    4.050      62.866
2015    1       14    15   0    6.3106   529.4    4.049      62.846
2015    1       14    15   5    6.3078   529.3    4.049      62.826
2015    1       14    15  10    6.3049   529.2    4.048      62.806
2015    1       14    15  15    6.3021   529.0    4.048      62.785
2015    1       14    15  20    6.2993   528.9    4.047      62.764
2015    1       14    15  25    6.2965   528.8    4.047      62.743
2015    1       14    15  30    6.2937   528.7    4.046      62.722
2015    1       14    15  35    6.2909   528.6    4.045      62.701
2015    1       14    15  40    6.2882   528.5    4.045      62.680
2015    1       14    15  44    6.2854   528.4    4.044      62.658
2015    1       14    15  49    6.2827   528.3    4.044      62.637
2015    1       14    15  54    6.2800   528.2    4.043      62.615
2015    1       14    15  59    6.2772   528.1    4.043      62.594
2015    1       14    16   4    6.2745   528.0    4.043      62.572
2015    1       14    16   9    6.2718   527.9    4.042      62.551
2015    1       14    16  14    6.2691   527.8    4.042      62.530
2015    1       14    16  19    6.2664   527.7    4.041      62.509
2015    1       14    16  24    6.2636   527.5    4.041      62.488
2015    1       14    16  29    6.2609   527.4    4.040      62.468
2015    1       14    16  34    6.2581   527.3    4.040      62.448
2015    1       14    16  39    6.2553   527.2    4.039      62.427
2015    1       14    16  43    6.2526   527.1    4.038      62.406
2015    1       14    16  48    6.2498   527.0    4.038      62.384
2015    1       14    16  53    6.2470   526.9    4.037      62.362
2015    1       14    16  58    6.2442   526.8    4.036      62.340
2015    1       14    17   3    6.2414   526.7    4.035      62.317
2015    1       14    17   8    6.2386   526.6    4.035      62.293
2015    1       14    17  13    6.2358   526.4    4.034      62.270
2015    1       14    17  18    6.2330   526.3    4.033      62.245
2015    1       14    17  23    6.2302   526.2    4.032      62.221
2015    1       14    17  28    6.2274   526.1    4.031      62.196
2015    1       14    17  33    6.2246   526.0    4.030      62.171
2015    1       14    17  38    6.2218   525.9    4.030      62.146
2015    1       14    17  42    6.2189   525.8    4.029      62.120
2015    1       14    17  47    6.2161   525.7    4.028      62.095
2015    1       14    17  52    6.2133   525.5    4.027      62.069
2015    1       14    17  57    6.2105   525.4    4.026      62.043
2015    1       14    18   2    6.2077   525.3    4.025      62.017
2015    1       14    18   7    6.2049   525.2    4.025      61.991
2015    1       14    18  12    6.2021   525.1    4.024      61.965
2015    1       14    18  17    6.1993   525.0    4.023      61.939
2015    1       14    18  22    6.1965   524.8    4.022      61.913
2015    1       14    18  27    6.1937   524.7    4.022      61.887
2015    1       14    18  32    6.1909   524.6    4.021      61.861
2015    1       14    18  36    6.1880   524.5    4.020      61.836
2015    1       14    18  41    6.1852   524.4    4.019      61.810
2015    1       14    18  46    6.1824   524.3    4.019      61.784
2015    1       14    18  51    6.1796   524.2    4.018      61.758
2015    1       14    18  56    6.1768   524.0    4.017      61.732
2015    1       14    19   1    6.1739   523.9    4.017      61.706
2015    1       14    19   6    6.1711   523.8    4.016      61.680
2015    1       14    19  11    6.1682   523.7    4.016      61.654
2015    1       14    19  16    6.1654   523.6    4.015      61.628
2015    1       14    19  21    6.1625   523.4    4.014      61.601
2015    1       14    19  26    6.1597   523.3    4.014      61.575
2015    1       14    19  31    6.1568   523.2    4.013      61.548
2015    1       14    19  35    6.1539   523.1    4.012      61.521
2015    1       14    19  40    6.1510   523.0    4.012      61.494
2015    1       14    19  45    6.1481   522.8    4.011      61.467
2015    1       14    19  50    6.1452   522.7    4.010      61.439
2015    1       14    19  55    6.1423   522.6    4.010      61.411
2015    1       14    20   0    6.1394   522.5    4.009      61.383
2015    1       14    20   5    6.1365   522.3    4.008      61.354
2015    1       14    20  10    6.1336   522.2    4.007      61.325
2015    1       14    20  15    6.1307   522.1    4.006      61.297
2015    1       14    20  20    6.1278   521.9    4.006      61.268
2015    1       14    20  25    6.1249   521.8    4.005      61.238
2015    1       14    20  29    6.1220   521.7    4.004      61.209
2015    1       14    20  34    6.1190   521.6    4.003      61.179
2015    1       14    20  39    6.1161   521.4    4.003      61.149
2015    1       14    20  44    6.1132   521.3    4.002      61.119
2015    1       14    20  49    6.1103   521.2    4.001      61.089
2015    1       14    20  54    6.1074   521.0    4.000      61.059
2015    1       14    20  59    6.1045   520.9    3.999      61.028
2015    1       14    21   4    6.1017   520.7    3.999      60.998
2015    1       14    21   9    6.0988   520.6    3.998      60.967
2015    1       14    21  14    6.0960   520.5    3.997      60.937
2015    1       14    21  19    6.0931   520.3    3.997      60.907
2015    1       14    21  24    6.0903   520.2    3.996      60.876
2015    1       14    21  28    6.0875   520.1    3.996      60.846
2015    1       14    21  33    6.0847   519.9    3.995      60.816
2015    1       14    21  38    6.0819   519.8    3.995      60.787
2015    1       14    21  43    6.0792   519.6    3.994      60.757
2015    1       14    21  48    6.0764   519.5    3.994      60.728
2015    1       14    21  53    6.0737   519.4    3.994      60.700
2015    1       14    21  58    6.0710   519.2    3.994      60.671
2015    1       14    22   3    6.0684   519.1    3.994      60.644
2015    1       14    22   8    6.0657   518.9    3.994      60.616
2015    1       14    22  13    6.0631   518.8    3.994      60.589
2015    1       14    22  18    6.0605   518.7    3.994      60.562
2015    1       14    22  22    6.0579   518.5    3.994      60.536
2015    1       14    22  27    6.0553   518.4    3.994      60.511
2015    1       14    22  32    6.0528   518.2    3.995      60.486
2015    1       14    22  37    6.0503   518.1    3.995      60.462
2015    1       14    22  42    6.0477   518.0    3.996      60.439
2015    1       14    22  47    6.0453   517.8    3.996      60.416
2015    1       14    22  52    6.0428   517.7    3.997      60.395
2015    1       14    22  57    6.0403   517.5    3.998      60.374
2015    1       14    23   2    6.0379   517.4    3.999      60.354
2015    1       14    23   7    6.0354   517.2    4.000      60.335
2015    1       14    23  12    6.0330   517.1    4.001      60.318
2015    1       14    23  17    6.0306   517.0    4.002      60.302
2015    1       14    23  21    6.0282   516.8    4.003      60.286
2015    1       14    23  26    6.0258   516.7    4.004      60.271
2015    1       14    23  31    6.0233   516.5    4.005      60.256
2015    1       14    23  36    6.0209   516.4    4.006      60.242
2015    1       14    23  41    6.0185   516.3    4.007      60.227
2015    1       14    23  46    6.0160   516.1    4.008      60.212
2015    1       14    23  51    6.0136   516.0    4.009      60.197
2015    1       14    23  56    6.0111   515.8    4.010      60.181
2015    1       15     0   1    6.0087   515.7    4.011      60.165
2015    1       15     0   6    6.0062   515.6    4.012      60.149
2015    1       15     0  11    6.0037   515.4    4.012      60.132
2015    1       15     0  16    6.0012   515.3    4.013      60.115
2015    1       15     0  20    5.9988   515.2    4.014      60.097
2015    1       15     0  25    5.9963   515.0    4.015      60.079
2015    1       15     0  30    5.9938   514.9    4.015      60.061
2015    1       15     0  35    5.9913   514.7    4.016      60.042
2015    1       15     0  40    5.9888   514.6    4.016      60.022
2015    1       15     0  45    5.9863   514.5    4.017      60.002
2015    1       15     0  50    5.9838   514.3    4.018      59.982
2015    1       15     0  55    5.9813   514.2    4.018      59.960
2015    1       15     1   0    5.9788   514.0    4.019      59.939
2015    1       15     1   5    5.9763   513.9    4.019      59.917
2015    1       15     1  10    5.9738   513.8    4.019      59.895
2015    1       15     1  15    5.9714   513.6    4.020      59.872
2015    1       15     1  19    5.9689   513.5    4.020      59.850
2015    1       15     1  24    5.9664   513.3    4.020      59.827
2015    1       15     1  29    5.9639   513.2    4.021      59.805
2015    1       15     1  34    5.9615   513.0    4.021      59.781
2015    1       15     1  39    5.9591   512.9    4.021      59.758
2015    1       15     1  44    5.9566   512.8    4.021      59.734
2015    1       15     1  49    5.9542   512.6    4.021      59.710
2015    1       15     1  54    5.9517   512.5    4.021      59.685
2015    1       15     1  59    5.9493   512.3    4.021      59.660
2015    1       15     2   4    5.9468   512.2    4.021      59.635
2015    1       15     2   9    5.9444   512.0    4.021      59.609
2015    1       15     2  13    5.9419   511.9    4.021      59.583
2015    1       15     2  18    5.9395   511.8    4.021      59.556
2015    1       15     2  23    5.9370   511.6    4.021      59.529
2015    1       15     2  28    5.9345   511.5    4.021      59.501
2015    1       15     2  33    5.9321   511.3    4.020      59.473
2015    1       15     2  38    5.9296   511.2    4.020      59.444
2015    1       15     2  43    5.9271   511.0    4.020      59.415
2015    1       15     2  48    5.9246   510.9    4.019      59.386
2015    1       15     2  53    5.9221   510.7    4.019      59.356
2015    1       15     2  58    5.9196   510.6    4.018      59.325
2015    1       15     3   3    5.9171   510.4    4.018      59.294
2015    1       15     3   8    5.9146   510.3    4.017      59.263
2015    1       15     3  12    5.9121   510.1    4.016      59.231
2015    1       15     3  17    5.9095   510.0    4.016      59.199
2015    1       15     3  22    5.9070   509.8    4.015      59.166
2015    1       15     3  27    5.9045   509.7    4.014      59.133
2015    1       15     3  32    5.9020   509.5    4.014      59.099
2015    1       15     3  37    5.8994   509.4    4.013      59.065
2015    1       15     3  42    5.8969   509.2    4.012      59.030
2015    1       15     3  47    5.8943   509.1    4.012      58.995
2015    1       15     3  52    5.8918   508.9    4.011      58.960
2015    1       15     3  57    5.8892   508.8    4.010      58.924
2015    1       15     4   2    5.8867   508.6    4.009      58.888
2015    1       15     4   6    5.8841   508.5    4.008      58.852
2015    1       15     4  11    5.8816   508.3    4.008      58.815
2015    1       15     4  16    5.8790   508.2    4.007      58.779
2015    1       15     4  21    5.8765   508.0    4.006      58.742
2015    1       15     4  26    5.8739   507.8    4.005      58.705
2015    1       15     4  31    5.8714   507.7    4.005      58.667
2015    1       15     4  36    5.8689   507.5    4.004      58.630
2015    1       15     4  41    5.8663   507.4    4.003      58.592
2015    1       15     4  46    5.8638   507.2    4.003      58.555
2015    1       15     4  51    5.8613   507.0    4.002      58.517
2015    1       15     4  56    5.8588   506.9    4.001      58.480
2015    1       15     5   1    5.8563   506.7    4.001      58.443
2015    1       15     5   5    5.8538   506.5    4.000      58.405
2015    1       15     5  10    5.8513   506.4    4.000      58.368
2015    1       15     5  15    5.8489   506.2    3.999      58.331
2015    1       15     5  20    5.8464   506.0    3.999      58.295
2015    1       15     5  25    5.8440   505.9    3.999      58.258
2015    1       15     5  30    5.8415   505.7    3.998      58.222
2015    1       15     5  35    5.8391   505.5    3.998      58.187
2015    1       15     5  40    5.8367   505.4    3.998      58.151
2015    1       15     5  45    5.8343   505.2    3.998      58.117
2015    1       15     5  50    5.8319   505.0    3.998      58.083
2015    1       15     5  55    5.8296   504.9    3.998      58.049
2015    1       15     5  59    5.8273   504.7    3.998      58.016
2015    1       15     6   4    5.8250   504.5    3.999      57.984
2015    1       15     6   9    5.8227   504.3    3.999      57.953
2015    1       15     6  14    5.8205   504.2    3.999      57.923
2015    1       15     6  19    5.8182   504.0    4.000      57.893
2015    1       15     6  24    5.8160   503.8    4.001      57.865
2015    1       15     6  29    5.8138   503.6    4.001      57.837
2015    1       15     6  34    5.8116   503.5    4.002      57.809
2015    1       15     6  39    5.8094   503.3    4.003      57.782
2015    1       15     6  44    5.8072   503.1    4.003      57.756
2015    1       15     6  49    5.8050   503.0    4.004      57.729
2015    1       15     6  53    5.8028   502.8    4.005      57.703
2015    1       15     6  58    5.8007   502.6    4.006      57.677
2015    1       15     7   3    5.7985   502.4    4.007      57.651
2015    1       15     7   8    5.7963   502.3    4.008      57.626
2015    1       15     7  13    5.7942   502.1    4.009      57.601
2015    1       15     7  18    5.7920   501.9    4.010      57.576
2015    1       15     7  23    5.7899   501.7    4.011      57.551
2015    1       15     7  28    5.7877   501.6    4.012      57.526
2015    1       15     7  33    5.7856   501.4    4.013      57.501
2015    1       15     7  38    5.7834   501.2    4.014      57.477
2015    1       15     7  43    5.7813   501.1    4.016      57.452
2015    1       15     7  48    5.7791   500.9    4.017      57.428
2015    1       15     7  52    5.7770   500.7    4.018      57.404
2015    1       15     7  57    5.7749   500.5    4.020      57.380
2015    1       15     8   2    5.7728   500.3    4.021      57.356
2015    1       15     8   7    5.7707   500.2    4.022      57.333
2015    1       15     8  12    5.7686   500.0    4.024      57.310
2015    1       15     8  17    5.7665   499.8    4.025      57.288
2015    1       15     8  22    5.7644   499.6    4.027      57.266
2015    1       15     8  27    5.7624   499.4    4.028      57.245
2015    1       15     8  32    5.7604   499.3    4.030      57.223
2015    1       15     8  37    5.7584   499.1    4.031      57.202
2015    1       15     8  42    5.7564   498.9    4.033      57.181
2015    1       15     8  47    5.7544   498.7    4.035      57.160
2015    1       15     8  51    5.7524   498.5    4.036      57.140
2015    1       15     8  56    5.7504   498.4    4.038      57.120
2015    1       15     9   1    5.7485   498.2    4.039      57.099
2015    1       15     9   6    5.7465   498.0    4.041      57.079
2015    1       15     9  11    5.7446   497.8    4.043      57.059
2015    1       15     9  16    5.7427   497.7    4.044      57.039
2015    1       15     9  21    5.7408   497.5    4.046      57.019
2015    1       15     9  26    5.7388   497.3    4.048      56.999
2015    1       15     9  31    5.7369   497.1    4.049      56.979
2015    1       15     9  36    5.7350   496.9    4.051      56.959
2015    1       15     9  41    5.7331   496.8    4.052      56.939
2015    1       15     9  46    5.7312   496.6    4.054      56.919
2015    1       15     9  50    5.7293   496.4    4.056      56.898
2015    1       15     9  55    5.7274   496.2    4.057      56.878
2015    1       15    10   0    5.7255   496.1    4.059      56.857
2015    1       15    10   5    5.7236   495.9    4.060      56.836
2015    1       15    10  10    5.7217   495.7    4.062      56.815
2015    1       15    10  15    5.7197   495.5    4.063      56.794
2015    1       15    10  20    5.7178   495.4    4.064      56.772
2015    1       15    10  25    5.7158   495.2    4.066      56.749
2015    1       15    10  30    5.7138   495.0    4.067      56.727
2015    1       15    10  35    5.7119   494.8    4.068      56.703
2015    1       15    10  40    5.7099   494.6    4.069      56.680
2015    1       15    10  44    5.7079   494.4    4.070      56.656
2015    1       15    10  49    5.7059   494.3    4.071      56.631
2015    1       15    10  54    5.7039   494.1    4.072      56.606
2015    1       15    10  59    5.7019   493.9    4.073      56.581
2015    1       15    11   4    5.6999   493.7    4.074      56.555
2015    1       15    11   9    5.6979   493.5    4.075      56.529
2015    1       15    11  14    5.6960   493.3    4.076      56.502
2015    1       15    11  19    5.6940   493.2    4.077      56.476
2015    1       15    11  24    5.6920   493.0    4.078      56.449
2015    1       15    11  29    5.6901   492.8    4.079      56.421
2015    1       15    11  34    5.6881   492.6    4.079      56.394
2015    1       15    11  39    5.6861   492.4    4.080      56.365
2015    1       15    11  43    5.6842   492.2    4.081      56.337
2015    1       15    11  48    5.6823   492.1    4.081      56.308
2015    1       15    11  53    5.6804   491.9    4.082      56.278
2015    1       15    11  58    5.6785   491.7    4.082      56.248
2015    1       15    12   3    5.6766   491.5    4.083      56.218
2015    1       15    12   8    5.6747   491.3    4.083      56.187
2015    1       15    12  13    5.6728   491.1    4.084      56.157
2015    1       15    12  18    5.6709   490.9    4.084      56.125
2015    1       15    12  23    5.6690   490.7    4.085      56.094
2015    1       15    12  28    5.6671   490.6    4.085      56.062
2015    1       15    12  33    5.6653   490.4    4.086      56.030
2015    1       15    12  37    5.6634   490.2    4.086      55.998
2015    1       15    12  42    5.6616   490.0    4.087      55.965
2015    1       15    12  47    5.6597   489.8    4.087      55.932
2015    1       15    12  52    5.6579   489.6    4.087      55.899
2015    1       15    12  57    5.6560   489.4    4.088      55.866
2015    1       15    13   2    5.6542   489.2    4.088      55.833
2015    1       15    13   7    5.6524   489.0    4.089      55.800
2015    1       15    13  12    5.6506   488.8    4.089      55.767
2015    1       15    13  17    5.6488   488.6    4.089      55.733
2015    1       15    13  22    5.6470   488.4    4.090      55.700
2015    1       15    13  27    5.6453   488.3    4.090      55.666
2015    1       15    13  32    5.6435   488.1    4.091      55.633
2015    1       15    13  36    5.6418   487.9    4.091      55.599
2015    1       15    13  41    5.6400   487.7    4.092      55.566
2015    1       15    13  46    5.6383   487.5    4.092      55.533
2015    1       15    13  51    5.6365   487.3    4.093      55.499
2015    1       15    13  56    5.6348   487.1    4.093      55.466
2015    1       15    14   1    5.6331   486.9    4.094      55.432
2015    1       15    14   6    5.6314   486.7    4.095      55.399
2015    1       15    14  11    5.6297   486.5    4.095      55.366
2015    1       15    14  16    5.6280   486.3    4.096      55.333
2015    1       15    14  21    5.6264   486.1    4.097      55.300
2015    1       15    14  26    5.6247   485.9    4.098      55.267
2015    1       15    14  30    5.6230   485.7    4.099      55.235
2015    1       15    14  35    5.6213   485.5    4.099      55.203
2015    1       15    14  40    5.6197   485.3    4.100      55.170
2015    1       15    14  45    5.6180   485.1    4.101      55.138
2015    1       15    14  50    5.6164   484.9    4.102      55.106
2015    1       15    14  55    5.6148   484.7    4.103      55.075
2015    1       15    15   0    5.6131   484.5    4.105      55.044
2015    1       15    15   5    5.6115   484.3    4.106      55.013
2015    1       15    15  10    5.6099   484.1    4.107      54.982
2015    1       15    15  15    5.6083   483.9    4.108      54.952
2015    1       15    15  20    5.6068   483.7    4.110      54.922
2015    1       15    15  25    5.6052   483.4    4.111      54.892
2015    1       15    15  29    5.6037   483.2    4.113      54.863
2015    1       15    15  34    5.6022   483.0    4.114      54.835
2015    1       15    15  39    5.6007   482.8    4.116      54.807
2015    1       15    15  44    5.5992   482.6    4.117      54.779
2015    1       15    15  49    5.5978   482.4    4.119      54.752
2015    1       15    15  54    5.5964   482.2    4.121      54.725
2015    1       15    15  59    5.5949   482.0    4.123      54.699
2015    1       15    16   4    5.5936   481.8    4.125      54.673
2015    1       15    16   9    5.5922   481.6    4.127      54.648
2015    1       15    16  14    5.5909   481.4    4.129      54.624
2015    1       15    16  19    5.5895   481.2    4.131      54.599
2015    1       15    16  24    5.5883   481.0    4.133      54.576
2015    1       15    16  28    5.5870   480.8    4.136      54.553
2015    1       15    16  33    5.5857   480.5    4.138      54.530
2015    1       15    16  38    5.5845   480.3    4.140      54.508
2015    1       15    16  43    5.5832   480.1    4.143      54.486
2015    1       15    16  48    5.5820   479.9    4.145      54.465
2015    1       15    16  53    5.5808   479.7    4.148      54.445
2015    1       15    16  58    5.5796   479.5    4.150      54.424
2015    1       15    17   3    5.5784   479.3    4.153      54.404
2015    1       15    17   8    5.5773   479.1    4.155      54.384
2015    1       15    17  13    5.5761   478.9    4.158      54.365
2015    1       15    17  18    5.5750   478.7    4.161      54.346
2015    1       15    17  23    5.5738   478.5    4.163      54.327
2015    1       15    17  27    5.5727   478.3    4.166      54.308
2015    1       15    17  32    5.5716   478.1    4.168      54.289
2015    1       15    17  37    5.5705   477.9    4.171      54.271
2015    1       15    17  42    5.5694   477.7    4.174      54.253
2015    1       15    17  47    5.5684   477.4    4.177      54.235
2015    1       15    17  52    5.5673   477.2    4.179      54.217
2015    1       15    17  57    5.5663   477.0    4.182      54.199
2015    1       15    18   2    5.5653   476.8    4.185      54.181
2015    1       15    18   7    5.5643   476.6    4.188      54.164
2015    1       15    18  12    5.5633   476.4    4.190      54.147
2015    1       15    18  17    5.5624   476.2    4.193      54.129
2015    1       15    18  21    5.5615   476.0    4.196      54.112
2015    1       15    18  26    5.5606   475.8    4.199      54.095
2015    1       15    18  31    5.5597   475.6    4.201      54.077
2015    1       15    18  36    5.5588   475.4    4.204      54.060
2015    1       15    18  41    5.5579   475.2    4.207      54.043
2015    1       15    18  46    5.5571   475.0    4.209      54.026
2015    1       15    18  51    5.5563   474.8    4.212      54.008
2015    1       15    18  56    5.5555   474.6    4.215      53.991
2015    1       15    19   1    5.5547   474.4    4.217      53.974
2015    1       15    19   6    5.5539   474.2    4.220      53.956
2015    1       15    19  11    5.5531   474.0    4.223      53.939
2015    1       15    19  15    5.5523   473.8    4.225      53.921
2015    1       15    19  20    5.5516   473.6    4.228      53.904
2015    1       15    19  25    5.5508   473.4    4.231      53.886
2015    1       15    19  30    5.5501   473.2    4.233      53.868
2015    1       15    19  35    5.5494   473.0    4.236      53.850
2015    1       15    19  40    5.5487   472.8    4.238      53.832
2015    1       15    19  45    5.5480   472.6    4.241      53.814
2015    1       15    19  50    5.5473   472.4    4.243      53.796
2015    1       15    19  55    5.5466   472.2    4.246      53.777
2015    1       15    20   0    5.5459   472.0    4.248      53.759
2015    1       15    20   5    5.5452   471.8    4.250      53.740
2015    1       15    20  10    5.5446   471.6    4.253      53.722
2015    1       15    20  14    5.5439   471.4    4.255      53.703
2015    1       15    20  19    5.5433   471.2    4.257      53.684
2015    1       15    20  24    5.5426   471.0    4.260      53.664
2015    1       15    20  29    5.5420   470.8    4.262      53.645
2015    1       15    20  34    5.5414   470.6    4.264      53.625
2015    1       15    20  39    5.5407   470.4    4.267      53.605
2015    1       15    20  44    5.5401   470.2    4.269      53.586
2015    1       15    20  49    5.5395   470.0    4.271      53.565
2015    1       15    20  54    5.5389   469.8    4.273      53.545
2015    1       15    20  59    5.5382   469.6    4.275      53.525
2015    1       15    21   4    5.5376   469.4    4.277      53.504
2015    1       15    21   8    5.5370   469.2    4.280      53.483
2015    1       15    21  13    5.5364   469.0    4.282      53.462
2015    1       15    21  18    5.5358   468.8    4.284      53.441
2015    1       15    21  23    5.5352   468.6    4.286      53.420
2015    1       15    21  28    5.5347   468.4    4.288      53.399
2015    1       15    21  33    5.5341   468.2    4.290      53.377
2015    1       15    21  38    5.5335   468.0    4.292      53.356
2015    1       15    21  43    5.5330   467.8    4.294      53.334
2015    1       15    21  48    5.5324   467.6    4.296      53.312
2015    1       15    21  53    5.5319   467.4    4.298      53.290
2015    1       15    21  58    5.5313   467.2    4.300      53.268
2015    1       15    22   3    5.5308   467.0    4.303      53.246
2015    1       15    22   7    5.5303   466.8    4.305      53.224
2015    1       15    22  12    5.5298   466.6    4.307      53.203
2015    1       15    22  17    5.5293   466.4    4.309      53.181
2015    1       15    22  22    5.5288   466.2    4.311      53.159
2015    1       15    22  27    5.5283   466.0    4.313      53.137
2015    1       15    22  32    5.5279   465.8    4.316      53.115
2015    1       15    22  37    5.5275   465.6    4.318      53.094
2015    1       15    22  42    5.5271   465.4    4.320      53.072
2015    1       15    22  47    5.5267   465.2    4.323      53.051
2015    1       15    22  52    5.5263   465.0    4.325      53.030
2015    1       15    22  57    5.5259   464.8    4.327      53.010
2015    1       15    23   2    5.5256   464.6    4.330      52.989
2015    1       15    23   6    5.5253   464.4    4.332      52.969
2015    1       15    23  11    5.5250   464.2    4.335      52.949
2015    1       15    23  16    5.5248   464.0    4.338      52.929
2015    1       15    23  21    5.5245   463.8    4.340      52.910
2015    1       15    23  26    5.5244   463.6    4.343      52.891
2015    1       15    23  31    5.5242   463.4    4.346      52.873
2015    1       15    23  36    5.5240   463.2    4.349      52.855
2015    1       15    23  41    5.5239   463.0    4.352      52.837
2015    1       15    23  46    5.5238   462.8    4.354      52.819
2015    1       15    23  51    5.5237   462.6    4.357      52.802
2015    1       15    23  56    5.5237   462.4    4.361      52.786
2015    1       16     0   1    5.5237   462.2    4.364      52.769
