year    month   day   hour  minute  B_enl V_enl   n_enl       T_enl
[year] [month] [day] [hour][minute] [nT]  [km/s]  [cm-3]      [kK]
2015    1       28     0   1    5.5462   518.4    5.188      53.989
2015    1       28     0   6    5.5435   518.5    5.185      53.978
2015    1       28     0  12    5.5409   518.5    5.182      53.968
2015    1       28     0  17    5.5382   518.6    5.178      53.956
2015    1       28     0  23    5.5355   518.6    5.175      53.945
2015    1       28     0  28    5.5328   518.7    5.172      53.934
2015    1       28     0  33    5.5301   518.7    5.169      53.922
2015    1       28     0  39    5.5274   518.8    5.165      53.910
2015    1       28     0  44    5.5246   518.8    5.162      53.898
2015    1       28     0  50    5.5218   518.9    5.159      53.886
2015    1       28     0  55    5.5191   518.9    5.156      53.874
2015    1       28     1   0    5.5163   519.0    5.153      53.862
2015    1       28     1   6    5.5135   519.0    5.150      53.850
2015    1       28     1  11    5.5107   519.1    5.147      53.838
2015    1       28     1  16    5.5079   519.1    5.145      53.825
2015    1       28     1  22    5.5051   519.2    5.142      53.813
2015    1       28     1  27    5.5023   519.2    5.139      53.800
2015    1       28     1  33    5.4994   519.3    5.136      53.788
2015    1       28     1  38    5.4966   519.3    5.133      53.775
2015    1       28     1  43    5.4937   519.4    5.130      53.762
2015    1       28     1  49    5.4909   519.4    5.128      53.749
2015    1       28     1  54    5.4880   519.5    5.125      53.737
2015    1       28     2   0    5.4851   519.5    5.122      53.724
2015    1       28     2   5    5.4822   519.5    5.119      53.711
2015    1       28     2  10    5.4794   519.6    5.116      53.698
2015    1       28     2  16    5.4765   519.6    5.114      53.685
2015    1       28     2  21    5.4736   519.6    5.111      53.672
2015    1       28     2  27    5.4707   519.7    5.108      53.658
2015    1       28     2  32    5.4678   519.7    5.105      53.645
2015    1       28     2  37    5.4649   519.7    5.102      53.633
2015    1       28     2  43    5.4621   519.8    5.099      53.620
2015    1       28     2  48    5.4592   519.8    5.097      53.607
2015    1       28     2  54    5.4563   519.8    5.094      53.594
2015    1       28     2  59    5.4535   519.9    5.091      53.582
2015    1       28     3   4    5.4506   519.9    5.088      53.569
2015    1       28     3  10    5.4478   519.9    5.085      53.557
2015    1       28     3  15    5.4449   519.9    5.082      53.544
2015    1       28     3  20    5.4421   520.0    5.079      53.532
2015    1       28     3  26    5.4393   520.0    5.077      53.520
2015    1       28     3  31    5.4365   520.0    5.074      53.508
2015    1       28     3  37    5.4337   520.0    5.071      53.496
2015    1       28     3  42    5.4310   520.0    5.068      53.484
2015    1       28     3  47    5.4282   520.0    5.065      53.472
2015    1       28     3  53    5.4255   520.1    5.062      53.461
2015    1       28     3  58    5.4227   520.1    5.059      53.449
2015    1       28     4   4    5.4200   520.1    5.057      53.437
2015    1       28     4   9    5.4174   520.1    5.054      53.425
2015    1       28     4  14    5.4147   520.1    5.051      53.413
2015    1       28     4  20    5.4120   520.1    5.048      53.401
2015    1       28     4  25    5.4094   520.1    5.045      53.388
2015    1       28     4  31    5.4068   520.1    5.042      53.376
2015    1       28     4  36    5.4042   520.1    5.039      53.363
2015    1       28     4  41    5.4016   520.1    5.036      53.350
2015    1       28     4  47    5.3990   520.1    5.034      53.337
2015    1       28     4  52    5.3965   520.2    5.031      53.323
2015    1       28     4  57    5.3939   520.2    5.028      53.309
2015    1       28     5   3    5.3914   520.2    5.025      53.295
2015    1       28     5   8    5.3889   520.2    5.022      53.281
2015    1       28     5  14    5.3864   520.2    5.020      53.266
2015    1       28     5  19    5.3839   520.2    5.017      53.252
2015    1       28     5  24    5.3815   520.2    5.014      53.236
2015    1       28     5  30    5.3791   520.2    5.011      53.221
2015    1       28     5  35    5.3766   520.2    5.009      53.205
2015    1       28     5  41    5.3742   520.1    5.006      53.190
2015    1       28     5  46    5.3718   520.1    5.004      53.174
2015    1       28     5  51    5.3694   520.1    5.001      53.157
2015    1       28     5  57    5.3671   520.1    4.999      53.141
2015    1       28     6   2    5.3647   520.1    4.996      53.125
2015    1       28     6   8    5.3624   520.1    4.994      53.108
2015    1       28     6  13    5.3601   520.1    4.991      53.091
2015    1       28     6  18    5.3578   520.1    4.989      53.075
2015    1       28     6  24    5.3555   520.1    4.987      53.058
2015    1       28     6  29    5.3532   520.1    4.985      53.041
2015    1       28     6  35    5.3509   520.1    4.983      53.024
2015    1       28     6  40    5.3487   520.1    4.981      53.007
2015    1       28     6  45    5.3464   520.1    4.979      52.990
2015    1       28     6  51    5.3442   520.1    4.977      52.973
2015    1       28     6  56    5.3419   520.1    4.975      52.956
2015    1       28     7   1    5.3397   520.1    4.973      52.939
2015    1       28     7   7    5.3375   520.1    4.971      52.922
2015    1       28     7  12    5.3353   520.1    4.969      52.906
2015    1       28     7  18    5.3331   520.0    4.968      52.889
2015    1       28     7  23    5.3309   520.0    4.966      52.873
2015    1       28     7  28    5.3288   520.0    4.964      52.856
2015    1       28     7  34    5.3266   520.0    4.963      52.840
2015    1       28     7  39    5.3244   520.0    4.961      52.824
2015    1       28     7  45    5.3222   520.0    4.960      52.809
2015    1       28     7  50    5.3200   520.0    4.959      52.793
2015    1       28     7  55    5.3178   520.0    4.957      52.778
2015    1       28     8   1    5.3157   520.0    4.956      52.763
2015    1       28     8   6    5.3135   520.0    4.954      52.748
2015    1       28     8  12    5.3112   520.0    4.953      52.733
2015    1       28     8  17    5.3090   520.0    4.952      52.718
2015    1       28     8  22    5.3068   520.0    4.951      52.704
2015    1       28     8  28    5.3045   520.0    4.949      52.689
2015    1       28     8  33    5.3023   520.0    4.948      52.675
2015    1       28     8  39    5.3000   519.9    4.947      52.661
2015    1       28     8  44    5.2978   519.9    4.946      52.647
2015    1       28     8  49    5.2955   519.9    4.944      52.633
2015    1       28     8  55    5.2932   519.9    4.943      52.620
2015    1       28     9   0    5.2909   519.9    4.942      52.606
2015    1       28     9   5    5.2886   519.9    4.941      52.592
2015    1       28     9  11    5.2864   519.9    4.939      52.579
2015    1       28     9  16    5.2841   519.9    4.938      52.565
2015    1       28     9  22    5.2818   519.8    4.937      52.551
2015    1       28     9  27    5.2795   519.8    4.935      52.538
2015    1       28     9  32    5.2772   519.8    4.934      52.524
2015    1       28     9  38    5.2749   519.8    4.933      52.511
2015    1       28     9  43    5.2727   519.8    4.931      52.497
2015    1       28     9  49    5.2704   519.8    4.930      52.483
2015    1       28     9  54    5.2681   519.7    4.929      52.470
2015    1       28     9  59    5.2659   519.7    4.927      52.456
2015    1       28    10   5    5.2636   519.7    4.926      52.442
2015    1       28    10  10    5.2614   519.7    4.925      52.428
2015    1       28    10  16    5.2592   519.6    4.923      52.414
2015    1       28    10  21    5.2569   519.6    4.922      52.400
2015    1       28    10  26    5.2547   519.6    4.921      52.386
2015    1       28    10  32    5.2525   519.6    4.919      52.371
2015    1       28    10  37    5.2504   519.5    4.918      52.357
2015    1       28    10  42    5.2482   519.5    4.917      52.342
2015    1       28    10  48    5.2460   519.5    4.915      52.327
2015    1       28    10  53    5.2439   519.5    4.914      52.312
2015    1       28    10  59    5.2417   519.4    4.913      52.296
2015    1       28    11   4    5.2396   519.4    4.911      52.280
2015    1       28    11   9    5.2375   519.4    4.910      52.264
2015    1       28    11  15    5.2354   519.3    4.909      52.247
2015    1       28    11  20    5.2333   519.3    4.907      52.229
2015    1       28    11  26    5.2312   519.3    4.906      52.210
2015    1       28    11  31    5.2291   519.3    4.904      52.190
2015    1       28    11  36    5.2270   519.2    4.903      52.170
2015    1       28    11  42    5.2249   519.2    4.902      52.149
2015    1       28    11  47    5.2229   519.1    4.900      52.127
2015    1       28    11  53    5.2208   519.1    4.899      52.105
2015    1       28    11  58    5.2187   519.1    4.897      52.081
2015    1       28    12   3    5.2167   519.0    4.896      52.058
2015    1       28    12   9    5.2146   519.0    4.894      52.034
2015    1       28    12  14    5.2126   518.9    4.893      52.009
2015    1       28    12  20    5.2106   518.9    4.891      51.984
2015    1       28    12  25    5.2086   518.9    4.890      51.959
2015    1       28    12  30    5.2066   518.8    4.888      51.933
2015    1       28    12  36    5.2046   518.8    4.887      51.907
2015    1       28    12  41    5.2026   518.7    4.885      51.881
2015    1       28    12  46    5.2007   518.7    4.884      51.855
2015    1       28    12  52    5.1987   518.6    4.882      51.828
2015    1       28    12  57    5.1968   518.6    4.881      51.802
2015    1       28    13   3    5.1948   518.5    4.880      51.775
2015    1       28    13   8    5.1929   518.5    4.878      51.749
2015    1       28    13  13    5.1910   518.4    4.877      51.722
2015    1       28    13  19    5.1891   518.4    4.875      51.695
2015    1       28    13  24    5.1872   518.3    4.874      51.669
2015    1       28    13  30    5.1854   518.3    4.873      51.642
2015    1       28    13  35    5.1835   518.2    4.871      51.615
2015    1       28    13  40    5.1817   518.2    4.870      51.589
2015    1       28    13  46    5.1798   518.1    4.869      51.562
2015    1       28    13  51    5.1780   518.1    4.868      51.536
2015    1       28    13  57    5.1762   518.0    4.866      51.509
2015    1       28    14   2    5.1744   518.0    4.865      51.483
2015    1       28    14   7    5.1726   517.9    4.864      51.457
2015    1       28    14  13    5.1708   517.9    4.863      51.431
2015    1       28    14  18    5.1690   517.8    4.862      51.404
2015    1       28    14  24    5.1673   517.8    4.861      51.379
2015    1       28    14  29    5.1655   517.7    4.860      51.353
2015    1       28    14  34    5.1637   517.7    4.859      51.327
2015    1       28    14  40    5.1620   517.6    4.858      51.301
2015    1       28    14  45    5.1602   517.5    4.857      51.275
2015    1       28    14  50    5.1585   517.5    4.856      51.250
2015    1       28    14  56    5.1568   517.4    4.855      51.224
2015    1       28    15   1    5.1550   517.4    4.854      51.199
2015    1       28    15   7    5.1533   517.3    4.853      51.173
2015    1       28    15  12    5.1516   517.3    4.852      51.148
2015    1       28    15  17    5.1499   517.2    4.851      51.123
2015    1       28    15  23    5.1482   517.2    4.850      51.098
2015    1       28    15  28    5.1464   517.1    4.849      51.073
2015    1       28    15  34    5.1447   517.0    4.849      51.048
2015    1       28    15  39    5.1430   517.0    4.848      51.023
2015    1       28    15  44    5.1413   516.9    4.847      50.998
2015    1       28    15  50    5.1396   516.9    4.846      50.973
2015    1       28    15  55    5.1379   516.8    4.845      50.949
2015    1       28    16   1    5.1361   516.7    4.844      50.924
2015    1       28    16   6    5.1344   516.7    4.843      50.900
2015    1       28    16  11    5.1327   516.6    4.843      50.875
2015    1       28    16  17    5.1310   516.6    4.842      50.851
2015    1       28    16  22    5.1293   516.5    4.841      50.827
2015    1       28    16  27    5.1276   516.4    4.840      50.803
2015    1       28    16  33    5.1258   516.4    4.840      50.779
2015    1       28    16  38    5.1241   516.3    4.839      50.755
2015    1       28    16  44    5.1224   516.3    4.838      50.731
2015    1       28    16  49    5.1207   516.2    4.837      50.708
2015    1       28    16  54    5.1190   516.1    4.837      50.685
2015    1       28    17   0    5.1173   516.1    4.836      50.662
2015    1       28    17   5    5.1155   516.0    4.835      50.639
2015    1       28    17  11    5.1138   515.9    4.835      50.616
2015    1       28    17  16    5.1121   515.9    4.834      50.593
2015    1       28    17  21    5.1104   515.8    4.834      50.571
2015    1       28    17  27    5.1087   515.7    4.833      50.548
2015    1       28    17  32    5.1070   515.7    4.833      50.526
2015    1       28    17  38    5.1053   515.6    4.832      50.504
2015    1       28    17  43    5.1036   515.5    4.832      50.482
2015    1       28    17  48    5.1019   515.5    4.831      50.461
2015    1       28    17  54    5.1002   515.4    4.831      50.439
2015    1       28    17  59    5.0985   515.3    4.831      50.417
2015    1       28    18   5    5.0968   515.2    4.830      50.396
2015    1       28    18  10    5.0951   515.2    4.830      50.375
2015    1       28    18  15    5.0934   515.1    4.830      50.354
2015    1       28    18  21    5.0917   515.0    4.830      50.332
2015    1       28    18  26    5.0900   515.0    4.829      50.311
2015    1       28    18  31    5.0883   514.9    4.829      50.289
2015    1       28    18  37    5.0866   514.8    4.829      50.267
2015    1       28    18  42    5.0849   514.7    4.829      50.244
2015    1       28    18  48    5.0832   514.7    4.829      50.220
2015    1       28    18  53    5.0815   514.6    4.829      50.197
2015    1       28    18  58    5.0798   514.5    4.829      50.172
2015    1       28    19   4    5.0781   514.5    4.829      50.148
2015    1       28    19   9    5.0764   514.4    4.829      50.123
2015    1       28    19  15    5.0747   514.3    4.829      50.098
2015    1       28    19  20    5.0730   514.2    4.829      50.072
2015    1       28    19  25    5.0713   514.2    4.829      50.047
2015    1       28    19  31    5.0696   514.1    4.829      50.020
2015    1       28    19  36    5.0679   514.0    4.829      49.994
2015    1       28    19  42    5.0661   513.9    4.829      49.967
2015    1       28    19  47    5.0644   513.8    4.829      49.940
2015    1       28    19  52    5.0627   513.8    4.829      49.912
2015    1       28    19  58    5.0610   513.7    4.829      49.884
2015    1       28    20   3    5.0593   513.6    4.829      49.855
2015    1       28    20   9    5.0575   513.5    4.829      49.826
2015    1       28    20  14    5.0558   513.5    4.829      49.796
2015    1       28    20  19    5.0541   513.4    4.829      49.766
2015    1       28    20  25    5.0524   513.3    4.829      49.735
2015    1       28    20  30    5.0507   513.2    4.828      49.703
2015    1       28    20  35    5.0489   513.1    4.828      49.672
2015    1       28    20  41    5.0472   513.1    4.828      49.639
2015    1       28    20  46    5.0455   513.0    4.828      49.607
2015    1       28    20  52    5.0438   512.9    4.828      49.574
2015    1       28    20  57    5.0421   512.8    4.827      49.540
2015    1       28    21   2    5.0404   512.7    4.827      49.507
2015    1       28    21   8    5.0387   512.7    4.827      49.473
2015    1       28    21  13    5.0370   512.6    4.827      49.439
2015    1       28    21  19    5.0353   512.5    4.826      49.404
2015    1       28    21  24    5.0337   512.4    4.826      49.370
2015    1       28    21  29    5.0320   512.3    4.826      49.335
2015    1       28    21  35    5.0304   512.2    4.825      49.299
2015    1       28    21  40    5.0287   512.1    4.825      49.264
2015    1       28    21  46    5.0271   512.1    4.824      49.229
2015    1       28    21  51    5.0255   512.0    4.824      49.193
2015    1       28    21  56    5.0239   511.9    4.824      49.157
2015    1       28    22   2    5.0223   511.8    4.823      49.121
2015    1       28    22   7    5.0207   511.7    4.823      49.085
2015    1       28    22  12    5.0192   511.6    4.822      49.049
2015    1       28    22  18    5.0177   511.5    4.822      49.013
2015    1       28    22  23    5.0161   511.4    4.821      48.977
2015    1       28    22  29    5.0146   511.4    4.821      48.941
2015    1       28    22  34    5.0131   511.3    4.821      48.904
2015    1       28    22  39    5.0117   511.2    4.820      48.868
2015    1       28    22  45    5.0102   511.1    4.820      48.831
2015    1       28    22  50    5.0088   511.0    4.820      48.795
2015    1       28    22  56    5.0073   510.9    4.819      48.759
2015    1       28    23   1    5.0059   510.8    4.819      48.722
2015    1       28    23   6    5.0045   510.7    4.819      48.686
2015    1       28    23  12    5.0031   510.6    4.818      48.650
2015    1       28    23  17    5.0017   510.5    4.818      48.614
2015    1       28    23  23    5.0004   510.4    4.818      48.577
2015    1       28    23  28    4.9990   510.3    4.817      48.541
2015    1       28    23  33    4.9977   510.2    4.817      48.505
2015    1       28    23  39    4.9963   510.2    4.817      48.469
2015    1       28    23  44    4.9949   510.1    4.816      48.433
2015    1       28    23  50    4.9936   510.0    4.816      48.397
2015    1       28    23  55    4.9922   509.9    4.816      48.360
2015    1       29     0   0    4.9908   509.8    4.815      48.324
2015    1       29     0   6    4.9892   509.7    4.815      48.287
2015    1       29     0  11    4.9875   509.6    4.814      48.250
2015    1       29     0  16    4.9858   509.5    4.813      48.213
2015    1       29     0  22    4.9842   509.4    4.813      48.177
2015    1       29     0  27    4.9825   509.3    4.812      48.140
2015    1       29     0  33    4.9808   509.2    4.811      48.103
2015    1       29     0  38    4.9791   509.1    4.810      48.066
2015    1       29     0  43    4.9775   509.0    4.810      48.029
2015    1       29     0  49    4.9758   508.9    4.809      47.992
2015    1       29     0  54    4.9741   508.8    4.808      47.955
2015    1       29     1   0    4.9725   508.7    4.807      47.918
2015    1       29     1   5    4.9708   508.6    4.807      47.881
2015    1       29     1  10    4.9691   508.5    4.806      47.844
2015    1       29     1  16    4.9674   508.4    4.805      47.807
2015    1       29     1  21    4.9657   508.3    4.804      47.771
2015    1       29     1  27    4.9640   508.2    4.804      47.734
2015    1       29     1  32    4.9624   508.1    4.803      47.697
2015    1       29     1  37    4.9607   508.0    4.802      47.660
2015    1       29     1  43    4.9590   507.9    4.801      47.624
2015    1       29     1  48    4.9573   507.8    4.801      47.587
2015    1       29     1  54    4.9557   507.6    4.800      47.551
2015    1       29     1  59    4.9540   507.5    4.799      47.515
2015    1       29     2   4    4.9523   507.4    4.799      47.478
2015    1       29     2  10    4.9507   507.3    4.798      47.442
2015    1       29     2  15    4.9490   507.2    4.797      47.406
2015    1       29     2  20    4.9474   507.1    4.797      47.371
2015    1       29     2  26    4.9457   507.0    4.796      47.335
2015    1       29     2  31    4.9441   506.9    4.796      47.299
2015    1       29     2  37    4.9424   506.7    4.795      47.264
2015    1       29     2  42    4.9408   506.6    4.795      47.228
2015    1       29     2  47    4.9391   506.5    4.794      47.193
2015    1       29     2  53    4.9375   506.4    4.794      47.158
2015    1       29     2  58    4.9359   506.3    4.793      47.123
2015    1       29     3   4    4.9342   506.2    4.793      47.087
2015    1       29     3   9    4.9326   506.1    4.793      47.052
2015    1       29     3  14    4.9310   505.9    4.792      47.017
2015    1       29     3  20    4.9294   505.8    4.792      46.982
2015    1       29     3  25    4.9278   505.7    4.792      46.947
2015    1       29     3  31    4.9262   505.6    4.792      46.913
2015    1       29     3  36    4.9246   505.5    4.792      46.878
2015    1       29     3  41    4.9230   505.3    4.792      46.843
2015    1       29     3  47    4.9214   505.2    4.792      46.808
2015    1       29     3  52    4.9198   505.1    4.792      46.773
2015    1       29     3  57    4.9182   505.0    4.792      46.737
2015    1       29     4   3    4.9166   504.8    4.792      46.702
2015    1       29     4   8    4.9151   504.7    4.792      46.667
2015    1       29     4  14    4.9135   504.6    4.792      46.631
2015    1       29     4  19    4.9120   504.5    4.792      46.595
2015    1       29     4  24    4.9104   504.3    4.792      46.559
2015    1       29     4  30    4.9089   504.2    4.793      46.523
2015    1       29     4  35    4.9074   504.1    4.793      46.487
2015    1       29     4  41    4.9059   504.0    4.793      46.451
2015    1       29     4  46    4.9044   503.8    4.794      46.415
2015    1       29     4  51    4.9029   503.7    4.794      46.378
2015    1       29     4  57    4.9014   503.6    4.794      46.342
2015    1       29     5   2    4.8999   503.4    4.795      46.305
2015    1       29     5   8    4.8985   503.3    4.795      46.269
2015    1       29     5  13    4.8971   503.2    4.796      46.232
2015    1       29     5  18    4.8956   503.1    4.796      46.195
2015    1       29     5  24    4.8942   502.9    4.797      46.158
2015    1       29     5  29    4.8928   502.8    4.797      46.121
2015    1       29     5  35    4.8914   502.7    4.798      46.084
2015    1       29     5  40    4.8901   502.5    4.798      46.047
2015    1       29     5  45    4.8887   502.4    4.799      46.010
2015    1       29     5  51    4.8873   502.3    4.799      45.973
2015    1       29     5  56    4.8860   502.1    4.800      45.936
2015    1       29     6   1    4.8847   502.0    4.800      45.898
2015    1       29     6   7    4.8833   501.9    4.801      45.861
2015    1       29     6  12    4.8820   501.8    4.801      45.823
2015    1       29     6  18    4.8807   501.6    4.802      45.785
2015    1       29     6  23    4.8794   501.5    4.802      45.748
2015    1       29     6  28    4.8781   501.4    4.803      45.710
2015    1       29     6  34    4.8768   501.2    4.803      45.672
2015    1       29     6  39    4.8756   501.1    4.804      45.633
2015    1       29     6  45    4.8743   501.0    4.805      45.595
2015    1       29     6  50    4.8730   500.8    4.805      45.557
2015    1       29     6  55    4.8717   500.7    4.806      45.518
2015    1       29     7   1    4.8705   500.6    4.806      45.480
2015    1       29     7   6    4.8692   500.4    4.807      45.441
2015    1       29     7  12    4.8679   500.3    4.807      45.403
2015    1       29     7  17    4.8667   500.1    4.808      45.364
2015    1       29     7  22    4.8654   500.0    4.808      45.325
2015    1       29     7  28    4.8642   499.9    4.808      45.287
2015    1       29     7  33    4.8629   499.7    4.809      45.248
2015    1       29     7  38    4.8616   499.6    4.809      45.209
2015    1       29     7  44    4.8604   499.5    4.810      45.170
2015    1       29     7  49    4.8591   499.3    4.810      45.132
2015    1       29     7  55    4.8579   499.2    4.811      45.093
2015    1       29     8   0    4.8566   499.0    4.811      45.054
2015    1       29     8   5    4.8554   498.9    4.812      45.016
2015    1       29     8  11    4.8541   498.8    4.812      44.977
2015    1       29     8  16    4.8529   498.6    4.812      44.939
2015    1       29     8  22    4.8516   498.5    4.813      44.900
2015    1       29     8  27    4.8504   498.3    4.813      44.862
2015    1       29     8  32    4.8492   498.2    4.814      44.824
2015    1       29     8  38    4.8479   498.0    4.814      44.786
2015    1       29     8  43    4.8467   497.9    4.815      44.748
2015    1       29     8  49    4.8455   497.8    4.815      44.710
2015    1       29     8  54    4.8443   497.6    4.816      44.672
2015    1       29     8  59    4.8431   497.5    4.816      44.635
2015    1       29     9   5    4.8419   497.3    4.817      44.597
2015    1       29     9  10    4.8407   497.2    4.817      44.560
2015    1       29     9  15    4.8395   497.0    4.818      44.523
2015    1       29     9  21    4.8384   496.9    4.818      44.486
2015    1       29     9  26    4.8372   496.7    4.819      44.449
2015    1       29     9  32    4.8360   496.6    4.819      44.412
2015    1       29     9  37    4.8348   496.4    4.820      44.375
2015    1       29     9  42    4.8337   496.3    4.820      44.339
2015    1       29     9  48    4.8325   496.1    4.821      44.302
2015    1       29     9  53    4.8313   496.0    4.821      44.266
2015    1       29     9  59    4.8302   495.8    4.822      44.230
2015    1       29    10   4    4.8290   495.7    4.823      44.193
2015    1       29    10   9    4.8279   495.5    4.823      44.157
2015    1       29    10  15    4.8267   495.3    4.824      44.121
2015    1       29    10  20    4.8256   495.2    4.824      44.085
2015    1       29    10  26    4.8245   495.0    4.825      44.049
2015    1       29    10  31    4.8233   494.9    4.826      44.013
2015    1       29    10  36    4.8222   494.7    4.826      43.977
2015    1       29    10  42    4.8211   494.5    4.827      43.941
2015    1       29    10  47    4.8200   494.4    4.828      43.905
2015    1       29    10  52    4.8189   494.2    4.828      43.870
2015    1       29    10  58    4.8178   494.1    4.829      43.834
2015    1       29    11   3    4.8167   493.9    4.830      43.798
2015    1       29    11   9    4.8157   493.7    4.831      43.762
2015    1       29    11  14    4.8146   493.6    4.831      43.727
2015    1       29    11  19    4.8135   493.4    4.832      43.691
2015    1       29    11  25    4.8125   493.2    4.833      43.655
2015    1       29    11  30    4.8115   493.1    4.834      43.620
2015    1       29    11  36    4.8105   492.9    4.835      43.584
2015    1       29    11  41    4.8095   492.7    4.836      43.549
2015    1       29    11  46    4.8085   492.5    4.837      43.513
2015    1       29    11  52    4.8075   492.4    4.838      43.478
2015    1       29    11  57    4.8066   492.2    4.839      43.442
2015    1       29    12   3    4.8056   492.0    4.840      43.407
2015    1       29    12   8    4.8047   491.9    4.842      43.372
2015    1       29    12  13    4.8038   491.7    4.843      43.337
2015    1       29    12  19    4.8030   491.5    4.844      43.301
2015    1       29    12  24    4.8021   491.3    4.845      43.266
2015    1       29    12  29    4.8013   491.2    4.847      43.231
2015    1       29    12  35    4.8005   491.0    4.848      43.196
2015    1       29    12  40    4.7997   490.8    4.850      43.161
2015    1       29    12  46    4.7989   490.6    4.851      43.126
2015    1       29    12  51    4.7981   490.4    4.853      43.091
2015    1       29    12  56    4.7974   490.3    4.855      43.056
2015    1       29    13   2    4.7967   490.1    4.856      43.021
2015    1       29    13   7    4.7960   489.9    4.858      42.986
2015    1       29    13  13    4.7953   489.7    4.860      42.952
2015    1       29    13  18    4.7946   489.5    4.862      42.917
2015    1       29    13  23    4.7939   489.4    4.863      42.882
2015    1       29    13  29    4.7933   489.2    4.865      42.847
2015    1       29    13  34    4.7927   489.0    4.867      42.812
2015    1       29    13  40    4.7921   488.8    4.869      42.777
2015    1       29    13  45    4.7915   488.6    4.871      42.742
2015    1       29    13  50    4.7909   488.5    4.873      42.707
2015    1       29    13  56    4.7903   488.3    4.875      42.672
2015    1       29    14   1    4.7897   488.1    4.877      42.637
2015    1       29    14   6    4.7892   487.9    4.879      42.602
2015    1       29    14  12    4.7886   487.7    4.881      42.566
2015    1       29    14  17    4.7881   487.5    4.883      42.531
2015    1       29    14  23    4.7876   487.4    4.886      42.496
2015    1       29    14  28    4.7871   487.2    4.888      42.460
2015    1       29    14  33    4.7866   487.0    4.890      42.425
2015    1       29    14  39    4.7861   486.8    4.892      42.389
2015    1       29    14  44    4.7857   486.6    4.894      42.354
2015    1       29    14  50    4.7852   486.4    4.896      42.319
2015    1       29    14  55    4.7847   486.2    4.898      42.283
2015    1       29    15   0    4.7843   486.0    4.901      42.248
2015    1       29    15   6    4.7839   485.9    4.903      42.213
2015    1       29    15  11    4.7835   485.7    4.905      42.178
2015    1       29    15  17    4.7831   485.5    4.907      42.142
2015    1       29    15  22    4.7827   485.3    4.909      42.107
2015    1       29    15  27    4.7824   485.1    4.912      42.073
2015    1       29    15  33    4.7820   484.9    4.914      42.038
2015    1       29    15  38    4.7817   484.7    4.916      42.003
2015    1       29    15  43    4.7814   484.5    4.919      41.969
2015    1       29    15  49    4.7811   484.3    4.921      41.935
2015    1       29    15  54    4.7808   484.2    4.924      41.901
2015    1       29    16   0    4.7805   484.0    4.926      41.867
2015    1       29    16   5    4.7803   483.8    4.928      41.834
2015    1       29    16  10    4.7800   483.6    4.931      41.801
2015    1       29    16  16    4.7798   483.4    4.934      41.768
2015    1       29    16  21    4.7796   483.2    4.936      41.735
2015    1       29    16  27    4.7794   483.0    4.939      41.703
2015    1       29    16  32    4.7793   482.8    4.942      41.671
2015    1       29    16  37    4.7791   482.6    4.944      41.639
2015    1       29    16  43    4.7790   482.4    4.947      41.608
2015    1       29    16  48    4.7789   482.3    4.950      41.577
2015    1       29    16  54    4.7790   482.1    4.953      41.546
2015    1       29    16  59    4.7790   481.9    4.956      41.515
2015    1       29    17   4    4.7789   481.7    4.959      41.485
2015    1       29    17  10    4.7788   481.5    4.962      41.455
2015    1       29    17  15    4.7788   481.3    4.965      41.425
2015    1       29    17  20    4.7789   481.1    4.968      41.396
2015    1       29    17  26    4.7789   480.9    4.972      41.367
2015    1       29    17  31    4.7790   480.7    4.975      41.338
2015    1       29    17  37    4.7790   480.5    4.978      41.309
2015    1       29    17  42    4.7791   480.3    4.982      41.281
2015    1       29    17  47    4.7792   480.2    4.985      41.252
2015    1       29    17  53    4.7793   480.0    4.988      41.224
2015    1       29    17  58    4.7794   479.8    4.992      41.196
2015    1       29    18   4    4.7796   479.6    4.995      41.168
2015    1       29    18   9    4.7797   479.4    4.999      41.140
2015    1       29    18  14    4.7799   479.2    5.002      41.112
2015    1       29    18  20    4.7801   479.0    5.006      41.084
2015    1       29    18  25    4.7802   478.8    5.009      41.056
2015    1       29    18  31    4.7804   478.6    5.013      41.028
2015    1       29    18  36    4.7806   478.4    5.017      41.000
2015    1       29    18  41    4.7808   478.2    5.020      40.971
2015    1       29    18  47    4.7811   478.0    5.024      40.943
2015    1       29    18  52    4.7813   477.8    5.027      40.915
2015    1       29    18  57    4.7816   477.7    5.031      40.887
2015    1       29    19   3    4.7820   477.5    5.034      40.858
2015    1       29    19   8    4.7821   477.3    5.038      40.829
2015    1       29    19  14    4.7825   477.1    5.042      40.801
2015    1       29    19  19    4.7827   476.9    5.045      40.772
2015    1       29    19  24    4.7830   476.7    5.049      40.743
2015    1       29    19  30    4.7833   476.5    5.052      40.713
2015    1       29    19  35    4.7836   476.3    5.056      40.684
2015    1       29    19  41    4.7840   476.1    5.060      40.654
2015    1       29    19  46    4.7844   475.9    5.063      40.625
2015    1       29    19  51    4.7848   475.7    5.067      40.595
2015    1       29    19  57    4.7852   475.5    5.070      40.565
2015    1       29    20   2    4.7856   475.3    5.074      40.535
2015    1       29    20   8    4.7860   475.1    5.078      40.505
2015    1       29    20  13    4.7865   474.9    5.081      40.475
2015    1       29    20  18    4.7869   474.7    5.085      40.445
2015    1       29    20  24    4.7874   474.5    5.088      40.414
2015    1       29    20  29    4.7879   474.3    5.092      40.384
2015    1       29    20  34    4.7884   474.1    5.096      40.353
2015    1       29    20  40    4.7890   473.9    5.099      40.323
2015    1       29    20  45    4.7895   473.7    5.103      40.292
2015    1       29    20  51    4.7901   473.5    5.107      40.262
2015    1       29    20  56    4.7907   473.3    5.110      40.231
2015    1       29    21   1    4.7913   473.1    5.114      40.201
2015    1       29    21   7    4.7920   472.9    5.118      40.170
2015    1       29    21  12    4.7926   472.7    5.122      40.140
2015    1       29    21  18    4.7933   472.5    5.125      40.109
2015    1       29    21  23    4.7940   472.3    5.129      40.079
2015    1       29    21  28    4.7947   472.1    5.133      40.049
2015    1       29    21  34    4.7955   471.9    5.137      40.018
2015    1       29    21  39    4.7962   471.7    5.141      39.988
2015    1       29    21  45    4.7970   471.5    5.145      39.958
2015    1       29    21  50    4.7979   471.3    5.149      39.928
2015    1       29    21  55    4.7988   471.1    5.152      39.898
2015    1       29    22   1    4.7995   470.9    5.156      39.868
2015    1       29    22   6    4.8004   470.7    5.160      39.839
2015    1       29    22  11    4.8013   470.5    5.164      39.809
2015    1       29    22  17    4.8022   470.3    5.169      39.780
2015    1       29    22  22    4.8032   470.1    5.173      39.751
2015    1       29    22  28    4.8041   469.9    5.177      39.722
2015    1       29    22  33    4.8051   469.7    5.181      39.693
2015    1       29    22  38    4.8061   469.5    5.185      39.664
2015    1       29    22  44    4.8071   469.3    5.189      39.636
2015    1       29    22  49    4.8082   469.1    5.194      39.608
2015    1       29    22  55    4.8092   468.9    5.198      39.579
2015    1       29    23   0    4.8103   468.7    5.202      39.551
2015    1       29    23   5    4.8114   468.5    5.207      39.523
2015    1       29    23  11    4.8125   468.3    5.211      39.496
2015    1       29    23  16    4.8137   468.1    5.215      39.468
2015    1       29    23  22    4.8148   467.9    5.220      39.441
2015    1       29    23  27    4.8160   467.7    5.224      39.414
2015    1       29    23  32    4.8172   467.5    5.229      39.387
2015    1       29    23  38    4.8185   467.3    5.233      39.361
2015    1       29    23  43    4.8197   467.1    5.238      39.334
2015    1       29    23  49    4.8210   466.9    5.243      39.308
2015    1       29    23  54    4.8223   466.7    5.247      39.282
2015    1       29    23  59    4.8236   466.5    5.252      39.256
2015    1       30     0   5    4.8253   466.3    5.257      39.231
2015    1       30     0  10    4.8271   466.1    5.263      39.206
2015    1       30     0  15    4.8289   465.9    5.268      39.182
2015    1       30     0  21    4.8308   465.7    5.274      39.158
2015    1       30     0  26    4.8327   465.5    5.280      39.134
2015    1       30     0  32    4.8346   465.3    5.285      39.110
2015    1       30     0  37    4.8365   465.1    5.291      39.087
2015    1       30     0  42    4.8384   464.9    5.297      39.063
2015    1       30     0  48    4.8404   464.7    5.303      39.040
2015    1       30     0  53    4.8424   464.4    5.308      39.017
2015    1       30     0  59    4.8444   464.2    5.314      38.995
2015    1       30     1   4    4.8465   464.0    5.320      38.972
2015    1       30     1   9    4.8485   463.8    5.326      38.950
2015    1       30     1  15    4.8506   463.6    5.332      38.928
2015    1       30     1  20    4.8527   463.4    5.338      38.907
2015    1       30     1  26    4.8549   463.2    5.345      38.885
2015    1       30     1  31    4.8570   463.0    5.351      38.864
2015    1       30     1  36    4.8592   462.8    5.357      38.842
2015    1       30     1  42    4.8614   462.6    5.363      38.821
2015    1       30     1  47    4.8636   462.5    5.370      38.800
2015    1       30     1  52    4.8659   462.3    5.376      38.780
2015    1       30     1  58    4.8681   462.1    5.382      38.759
2015    1       30     2   3    4.8704   461.9    5.389      38.739
2015    1       30     2   9    4.8727   461.7    5.395      38.718
2015    1       30     2  14    4.8750   461.5    5.402      38.698
2015    1       30     2  19    4.8774   461.3    5.408      38.678
2015    1       30     2  25    4.8797   461.1    5.415      38.658
2015    1       30     2  30    4.8821   460.9    5.421      38.638
2015    1       30     2  36    4.8845   460.7    5.428      38.618
2015    1       30     2  41    4.8869   460.5    5.434      38.598
2015    1       30     2  46    4.8893   460.3    5.441      38.578
2015    1       30     2  52    4.8918   460.1    5.448      38.559
2015    1       30     2  57    4.8942   459.9    5.454      38.539
2015    1       30     3   3    4.8967   459.8    5.461      38.519
2015    1       30     3   8    4.8994   459.6    5.468      38.499
2015    1       30     3  13    4.9017   459.4    5.474      38.479
2015    1       30     3  19    4.9042   459.2    5.481      38.459
2015    1       30     3  24    4.9069   459.0    5.488      38.440
2015    1       30     3  29    4.9093   458.8    5.494      38.420
2015    1       30     3  35    4.9119   458.6    5.501      38.400
2015    1       30     3  40    4.9144   458.4    5.508      38.380
2015    1       30     3  46    4.9170   458.2    5.514      38.360
2015    1       30     3  51    4.9199   458.0    5.521      38.340
2015    1       30     3  56    4.9223   457.9    5.528      38.321
2015    1       30     4   2    4.9250   457.7    5.534      38.301
2015    1       30     4   7    4.9277   457.5    5.541      38.281
2015    1       30     4  13    4.9304   457.3    5.548      38.261
2015    1       30     4  18    4.9332   457.1    5.554      38.241
2015    1       30     4  23    4.9359   456.9    5.561      38.222
2015    1       30     4  29    4.9387   456.7    5.568      38.202
2015    1       30     4  34    4.9415   456.5    5.574      38.182
2015    1       30     4  40    4.9444   456.3    5.581      38.163
2015    1       30     4  45    4.9472   456.2    5.588      38.143
2015    1       30     4  50    4.9501   456.0    5.595      38.124
2015    1       30     4  56    4.9530   455.8    5.602      38.105
2015    1       30     5   1    4.9560   455.6    5.608      38.085
2015    1       30     5   6    4.9589   455.4    5.615      38.066
2015    1       30     5  12    4.9620   455.2    5.622      38.047
2015    1       30     5  17    4.9650   455.0    5.629      38.029
2015    1       30     5  23    4.9681   454.8    5.636      38.010
2015    1       30     5  28    4.9712   454.6    5.643      37.992
2015    1       30     5  33    4.9743   454.5    5.650      37.974
2015    1       30     5  39    4.9775   454.3    5.657      37.956
2015    1       30     5  44    4.9807   454.1    5.664      37.939
2015    1       30     5  50    4.9839   453.9    5.671      37.922
2015    1       30     5  55    4.9871   453.7    5.678      37.905
2015    1       30     6   0    4.9904   453.5    5.686      37.888
2015    1       30     6   6    4.9938   453.3    5.693      37.872
2015    1       30     6  11    4.9971   453.2    5.700      37.855
2015    1       30     6  17    5.0005   453.0    5.708      37.840
2015    1       30     6  22    5.0039   452.8    5.715      37.824
2015    1       30     6  27    5.0074   452.6    5.723      37.809
2015    1       30     6  33    5.0108   452.4    5.730      37.794
2015    1       30     6  38    5.0144   452.2    5.738      37.780
2015    1       30     6  43    5.0179   452.1    5.746      37.765
2015    1       30     6  49    5.0214   451.9    5.753      37.751
2015    1       30     6  54    5.0250   451.7    5.761      37.738
2015    1       30     7   0    5.0286   451.5    5.769      37.724
2015    1       30     7   5    5.0323   451.3    5.777      37.712
2015    1       30     7  10    5.0360   451.2    5.785      37.699
2015    1       30     7  16    5.0396   451.0    5.793      37.687
2015    1       30     7  21    5.0434   450.8    5.801      37.675
2015    1       30     7  27    5.0471   450.6    5.809      37.663
2015    1       30     7  32    5.0509   450.5    5.818      37.652
2015    1       30     7  37    5.0547   450.3    5.826      37.641
2015    1       30     7  43    5.0585   450.1    5.834      37.630
2015    1       30     7  48    5.0623   449.9    5.843      37.620
2015    1       30     7  54    5.0662   449.8    5.851      37.610
2015    1       30     7  59    5.0701   449.6    5.860      37.600
2015    1       30     8   4    5.0740   449.4    5.869      37.591
2015    1       30     8  10    5.0781   449.3    5.877      37.582
2015    1       30     8  15    5.0819   449.1    5.886      37.573
2015    1       30     8  20    5.0859   448.9    5.895      37.565
2015    1       30     8  26    5.0899   448.8    5.904      37.557
2015    1       30     8  31    5.0940   448.6    5.912      37.549
2015    1       30     8  37    5.0980   448.4    5.921      37.542
2015    1       30     8  42    5.1021   448.3    5.930      37.535
2015    1       30     8  47    5.1062   448.1    5.939      37.528
2015    1       30     8  53    5.1104   448.0    5.948      37.522
2015    1       30     8  58    5.1147   447.8    5.957      37.515
2015    1       30     9   4    5.1187   447.7    5.966      37.510
2015    1       30     9   9    5.1229   447.5    5.976      37.504
2015    1       30     9  14    5.1271   447.4    5.985      37.499
2015    1       30     9  20    5.1313   447.2    5.994      37.494
2015    1       30     9  25    5.1356   447.0    6.003      37.489
2015    1       30     9  31    5.1400   446.9    6.012      37.485
2015    1       30     9  36    5.1441   446.7    6.021      37.480
2015    1       30     9  41    5.1485   446.6    6.030      37.476
2015    1       30     9  47    5.1528   446.4    6.039      37.472
2015    1       30     9  52    5.1573   446.3    6.047      37.469
2015    1       30     9  57    5.1615   446.2    6.056      37.465
2015    1       30    10   3    5.1658   446.0    6.065      37.461
2015    1       30    10   8    5.1702   445.9    6.074      37.458
2015    1       30    10  14    5.1746   445.7    6.083      37.455
2015    1       30    10  19    5.1791   445.6    6.092      37.451
2015    1       30    10  24    5.1835   445.4    6.101      37.448
2015    1       30    10  30    5.1880   445.3    6.109      37.445
2015    1       30    10  35    5.1925   445.2    6.118      37.441
2015    1       30    10  41    5.1970   445.0    6.127      37.438
2015    1       30    10  46    5.2016   444.9    6.136      37.435
2015    1       30    10  51    5.2061   444.7    6.144      37.431
2015    1       30    10  57    5.2107   444.6    6.153      37.428
2015    1       30    11   2    5.2155   444.5    6.162      37.425
2015    1       30    11   8    5.2200   444.3    6.170      37.421
2015    1       30    11  13    5.2247   444.2    6.179      37.418
2015    1       30    11  18    5.2294   444.0    6.188      37.414
2015    1       30    11  24    5.2341   443.9    6.196      37.411
2015    1       30    11  29    5.2389   443.8    6.205      37.407
2015    1       30    11  34    5.2437   443.6    6.214      37.404
2015    1       30    11  40    5.2485   443.5    6.223      37.400
2015    1       30    11  45    5.2534   443.4    6.232      37.397
2015    1       30    11  51    5.2583   443.2    6.240      37.394
2015    1       30    11  56    5.2632   443.1    6.249      37.390
2015    1       30    12   1    5.2682   443.0    6.258      37.387
2015    1       30    12   7    5.2731   442.9    6.267      37.384
2015    1       30    12  12    5.2782   442.7    6.276      37.381
2015    1       30    12  18    5.2832   442.6    6.285      37.378
2015    1       30    12  23    5.2883   442.5    6.294      37.375
2015    1       30    12  28    5.2935   442.4    6.303      37.372
2015    1       30    12  34    5.2986   442.2    6.312      37.369
2015    1       30    12  39    5.3038   442.1    6.322      37.367
2015    1       30    12  45    5.3090   442.0    6.331      37.365
2015    1       30    12  50    5.3143   441.9    6.340      37.363
2015    1       30    12  55    5.3196   441.7    6.350      37.361
2015    1       30    13   1    5.3249   441.6    6.359      37.359
2015    1       30    13   6    5.3302   441.5    6.369      37.358
2015    1       30    13  11    5.3355   441.4    6.379      37.357
2015    1       30    13  17    5.3409   441.3    6.388      37.356
2015    1       30    13  22    5.3463   441.2    6.398      37.355
2015    1       30    13  28    5.3518   441.0    6.408      37.355
2015    1       30    13  33    5.3572   440.9    6.418      37.354
2015    1       30    13  38    5.3627   440.8    6.428      37.355
2015    1       30    13  44    5.3682   440.7    6.439      37.355
2015    1       30    13  49    5.3738   440.6    6.449      37.356
2015    1       30    13  55    5.3793   440.5    6.459      37.356
2015    1       30    14   0    5.3849   440.4    6.470      37.358
2015    1       30    14   5    5.3904   440.3    6.481      37.359
2015    1       30    14  11    5.3960   440.2    6.491      37.361
2015    1       30    14  16    5.4017   440.1    6.502      37.364
2015    1       30    14  22    5.4073   440.0    6.513      37.366
2015    1       30    14  27    5.4129   439.9    6.524      37.370
2015    1       30    14  32    5.4186   439.8    6.534      37.374
2015    1       30    14  38    5.4243   439.7    6.545      37.379
2015    1       30    14  43    5.4300   439.6    6.556      37.384
2015    1       30    14  48    5.4357   439.5    6.567      37.390
2015    1       30    14  54    5.4414   439.4    6.578      37.397
2015    1       30    14  59    5.4471   439.3    6.588      37.404
2015    1       30    15   5    5.4529   439.2    6.599      37.413
2015    1       30    15  10    5.4586   439.1    6.610      37.422
2015    1       30    15  15    5.4644   439.0    6.621      37.431
2015    1       30    15  21    5.4701   439.0    6.631      37.441
2015    1       30    15  26    5.4759   438.9    6.642      37.452
2015    1       30    15  32    5.4817   438.8    6.652      37.464
2015    1       30    15  37    5.4875   438.7    6.663      37.476
2015    1       30    15  42    5.4933   438.6    6.673      37.489
2015    1       30    15  48    5.4991   438.5    6.684      37.502
2015    1       30    15  53    5.5049   438.5    6.694      37.516
2015    1       30    15  59    5.5107   438.4    6.704      37.530
2015    1       30    16   4    5.5165   438.3    6.714      37.544
2015    1       30    16   9    5.5224   438.2    6.725      37.559
2015    1       30    16  15    5.5283   438.2    6.735      37.574
2015    1       30    16  20    5.5340   438.1    6.745      37.590
2015    1       30    16  26    5.5399   438.0    6.755      37.606
2015    1       30    16  31    5.5459   437.9    6.765      37.622
2015    1       30    16  36    5.5516   437.9    6.775      37.638
2015    1       30    16  42    5.5575   437.8    6.785      37.655
2015    1       30    16  47    5.5634   437.7    6.795      37.672
2015    1       30    16  52    5.5693   437.7    6.805      37.689
2015    1       30    16  58    5.5752   437.6    6.815      37.706
2015    1       30    17   3    5.5812   437.5    6.825      37.723
2015    1       30    17   9    5.5871   437.5    6.835      37.741
2015    1       30    17  14    5.5930   437.4    6.844      37.759
2015    1       30    17  19    5.5990   437.3    6.854      37.776
2015    1       30    17  25    5.6050   437.3    6.864      37.794
2015    1       30    17  30    5.6109   437.2    6.873      37.812
2015    1       30    17  36    5.6170   437.2    6.883      37.830
2015    1       30    17  41    5.6230   437.1    6.892      37.848
2015    1       30    17  46    5.6291   437.0    6.901      37.866
2015    1       30    17  52    5.6351   437.0    6.911      37.884
2015    1       30    17  57    5.6412   436.9    6.920      37.903
2015    1       30    18   3    5.6474   436.9    6.930      37.921
2015    1       30    18   8    5.6535   436.8    6.939      37.939
2015    1       30    18  13    5.6597   436.8    6.948      37.957
2015    1       30    18  19    5.6659   436.7    6.957      37.975
2015    1       30    18  24    5.6721   436.6    6.966      37.994
2015    1       30    18  29    5.6784   436.6    6.976      38.012
2015    1       30    18  35    5.6847   436.5    6.985      38.030
2015    1       30    18  40    5.6911   436.5    6.994      38.049
2015    1       30    18  46    5.6975   436.5    7.003      38.067
2015    1       30    18  51    5.7039   436.4    7.012      38.085
2015    1       30    18  56    5.7104   436.4    7.021      38.104
2015    1       30    19   2    5.7169   436.3    7.031      38.122
2015    1       30    19   7    5.7234   436.3    7.040      38.141
2015    1       30    19  13    5.7300   436.2    7.049      38.159
2015    1       30    19  18    5.7366   436.2    7.059      38.178
2015    1       30    19  23    5.7433   436.2    7.068      38.196
2015    1       30    19  29    5.7500   436.1    7.077      38.215
2015    1       30    19  34    5.7567   436.1    7.087      38.234
2015    1       30    19  39    5.7635   436.1    7.096      38.253
2015    1       30    19  45    5.7704   436.0    7.106      38.272
2015    1       30    19  50    5.7772   436.0    7.115      38.291
2015    1       30    19  56    5.7840   436.0    7.125      38.311
2015    1       30    20   1    5.7910   436.0    7.135      38.331
2015    1       30    20   6    5.7979   435.9    7.145      38.350
2015    1       30    20  12    5.8049   435.9    7.155      38.371
2015    1       30    20  17    5.8119   435.9    7.165      38.391
2015    1       30    20  23    5.8190   435.9    7.176      38.412
2015    1       30    20  28    5.8261   435.9    7.186      38.433
2015    1       30    20  33    5.8331   435.8    7.197      38.454
2015    1       30    20  39    5.8403   435.8    7.207      38.476
2015    1       30    20  44    5.8475   435.8    7.218      38.498
2015    1       30    20  50    5.8547   435.8    7.229      38.520
2015    1       30    20  55    5.8619   435.8    7.241      38.543
2015    1       30    21   0    5.8692   435.8    7.252      38.567
2015    1       30    21   6    5.8765   435.8    7.264      38.592
2015    1       30    21  11    5.8838   435.7    7.276      38.617
2015    1       30    21  17    5.8913   435.7    7.289      38.642
2015    1       30    21  22    5.8987   435.7    7.301      38.668
2015    1       30    21  27    5.9063   435.7    7.314      38.695
2015    1       30    21  33    5.9138   435.7    7.327      38.723
2015    1       30    21  38    5.9214   435.7    7.341      38.754
2015    1       30    21  43    5.9291   435.7    7.354      38.786
2015    1       30    21  49    5.9367   435.7    7.367      38.821
2015    1       30    21  54    5.9444   435.8    7.381      38.856
2015    1       30    22   0    5.9521   435.8    7.394      38.894
2015    1       30    22   5    5.9598   435.8    7.408      38.933
2015    1       30    22  10    5.9674   435.8    7.421      38.973
2015    1       30    22  16    5.9751   435.8    7.434      39.014
2015    1       30    22  21    5.9828   435.8    7.447      39.055
2015    1       30    22  27    5.9904   435.9    7.459      39.097
2015    1       30    22  32    5.9981   435.9    7.471      39.141
2015    1       30    22  37    6.0055   435.9    7.483      39.184
2015    1       30    22  43    6.0130   436.0    7.495      39.229
2015    1       30    22  48    6.0205   436.0    7.506      39.274
2015    1       30    22  54    6.0279   436.0    7.517      39.319
2015    1       30    22  59    6.0353   436.1    7.527      39.363
2015    1       30    23   4    6.0426   436.1    7.537      39.406
2015    1       30    23  10    6.0498   436.1    7.547      39.449
2015    1       30    23  15    6.0571   436.2    7.556      39.492
2015    1       30    23  20    6.0642   436.2    7.565      39.533
2015    1       30    23  26    6.0713   436.3    7.574      39.575
2015    1       30    23  31    6.0785   436.3    7.583      39.616
2015    1       30    23  37    6.0855   436.3    7.591      39.656
2015    1       30    23  42    6.0925   436.4    7.599      39.696
2015    1       30    23  47    6.0995   436.4    7.607      39.736
2015    1       30    23  53    6.1064   436.4    7.614      39.775
2015    1       30    23  58    6.1135   436.5    7.621      39.813
2015    1       31     0   4    6.1203   436.5    7.628      39.852
2015    1       31     0   9    6.1271   436.6    7.635      39.889
2015    1       31     0  14    6.1340   436.6    7.642      39.927
2015    1       31     0  20    6.1408   436.6    7.648      39.964
2015    1       31     0  25    6.1476   436.7    7.655      40.001
2015    1       31     0  31    6.1544   436.7    7.661      40.037
2015    1       31     0  36    6.1612   436.7    7.667      40.074
2015    1       31     0  41    6.1680   436.8    7.673      40.109
2015    1       31     0  47    6.1748   436.8    7.679      40.145
2015    1       31     0  52    6.1816   436.8    7.685      40.181
2015    1       31     0  57    6.1884   436.9    7.690      40.216
2015    1       31     1   3    6.1951   436.9    7.696      40.251
2015    1       31     1   8    6.2019   436.9    7.702      40.285
2015    1       31     1  14    6.2087   437.0    7.707      40.320
2015    1       31     1  19    6.2155   437.0    7.712      40.354
2015    1       31     1  24    6.2223   437.0    7.718      40.389
2015    1       31     1  30    6.2290   437.0    7.723      40.423
2015    1       31     1  35    6.2359   437.1    7.728      40.457
2015    1       31     1  41    6.2427   437.1    7.734      40.491
2015    1       31     1  46    6.2495   437.1    7.739      40.524
2015    1       31     1  51    6.2563   437.2    7.744      40.558
2015    1       31     1  57    6.2632   437.2    7.749      40.592
2015    1       31     2   2    6.2701   437.2    7.754      40.625
2015    1       31     2   8    6.2770   437.3    7.760      40.659
2015    1       31     2  13    6.2839   437.3    7.765      40.693
2015    1       31     2  18    6.2909   437.3    7.770      40.726
2015    1       31     2  24    6.2979   437.4    7.775      40.760
2015    1       31     2  29    6.3049   437.4    7.781      40.794
2015    1       31     2  34    6.3119   437.5    7.786      40.828
2015    1       31     2  40    6.3190   437.5    7.791      40.863
2015    1       31     2  45    6.3262   437.5    7.797      40.897
2015    1       31     2  51    6.3333   437.6    7.802      40.932
2015    1       31     2  56    6.3406   437.6    7.808      40.967
2015    1       31     3   1    6.3478   437.7    7.813      41.003
2015    1       31     3   7    6.3551   437.7    7.819      41.039
2015    1       31     3  12    6.3625   437.8    7.825      41.075
2015    1       31     3  18    6.3699   437.8    7.831      41.113
2015    1       31     3  23    6.3774   437.9    7.837      41.150
2015    1       31     3  28    6.3849   437.9    7.844      41.189
2015    1       31     3  34    6.3924   438.0    7.850      41.228
2015    1       31     3  39    6.4001   438.0    7.857      41.267
2015    1       31     3  45    6.4078   438.1    7.864      41.308
2015    1       31     3  50    6.4155   438.1    7.871      41.349
2015    1       31     3  55    6.4233   438.2    7.878      41.391
2015    1       31     4   1    6.4312   438.3    7.886      41.434
2015    1       31     4   6    6.4391   438.3    7.894      41.479
2015    1       31     4  11    6.4471   438.4    7.902      41.524
2015    1       31     4  17    6.4551   438.5    7.910      41.570
2015    1       31     4  22    6.4633   438.5    7.919      41.618
2015    1       31     4  28    6.4715   438.6    7.928      41.667
2015    1       31     4  33    6.4798   438.7    7.937      41.717
2015    1       31     4  38    6.4881   438.7    7.947      41.768
2015    1       31     4  44    6.4965   438.8    7.957      41.821
2015    1       31     4  49    6.5050   438.9    7.968      41.874
2015    1       31     4  55    6.5136   439.0    7.979      41.929
2015    1       31     5   0    6.5222   439.1    7.990      41.987
2015    1       31     5   5    6.5309   439.1    8.002      42.046
2015    1       31     5  11    6.5396   439.2    8.013      42.109
2015    1       31     5  16    6.5484   439.3    8.026      42.173
2015    1       31     5  22    6.5572   439.4    8.038      42.240
2015    1       31     5  27    6.5660   439.5    8.051      42.308
2015    1       31     5  32    6.5749   439.6    8.064      42.378
2015    1       31     5  38    6.5838   439.7    8.077      42.450
2015    1       31     5  43    6.5926   439.8    8.090      42.524
2015    1       31     5  48    6.6014   440.0    8.103      42.600
2015    1       31     5  54    6.6101   440.1    8.116      42.678
2015    1       31     5  59    6.6188   440.2    8.129      42.759
2015    1       31     6   5    6.6275   440.4    8.142      42.840
2015    1       31     6  10    6.6360   440.5    8.155      42.924
2015    1       31     6  15    6.6445   440.6    8.167      43.009
2015    1       31     6  21    6.6529   440.8    8.179      43.095
2015    1       31     6  26    6.6612   440.9    8.190      43.180
2015    1       31     6  32    6.6694   441.1    8.201      43.265
2015    1       31     6  37    6.6775   441.2    8.212      43.350
2015    1       31     6  42    6.6855   441.4    8.222      43.435
2015    1       31     6  48    6.6934   441.6    8.232      43.521
2015    1       31     6  53    6.7012   441.7    8.241      43.606
2015    1       31     6  59    6.7089   441.9    8.249      43.690
2015    1       31     7   4    6.7165   442.1    8.258      43.774
2015    1       31     7   9    6.7241   442.2    8.265      43.857
2015    1       31     7  15    6.7316   442.4    8.273      43.939
2015    1       31     7  20    6.7390   442.6    8.280      44.020
2015    1       31     7  25    6.7464   442.7    8.286      44.101
2015    1       31     7  31    6.7538   442.9    8.293      44.181
2015    1       31     7  36    6.7611   443.1    8.299      44.261
2015    1       31     7  42    6.7684   443.2    8.304      44.341
2015    1       31     7  47    6.7757   443.4    8.310      44.420
2015    1       31     7  52    6.7829   443.6    8.315      44.499
2015    1       31     7  58    6.7902   443.7    8.320      44.578
2015    1       31     8   3    6.7975   443.9    8.324      44.657
2015    1       31     8   9    6.8048   444.1    8.328      44.735
2015    1       31     8  14    6.8121   444.2    8.332      44.813
2015    1       31     8  19    6.8195   444.4    8.336      44.892
2015    1       31     8  25    6.8268   444.6    8.340      44.970
2015    1       31     8  30    6.8342   444.7    8.343      45.047
2015    1       31     8  36    6.8416   444.9    8.346      45.125
2015    1       31     8  41    6.8491   445.1    8.349      45.202
2015    1       31     8  46    6.8565   445.3    8.352      45.278
2015    1       31     8  52    6.8640   445.4    8.354      45.354
2015    1       31     8  57    6.8715   445.6    8.356      45.429
2015    1       31     9   2    6.8791   445.8    8.358      45.504
2015    1       31     9   8    6.8866   445.9    8.360      45.578
2015    1       31     9  13    6.8942   446.1    8.361      45.651
2015    1       31     9  19    6.9018   446.3    8.363      45.724
2015    1       31     9  24    6.9094   446.4    8.364      45.796
2015    1       31     9  29    6.9169   446.6    8.364      45.866
2015    1       31     9  35    6.9245   446.8    8.365      45.936
2015    1       31     9  40    6.9321   447.0    8.365      46.005
2015    1       31     9  46    6.9397   447.1    8.366      46.074
2015    1       31     9  51    6.9472   447.3    8.366      46.141
2015    1       31     9  56    6.9548   447.5    8.365      46.207
2015    1       31    10   2    6.9623   447.6    8.365      46.273
2015    1       31    10   7    6.9699   447.8    8.365      46.338
2015    1       31    10  13    6.9774   448.0    8.364      46.402
2015    1       31    10  18    6.9849   448.1    8.364      46.466
2015    1       31    10  23    6.9924   448.3    8.363      46.529
2015    1       31    10  29    6.9999   448.5    8.362      46.591
2015    1       31    10  34    7.0074   448.6    8.361      46.653
2015    1       31    10  39    7.0149   448.8    8.361      46.715
2015    1       31    10  45    7.0224   449.0    8.360      46.776
2015    1       31    10  50    7.0299   449.1    8.359      46.837
2015    1       31    10  56    7.0374   449.3    8.358      46.898
2015    1       31    11   1    7.0449   449.4    8.357      46.959
2015    1       31    11   6    7.0524   449.6    8.357      47.020
2015    1       31    11  12    7.0599   449.8    8.356      47.081
2015    1       31    11  17    7.0675   449.9    8.356      47.143
2015    1       31    11  23    7.0751   450.1    8.355      47.204
2015    1       31    11  28    7.0827   450.3    8.355      47.266
2015    1       31    11  33    7.0902   450.5    8.355      47.328
2015    1       31    11  39    7.0979   450.6    8.355      47.391
2015    1       31    11  44    7.1055   450.8    8.355      47.454
2015    1       31    11  50    7.1132   451.0    8.355      47.517
2015    1       31    11  55    7.1208   451.1    8.355      47.581
2015    1       31    12   0    7.1285   451.3    8.355      47.646
2015    1       31    12   6    7.1361   451.5    8.356      47.711
2015    1       31    12  11    7.1438   451.7    8.357      47.776
2015    1       31    12  17    7.1514   451.8    8.358      47.842
2015    1       31    12  22    7.1591   452.0    8.359      47.908
2015    1       31    12  27    7.1667   452.2    8.360      47.974
2015    1       31    12  33    7.1744   452.4    8.361      48.041
2015    1       31    12  38    7.1820   452.6    8.363      48.109
2015    1       31    12  43    7.1897   452.7    8.365      48.177
2015    1       31    12  49    7.1972   452.9    8.367      48.245
2015    1       31    12  54    7.2048   453.1    8.369      48.313
2015    1       31    13   0    7.2123   453.3    8.372      48.382
2015    1       31    13   5    7.2196   453.4    8.375      48.452
2015    1       31    13  10    7.2274   453.6    8.378      48.522
2015    1       31    13  16    7.2349   453.8    8.382      48.594
2015    1       31    13  21    7.2423   454.0    8.386      48.668
2015    1       31    13  27    7.2498   454.2    8.390      48.743
2015    1       31    13  32    7.2572   454.4    8.394      48.820
2015    1       31    13  37    7.2646   454.6    8.398      48.899
2015    1       31    13  43    7.2721   454.8    8.403      48.979
2015    1       31    13  48    7.2792   455.0    8.408      49.062
2015    1       31    13  54    7.2869   455.2    8.413      49.145
2015    1       31    13  59    7.2943   455.4    8.418      49.230
2015    1       31    14   4    7.3018   455.6    8.424      49.317
2015    1       31    14  10    7.3091   455.8    8.429      49.406
2015    1       31    14  15    7.3165   456.0    8.435      49.497
2015    1       31    14  20    7.3239   456.3    8.440      49.589
2015    1       31    14  26    7.3312   456.5    8.446      49.684
2015    1       31    14  31    7.3386   456.7    8.452      49.779
2015    1       31    14  37    7.3459   456.9    8.458      49.875
2015    1       31    14  42    7.3529   457.2    8.464      49.973
2015    1       31    14  47    7.3605   457.4    8.471      50.072
2015    1       31    14  53    7.3677   457.6    8.477      50.173
2015    1       31    14  58    7.3750   457.9    8.484      50.275
2015    1       31    15   4    7.3823   458.1    8.491      50.379
2015    1       31    15   9    7.3895   458.3    8.498      50.484
2015    1       31    15  14    7.3968   458.6    8.506      50.590
2015    1       31    15  20    7.4041   458.8    8.514      50.699
2015    1       31    15  25    7.4115   459.1    8.522      50.809
2015    1       31    15  31    7.4189   459.3    8.531      50.925
2015    1       31    15  36    7.4263   459.6    8.539      51.044
2015    1       31    15  41    7.4339   459.9    8.548      51.168
2015    1       31    15  47    7.4415   460.2    8.557      51.295
2015    1       31    15  52    7.4492   460.5    8.565      51.427
2015    1       31    15  57    7.4570   460.8    8.574      51.562
2015    1       31    16   3    7.4649   461.1    8.583      51.701
2015    1       31    16   8    7.4729   461.4    8.591      51.842
2015    1       31    16  14    7.4810   461.8    8.599      51.985
2015    1       31    16  19    7.4890   462.1    8.607      52.129
2015    1       31    16  24    7.4972   462.4    8.614      52.275
2015    1       31    16  30    7.5053   462.8    8.620      52.423
2015    1       31    16  35    7.5135   463.2    8.626      52.572
2015    1       31    16  41    7.5216   463.6    8.631      52.721
2015    1       31    16  46    7.5297   463.9    8.636      52.869
2015    1       31    16  51    7.5377   464.3    8.639      53.014
2015    1       31    16  57    7.5456   464.7    8.642      53.156
2015    1       31    17   2    7.5534   465.1    8.644      53.296
2015    1       31    17   8    7.5612   465.5    8.645      53.434
2015    1       31    17  13    7.5688   465.9    8.645      53.568
2015    1       31    17  18    7.5763   466.3    8.645      53.700
2015    1       31    17  24    7.5836   466.6    8.643      53.828
2015    1       31    17  29    7.5908   467.0    8.641      53.954
2015    1       31    17  34    7.5979   467.4    8.638      54.076
2015    1       31    17  40    7.6049   467.8    8.634      54.196
2015    1       31    17  45    7.6117   468.2    8.630      54.312
2015    1       31    17  51    7.6184   468.6    8.625      54.425
2015    1       31    17  56    7.6250   469.0    8.619      54.536
2015    1       31    18   1    7.6315   469.4    8.613      54.644
2015    1       31    18   7    7.6379   469.8    8.606      54.750
2015    1       31    18  12    7.6442   470.2    8.599      54.853
2015    1       31    18  18    7.6505   470.6    8.591      54.955
2015    1       31    18  23    7.6566   471.0    8.583      55.054
2015    1       31    18  28    7.6627   471.4    8.574      55.151
2015    1       31    18  34    7.6688   471.8    8.566      55.247
2015    1       31    18  39    7.6748   472.2    8.557      55.342
2015    1       31    18  45    7.6807   472.5    8.547      55.435
2015    1       31    18  50    7.6867   472.9    8.538      55.527
2015    1       31    18  55    7.6926   473.3    8.529      55.619
2015    1       31    19   1    7.6986   473.7    8.519      55.710
2015    1       31    19   6    7.7045   474.1    8.509      55.801
2015    1       31    19  11    7.7104   474.5    8.499      55.891
2015    1       31    19  17    7.7164   474.9    8.489      55.981
2015    1       31    19  22    7.7224   475.3    8.479      56.072
2015    1       31    19  28    7.7284   475.6    8.469      56.163
2015    1       31    19  33    7.7345   476.0    8.459      56.254
2015    1       31    19  38    7.7405   476.4    8.449      56.345
2015    1       31    19  44    7.7465   476.8    8.438      56.436
2015    1       31    19  49    7.7526   477.2    8.428      56.528
2015    1       31    19  55    7.7587   477.6    8.418      56.619
2015    1       31    20   0    7.7648   478.0    8.407      56.711
2015    1       31    20   5    7.7709   478.4    8.397      56.803
2015    1       31    20  11    7.7770   478.8    8.386      56.895
2015    1       31    20  16    7.7831   479.2    8.376      56.987
2015    1       31    20  22    7.7892   479.6    8.365      57.080
2015    1       31    20  27    7.7953   480.0    8.355      57.172
2015    1       31    20  32    7.8014   480.4    8.344      57.264
2015    1       31    20  38    7.8075   480.8    8.334      57.355
2015    1       31    20  43    7.8136   481.2    8.323      57.447
2015    1       31    20  48    7.8197   481.6    8.313      57.538
2015    1       31    20  54    7.8256   482.0    8.303      57.629
2015    1       31    20  59    7.8315   482.4    8.293      57.720
2015    1       31    21   5    7.8375   482.8    8.283      57.811
2015    1       31    21  10    7.8433   483.2    8.273      57.901
2015    1       31    21  15    7.8492   483.6    8.263      57.991
2015    1       31    21  21    7.8550   484.0    8.254      58.081
2015    1       31    21  26    7.8607   484.4    8.244      58.171
2015    1       31    21  32    7.8664   484.8    8.235      58.261
2015    1       31    21  37    7.8721   485.2    8.226      58.351
2015    1       31    21  42    7.8776   485.6    8.216      58.442
2015    1       31    21  48    7.8831   486.0    8.208      58.533
2015    1       31    21  53    7.8886   486.4    8.199      58.623
2015    1       31    21  59    7.8939   486.8    8.191      58.713
2015    1       31    22   4    7.8992   487.2    8.183      58.801
2015    1       31    22   9    7.9044   487.6    8.175      58.889
2015    1       31    22  15    7.9096   488.0    8.168      58.977
2015    1       31    22  20    7.9146   488.4    8.161      59.066
2015    1       31    22  25    7.9196   488.8    8.155      59.156
2015    1       31    22  31    7.9245   489.2    8.148      59.247
2015    1       31    22  36    7.9294   489.6    8.143      59.339
2015    1       31    22  42    7.9343   489.9    8.138      59.432
2015    1       31    22  47    7.9392   490.3    8.133      59.526
2015    1       31    22  52    7.9441   490.6    8.129      59.623
2015    1       31    22  58    7.9492   491.0    8.125      59.723
2015    1       31    23   3    7.9545   491.4    8.122      59.827
2015    1       31    23   9    7.9598   491.8    8.120      59.937
2015    1       31    23  14    7.9653   492.2    8.118      60.053
2015    1       31    23  19    7.9707   492.6    8.117      60.177
2015    1       31    23  25    7.9766   493.1    8.117      60.309
2015    1       31    23  30    7.9824   493.5    8.117      60.448
2015    1       31    23  36    7.9882   494.0    8.117      60.596
2015    1       31    23  41    7.9942   494.4    8.117      60.750
2015    1       31    23  46    8.0001   494.9    8.117      60.912
2015    1       31    23  52    8.0063   495.4    8.117      61.079
2015    1       31    23  57    8.0124   496.0    8.116      61.253
2015    2        1     0   2    8.0182   496.5    8.116      61.431
2015    2        1     0   8    8.0241   497.0    8.114      61.613
2015    2        1     0  13    8.0304   497.6    8.112      61.798
2015    2        1     0  19    8.0360   498.1    8.109      61.981
2015    2        1     0  24    8.0415   498.7    8.105      62.164
2015    2        1     0  29    8.0467   499.2    8.100      62.344
2015    2        1     0  35    8.0518   499.8    8.095      62.523
2015    2        1     0  40    8.0565   500.4    8.088      62.699
2015    2        1     0  46    8.0610   500.9    8.081      62.873
2015    2        1     0  51    8.0653   501.5    8.073      63.045
2015    2        1     0  56    8.0693   502.1    8.063      63.214
2015    2        1     1   2    8.0730   502.7    8.053      63.380
2015    2        1     1   7    8.0765   503.3    8.043      63.543
2015    2        1     1  13    8.0797   503.9    8.031      63.702
2015    2        1     1  18    8.0828   504.5    8.019      63.857
2015    2        1     1  23    8.0856   505.1    8.006      64.009
2015    2        1     1  29    8.0882   505.7    7.992      64.158
2015    2        1     1  34    8.0906   506.3    7.978      64.303
2015    2        1     1  39    8.0929   506.9    7.963      64.444
2015    2        1     1  45    8.0950   507.5    7.948      64.582
2015    2        1     1  50    8.0970   508.1    7.932      64.717
2015    2        1     1  56    8.0989   508.8    7.916      64.849
2015    2        1     2   1    8.1007   509.4    7.900      64.978
2015    2        1     2   6    8.1024   510.0    7.883      65.104
2015    2        1     2  12    8.1041   510.6    7.867      65.227
2015    2        1     2  17    8.1057   511.2    7.850      65.349
2015    2        1     2  23    8.1072   511.8    7.833      65.468
2015    2        1     2  28    8.1087   512.4    7.816      65.586
2015    2        1     2  33    8.1101   513.0    7.798      65.702
2015    2        1     2  39    8.1115   513.6    7.781      65.817
2015    2        1     2  44    8.1129   514.2    7.763      65.931
2015    2        1     2  50    8.1142   514.8    7.746      66.044
2015    2        1     2  55    8.1154   515.5    7.728      66.157
2015    2        1     3   0    8.1167   516.1    7.711      66.269
2015    2        1     3   6    8.1179   516.7    7.693      66.381
2015    2        1     3  11    8.1190   517.3    7.675      66.493
2015    2        1     3  16    8.1201   518.0    7.658      66.605
2015    2        1     3  22    8.1211   518.6    7.640      66.716
2015    2        1     3  27    8.1221   519.3    7.622      66.828
2015    2        1     3  33    8.1231   519.9    7.604      66.940
2015    2        1     3  38    8.1240   520.6    7.586      67.052
2015    2        1     3  43    8.1248   521.2    7.568      67.164
2015    2        1     3  49    8.1255   521.9    7.550      67.276
2015    2        1     3  54    8.1262   522.6    7.532      67.388
2015    2        1     4   0    8.1267   523.3    7.513      67.501
2015    2        1     4   5    8.1271   523.9    7.495      67.613
2015    2        1     4  10    8.1275   524.6    7.476      67.727
2015    2        1     4  16    8.1276   525.3    7.457      67.841
2015    2        1     4  21    8.1276   526.0    7.438      67.957
2015    2        1     4  27    8.1274   526.8    7.419      68.074
2015    2        1     4  32    8.1270   527.5    7.399      68.193
2015    2        1     4  37    8.1264   528.2    7.379      68.314
2015    2        1     4  43    8.1256   528.9    7.358      68.437
2015    2        1     4  48    8.1244   529.7    7.337      68.561
2015    2        1     4  54    8.1230   530.4    7.315      68.685
2015    2        1     4  59    8.1211   531.2    7.292      68.809
2015    2        1     5   4    8.1188   531.9    7.268      68.933
2015    2        1     5  10    8.1160   532.7    7.244      69.060
2015    2        1     5  15    8.1128   533.5    7.218      69.183
2015    2        1     5  20    8.1088   534.2    7.191      69.299
2015    2        1     5  26    8.1044   534.9    7.163      69.409
2015    2        1     5  31    8.0993   535.7    7.134      69.511
2015    2        1     5  37    8.0940   536.4    7.106      69.608
2015    2        1     5  42    8.0882   537.1    7.076      69.699
2015    2        1     5  47    8.0821   537.8    7.047      69.784
2015    2        1     5  53    8.0757   538.5    7.018      69.865
2015    2        1     5  58    8.0693   539.1    6.988      69.944
2015    2        1     6   4    8.0617   539.8    6.960      70.020
2015    2        1     6   9    8.0560   540.5    6.931      70.097
2015    2        1     6  14    8.0493   541.1    6.903      70.172
2015    2        1     6  20    8.0427   541.8    6.877      70.245
2015    2        1     6  25    8.0362   542.4    6.851      70.321
2015    2        1     6  30    8.0300   543.0    6.826      70.404
2015    2        1     6  36    8.0238   543.7    6.802      70.493
2015    2        1     6  41    8.0179   544.4    6.779      70.587
2015    2        1     6  47    8.0120   545.0    6.756      70.686
2015    2        1     6  52    8.0062   545.7    6.734      70.789
2015    2        1     6  57    8.0005   546.4    6.712      70.897
2015    2        1     7   3    7.9948   547.0    6.691      71.008
2015    2        1     7   8    7.9891   547.7    6.670      71.123
2015    2        1     7  14    7.9834   548.4    6.650      71.242
2015    2        1     7  19    7.9777   549.1    6.630      71.362
2015    2        1     7  24    7.9719   549.8    6.609      71.486
2015    2        1     7  30    7.9661   550.5    6.589      71.610
2015    2        1     7  35    7.9602   551.2    6.569      71.736
2015    2        1     7  41    7.9542   551.9    6.548      71.862
2015    2        1     7  46    7.9481   552.6    6.527      71.987
2015    2        1     7  51    7.9418   553.3    6.506      72.110
2015    2        1     7  57    7.9353   554.0    6.485      72.231
2015    2        1     8   2    7.9286   554.7    6.464      72.348
2015    2        1     8   7    7.9219   555.4    6.443      72.460
2015    2        1     8  13    7.9149   556.1    6.421      72.566
2015    2        1     8  18    7.9078   556.8    6.400      72.667
2015    2        1     8  24    7.8995   557.4    6.378      72.762
2015    2        1     8  29    7.8933   558.1    6.357      72.852
2015    2        1     8  34    7.8859   558.8    6.335      72.937
2015    2        1     8  40    7.8786   559.4    6.314      73.017
2015    2        1     8  45    7.8711   560.1    6.293      73.092
2015    2        1     8  51    7.8638   560.7    6.272      73.162
2015    2        1     8  56    7.8563   561.4    6.251      73.230
2015    2        1     9   1    7.8489   562.1    6.230      73.294
2015    2        1     9   7    7.8415   562.7    6.209      73.357
2015    2        1     9  12    7.8341   563.4    6.189      73.417
2015    2        1     9  18    7.8266   564.1    6.168      73.478
2015    2        1     9  23    7.8190   564.8    6.147      73.538
2015    2        1     9  28    7.8113   565.5    6.126      73.598
2015    2        1     9  34    7.8034   566.3    6.105      73.662
2015    2        1     9  39    7.7953   567.1    6.082      73.730
2015    2        1     9  44    7.7870   567.9    6.059      73.792
2015    2        1     9  50    7.7771   568.7    6.035      73.849
2015    2        1     9  55    7.7689   569.5    6.011      73.899
2015    2        1    10   1    7.7594   570.3    5.987      73.945
2015    2        1    10   6    7.7497   571.0    5.962      73.984
2015    2        1    10  11    7.7397   571.8    5.937      74.019
2015    2        1    10  17    7.7297   572.5    5.913      74.051
2015    2        1    10  22    7.7186   573.2    5.888      74.079
2015    2        1    10  28    7.7092   573.9    5.864      74.103
2015    2        1    10  33    7.6989   574.5    5.840      74.122
2015    2        1    10  38    7.6886   575.2    5.816      74.138
2015    2        1    10  44    7.6784   575.7    5.794      74.146
2015    2        1    10  49    7.6683   576.2    5.772      74.143
2015    2        1    10  55    7.6584   576.7    5.751      74.136
2015    2        1    11   0    7.6489   577.1    5.732      74.130
2015    2        1    11   5    7.6396   577.5    5.714      74.128
2015    2        1    11  11    7.6305   577.9    5.696      74.130
2015    2        1    11  16    7.6216   578.3    5.679      74.140
2015    2        1    11  21    7.6129   578.7    5.663      74.156
2015    2        1    11  27    7.6045   579.1    5.648      74.184
2015    2        1    11  32    7.5962   579.5    5.634      74.230
2015    2        1    11  38    7.5882   580.0    5.621      74.291
2015    2        1    11  43    7.5803   580.4    5.608      74.365
2015    2        1    11  48    7.5725   580.9    5.596      74.450
2015    2        1    11  54    7.5648   581.4    5.584      74.544
2015    2        1    11  59    7.5571   581.9    5.573      74.647
2015    2        1    12   5    7.5495   582.4    5.561      74.756
2015    2        1    12  10    7.5419   582.8    5.550      74.866
2015    2        1    12  15    7.5343   583.3    5.539      74.979
2015    2        1    12  21    7.5260   583.8    5.529      75.091
2015    2        1    12  26    7.5193   584.3    5.518      75.204
2015    2        1    12  32    7.5110   584.8    5.507      75.317
2015    2        1    12  37    7.5043   585.3    5.496      75.431
2015    2        1    12  42    7.4967   585.8    5.485      75.537
2015    2        1    12  48    7.4892   586.3    5.474      75.638
2015    2        1    12  53    7.4809   586.8    5.462      75.733
2015    2        1    12  59    7.4741   587.3    5.450      75.824
2015    2        1    13   4    7.4657   587.8    5.438      75.911
2015    2        1    13   9    7.4588   588.3    5.426      75.993
2015    2        1    13  15    7.4510   588.8    5.414      76.072
2015    2        1    13  20    7.4432   589.4    5.401      76.146
2015    2        1    13  25    7.4352   589.9    5.388      76.215
2015    2        1    13  31    7.4273   590.4    5.375      76.280
2015    2        1    13  36    7.4192   590.9    5.362      76.340
2015    2        1    13  42    7.4112   591.5    5.348      76.397
2015    2        1    13  47    7.4029   592.0    5.334      76.448
2015    2        1    13  52    7.3947   592.6    5.320      76.500
2015    2        1    13  58    7.3863   593.2    5.306      76.553
2015    2        1    14   3    7.3770   593.8    5.291      76.609
2015    2        1    14   9    7.3689   594.4    5.276      76.667
2015    2        1    14  14    7.3599   595.1    5.261      76.723
2015    2        1    14  19    7.3505   595.7    5.244      76.779
2015    2        1    14  25    7.3408   596.5    5.226      76.840
2015    2        1    14  30    7.3304   597.2    5.207      76.898
2015    2        1    14  35    7.3195   598.0    5.187      76.941
2015    2        1    14  41    7.3079   598.7    5.165      76.972
2015    2        1    14  46    7.2959   599.4    5.143      76.990
2015    2        1    14  52    7.2835   600.1    5.121      76.998
2015    2        1    14  57    7.2707   600.8    5.098      76.996
2015    2        1    15   2    7.2577   601.4    5.074      76.983
2015    2        1    15   8    7.2444   602.0    5.050      76.958
2015    2        1    15  13    7.2310   602.6    5.027      76.925
2015    2        1    15  19    7.2175   603.1    5.003      76.885
2015    2        1    15  24    7.2040   603.7    4.980      76.840
2015    2        1    15  29    7.1907   604.2    4.957      76.791
2015    2        1    15  35    7.1774   604.6    4.934      76.733
2015    2        1    15  40    7.1644   605.1    4.913      76.667
2015    2        1    15  46    7.1517   605.5    4.893      76.606
2015    2        1    15  51    7.1391   605.9    4.873      76.551
2015    2        1    15  56    7.1275   606.3    4.854      76.499
2015    2        1    16   2    7.1155   606.7    4.836      76.451
2015    2        1    16   7    7.1044   607.2    4.819      76.406
2015    2        1    16  12    7.0933   607.6    4.802      76.364
2015    2        1    16  18    7.0824   607.9    4.786      76.325
2015    2        1    16  23    7.0717   608.3    4.770      76.290
2015    2        1    16  29    7.0612   608.7    4.755      76.258
2015    2        1    16  34    7.0509   609.1    4.740      76.228
2015    2        1    16  39    7.0406   609.5    4.725      76.202
2015    2        1    16  45    7.0305   609.8    4.711      76.177
2015    2        1    16  50    7.0205   610.2    4.697      76.155
2015    2        1    16  56    7.0105   610.6    4.683      76.135
2015    2        1    17   1    7.0006   611.0    4.669      76.118
2015    2        1    17   6    6.9907   611.4    4.655      76.100
2015    2        1    17  12    6.9807   611.9    4.641      76.082
2015    2        1    17  17    6.9706   612.3    4.626      76.063
2015    2        1    17  23    6.9603   612.8    4.612      76.042
2015    2        1    17  28    6.9498   613.2    4.597      76.015
2015    2        1    17  33    6.9396   613.6    4.582      75.981
2015    2        1    17  39    6.9291   614.1    4.567      75.940
2015    2        1    17  44    6.9185   614.5    4.552      75.892
2015    2        1    17  49    6.9079   614.9    4.536      75.838
2015    2        1    17  55    6.8972   615.3    4.521      75.779
2015    2        1    18   0    6.8866   615.6    4.506      75.716
2015    2        1    18   6    6.8760   616.0    4.491      75.648
2015    2        1    18  11    6.8655   616.3    4.476      75.577
2015    2        1    18  16    6.8549   616.6    4.461      75.503
2015    2        1    18  22    6.8445   617.0    4.447      75.428
2015    2        1    18  27    6.8342   617.3    4.433      75.355
2015    2        1    18  33    6.8239   617.6    4.419      75.284
2015    2        1    18  38    6.8137   617.9    4.406      75.215
2015    2        1    18  43    6.8037   618.2    4.392      75.149
2015    2        1    18  49    6.7937   618.5    4.379      75.084
2015    2        1    18  54    6.7838   618.8    4.367      75.022
2015    2        1    19   0    6.7740   619.1    4.354      74.963
2015    2        1    19   5    6.7642   619.4    4.342      74.906
2015    2        1    19  10    6.7546   619.7    4.330      74.852
2015    2        1    19  16    6.7450   620.0    4.318      74.800
2015    2        1    19  21    6.7354   620.2    4.307      74.750
2015    2        1    19  27    6.7260   620.5    4.296      74.702
2015    2        1    19  32    6.7165   620.8    4.285      74.656
2015    2        1    19  37    6.7072   621.1    4.274      74.612
2015    2        1    19  43    6.6979   621.3    4.263      74.568
2015    2        1    19  48    6.6887   621.6    4.253      74.526
2015    2        1    19  53    6.6795   621.8    4.243      74.483
2015    2        1    19  59    6.6705   622.1    4.232      74.441
2015    2        1    20   4    6.6615   622.3    4.222      74.399
2015    2        1    20  10    6.6526   622.6    4.212      74.356
2015    2        1    20  15    6.6438   622.8    4.203      74.313
2015    2        1    20  20    6.6350   623.0    4.193      74.269
2015    2        1    20  26    6.6264   623.2    4.184      74.224
2015    2        1    20  31    6.6178   623.4    4.174      74.177
2015    2        1    20  37    6.6094   623.6    4.165      74.130
2015    2        1    20  42    6.6010   623.8    4.156      74.082
2015    2        1    20  47    6.5928   624.0    4.147      74.033
2015    2        1    20  53    6.5847   624.1    4.139      73.984
2015    2        1    20  58    6.5770   624.3    4.130      73.937
2015    2        1    21   4    6.5687   624.4    4.122      73.891
2015    2        1    21   9    6.5609   624.6    4.114      73.846
2015    2        1    21  14    6.5531   624.7    4.106      73.802
2015    2        1    21  20    6.5457   624.9    4.098      73.759
2015    2        1    21  25    6.5378   625.0    4.091      73.717
2015    2        1    21  30    6.5306   625.2    4.083      73.675
2015    2        1    21  36    6.5228   625.3    4.076      73.634
2015    2        1    21  41    6.5153   625.5    4.069      73.593
2015    2        1    21  47    6.5079   625.7    4.062      73.551
2015    2        1    21  52    6.5006   625.8    4.055      73.509
2015    2        1    21  57    6.4932   626.0    4.048      73.465
2015    2        1    22   3    6.4859   626.2    4.041      73.421
2015    2        1    22   8    6.4786   626.3    4.034      73.376
2015    2        1    22  14    6.4712   626.5    4.027      73.329
2015    2        1    22  19    6.4639   626.7    4.021      73.280
2015    2        1    22  24    6.4565   626.9    4.014      73.228
2015    2        1    22  30    6.4492   627.1    4.007      73.174
2015    2        1    22  35    6.4418   627.3    4.000      73.119
2015    2        1    22  40    6.4344   627.4    3.993      73.061
2015    2        1    22  46    6.4270   627.6    3.986      73.003
2015    2        1    22  51    6.4195   627.8    3.979      72.945
2015    2        1    22  57    6.4121   627.9    3.972      72.886
2015    2        1    23   2    6.4047   628.1    3.964      72.825
2015    2        1    23   7    6.3973   628.3    3.957      72.763
2015    2        1    23  13    6.3899   628.5    3.949      72.698
2015    2        1    23  18    6.3829   628.7    3.942      72.632
2015    2        1    23  24    6.3751   628.8    3.935      72.566
2015    2        1    23  29    6.3678   629.0    3.927      72.498
2015    2        1    23  34    6.3605   629.1    3.920      72.429
2015    2        1    23  40    6.3532   629.2    3.912      72.359
2015    2        1    23  45    6.3460   629.4    3.905      72.289
2015    2        1    23  51    6.3390   629.5    3.898      72.219
2015    2        1    23  56    6.3319   629.6    3.891      72.150
2015    2        2     0   1    6.3250   629.7    3.885      72.081
2015    2        2     0   7    6.3181   629.8    3.878      72.014
2015    2        2     0  12    6.3114   630.0    3.872      71.951
2015    2        2     0  17    6.3046   630.1    3.865      71.891
2015    2        2     0  23    6.2979   630.3    3.859      71.833
2015    2        2     0  28    6.2912   630.4    3.853      71.778
2015    2        2     0  34    6.2846   630.6    3.847      71.725
2015    2        2     0  39    6.2779   630.7    3.841      71.673
2015    2        2     0  44    6.2712   630.9    3.836      71.621
2015    2        2     0  50    6.2645   631.1    3.830      71.568
2015    2        2     0  55    6.2577   631.3    3.824      71.516
2015    2        2     1   1    6.2509   631.4    3.818      71.464
2015    2        2     1   6    6.2441   631.6    3.812      71.413
2015    2        2     1  11    6.2373   631.8    3.806      71.361
2015    2        2     1  17    6.2304   631.9    3.800      71.308
2015    2        2     1  22    6.2235   632.1    3.794      71.253
2015    2        2     1  28    6.2166   632.2    3.788      71.198
2015    2        2     1  33    6.2097   632.4    3.782      71.142
2015    2        2     1  38    6.2030   632.5    3.776      71.085
2015    2        2     1  44    6.1959   632.6    3.770      71.028
2015    2        2     1  49    6.1890   632.8    3.763      70.971
2015    2        2     1  54    6.1822   632.9    3.757      70.915
2015    2        2     2   0    6.1754   633.0    3.751      70.858
2015    2        2     2   5    6.1686   633.2    3.745      70.801
2015    2        2     2  11    6.1619   633.3    3.739      70.746
2015    2        2     2  16    6.1552   633.4    3.733      70.691
2015    2        2     2  21    6.1486   633.5    3.727      70.636
2015    2        2     2  27    6.1420   633.6    3.721      70.584
2015    2        2     2  32    6.1355   633.8    3.715      70.531
2015    2        2     2  38    6.1290   633.9    3.709      70.480
2015    2        2     2  43    6.1226   634.0    3.704      70.428
2015    2        2     2  48    6.1161   634.1    3.698      70.376
2015    2        2     2  54    6.1098   634.3    3.692      70.325
2015    2        2     2  59    6.1034   634.4    3.686      70.274
2015    2        2     3   5    6.0970   634.5    3.680      70.222
2015    2        2     3  10    6.0907   634.6    3.675      70.170
2015    2        2     3  15    6.0844   634.7    3.669      70.117
2015    2        2     3  21    6.0781   634.9    3.663      70.063
2015    2        2     3  26    6.0718   635.0    3.657      70.008
2015    2        2     3  31    6.0656   635.1    3.651      69.952
2015    2        2     3  37    6.0593   635.2    3.646      69.895
2015    2        2     3  42    6.0531   635.3    3.640      69.835
2015    2        2     3  48    6.0469   635.4    3.634      69.775
2015    2        2     3  53    6.0407   635.5    3.628      69.714
2015    2        2     3  58    6.0345   635.5    3.622      69.652
2015    2        2     4   4    6.0283   635.6    3.617      69.590
2015    2        2     4   9    6.0224   635.7    3.611      69.527
2015    2        2     4  15    6.0160   635.8    3.606      69.463
2015    2        2     4  20    6.0102   635.9    3.600      69.400
2015    2        2     4  25    6.0038   635.9    3.595      69.336
2015    2        2     4  31    5.9977   636.0    3.589      69.273
2015    2        2     4  36    5.9916   636.1    3.584      69.211
2015    2        2     4  42    5.9856   636.1    3.579      69.149
2015    2        2     4  47    5.9795   636.2    3.573      69.088
2015    2        2     4  52    5.9735   636.3    3.568      69.028
2015    2        2     4  58    5.9675   636.3    3.563      68.968
2015    2        2     5   3    5.9615   636.4    3.558      68.908
2015    2        2     5   8    5.9555   636.4    3.553      68.849
2015    2        2     5  14    5.9496   636.5    3.548      68.790
2015    2        2     5  19    5.9436   636.6    3.544      68.732
2015    2        2     5  25    5.9376   636.6    3.539      68.674
2015    2        2     5  30    5.9319   636.7    3.534      68.615
2015    2        2     5  35    5.9257   636.7    3.529      68.557
2015    2        2     5  41    5.9198   636.8    3.525      68.499
2015    2        2     5  46    5.9139   636.8    3.520      68.440
2015    2        2     5  52    5.9079   636.9    3.515      68.382
2015    2        2     5  57    5.9020   637.0    3.511      68.323
2015    2        2     6   2    5.8960   637.0    3.506      68.264
2015    2        2     6   8    5.8903   637.1    3.501      68.205
2015    2        2     6  13    5.8842   637.1    3.497      68.145
2015    2        2     6  19    5.8783   637.1    3.492      68.086
2015    2        2     6  24    5.8723   637.2    3.488      68.026
2015    2        2     6  29    5.8665   637.2    3.484      67.967
2015    2        2     6  35    5.8608   637.3    3.479      67.907
2015    2        2     6  40    5.8547   637.3    3.475      67.848
2015    2        2     6  45    5.8489   637.4    3.471      67.789
2015    2        2     6  51    5.8431   637.4    3.466      67.730
2015    2        2     6  56    5.8373   637.4    3.462      67.672
2015    2        2     7   2    5.8315   637.5    3.458      67.613
2015    2        2     7   7    5.8258   637.5    3.454      67.555
2015    2        2     7  12    5.8200   637.6    3.450      67.498
2015    2        2     7  18    5.8143   637.6    3.446      67.441
2015    2        2     7  23    5.8086   637.6    3.443      67.384
2015    2        2     7  29    5.8029   637.7    3.439      67.328
2015    2        2     7  34    5.7973   637.7    3.435      67.272
2015    2        2     7  39    5.7916   637.7    3.432      67.216
2015    2        2     7  45    5.7860   637.8    3.428      67.162
2015    2        2     7  50    5.7804   637.8    3.425      67.107
2015    2        2     7  56    5.7748   637.8    3.422      67.054
2015    2        2     8   1    5.7693   637.8    3.419      67.001
2015    2        2     8   6    5.7637   637.8    3.415      66.948
2015    2        2     8  12    5.7582   637.9    3.412      66.897
2015    2        2     8  17    5.7527   637.9    3.409      66.845
2015    2        2     8  22    5.7472   637.9    3.406      66.795
2015    2        2     8  28    5.7417   637.9    3.404      66.745
2015    2        2     8  33    5.7363   637.9    3.401      66.695
2015    2        2     8  39    5.7308   637.9    3.398      66.646
2015    2        2     8  44    5.7253   638.0    3.395      66.597
2015    2        2     8  49    5.7199   638.0    3.393      66.548
2015    2        2     8  55    5.7145   638.0    3.390      66.500
2015    2        2     9   0    5.7091   638.0    3.388      66.452
2015    2        2     9   6    5.7037   638.0    3.385      66.404
2015    2        2     9  11    5.6983   638.0    3.382      66.356
2015    2        2     9  16    5.6929   638.0    3.380      66.308
2015    2        2     9  22    5.6876   638.0    3.377      66.259
2015    2        2     9  27    5.6822   638.0    3.375      66.211
2015    2        2     9  33    5.6769   638.0    3.372      66.162
2015    2        2     9  38    5.6715   638.0    3.370      66.114
2015    2        2     9  43    5.6662   638.0    3.367      66.065
2015    2        2     9  49    5.6608   638.0    3.365      66.016
2015    2        2     9  54    5.6555   638.0    3.362      65.966
2015    2        2     9  59    5.6502   638.0    3.359      65.916
2015    2        2    10   5    5.6449   638.0    3.357      65.866
2015    2        2    10  10    5.6397   638.0    3.354      65.816
2015    2        2    10  16    5.6344   638.0    3.351      65.765
2015    2        2    10  21    5.6291   637.9    3.349      65.714
2015    2        2    10  26    5.6239   637.9    3.346      65.662
2015    2        2    10  32    5.6187   637.9    3.343      65.610
2015    2        2    10  37    5.6135   637.9    3.340      65.558
2015    2        2    10  43    5.6085   637.9    3.338      65.505
2015    2        2    10  48    5.6031   637.8    3.335      65.452
2015    2        2    10  53    5.5980   637.8    3.332      65.398
2015    2        2    10  59    5.5929   637.8    3.329      65.344
2015    2        2    11   4    5.5878   637.8    3.326      65.290
2015    2        2    11  10    5.5827   637.7    3.323      65.235
2015    2        2    11  15    5.5776   637.7    3.320      65.180
2015    2        2    11  20    5.5726   637.7    3.317      65.124
2015    2        2    11  26    5.5676   637.6    3.314      65.069
2015    2        2    11  31    5.5626   637.6    3.311      65.012
2015    2        2    11  36    5.5576   637.5    3.308      64.956
2015    2        2    11  42    5.5527   637.5    3.305      64.899
2015    2        2    11  47    5.5478   637.5    3.302      64.841
2015    2        2    11  53    5.5432   637.4    3.299      64.784
2015    2        2    11  58    5.5381   637.4    3.296      64.726
2015    2        2    12   3    5.5332   637.3    3.293      64.667
2015    2        2    12   9    5.5284   637.3    3.290      64.609
2015    2        2    12  14    5.5236   637.2    3.287      64.550
2015    2        2    12  20    5.5188   637.2    3.284      64.491
2015    2        2    12  25    5.5141   637.1    3.281      64.431
2015    2        2    12  30    5.5093   637.1    3.278      64.371
2015    2        2    12  36    5.5046   637.0    3.275      64.311
2015    2        2    12  41    5.4999   636.9    3.272      64.250
2015    2        2    12  47    5.4952   636.9    3.269      64.190
2015    2        2    12  52    5.4905   636.8    3.266      64.129
2015    2        2    12  57    5.4859   636.8    3.262      64.068
2015    2        2    13   3    5.4812   636.7    3.259      64.006
2015    2        2    13   8    5.4766   636.6    3.256      63.945
2015    2        2    13  13    5.4720   636.6    3.253      63.883
2015    2        2    13  19    5.4674   636.5    3.250      63.822
2015    2        2    13  24    5.4628   636.4    3.247      63.760
2015    2        2    13  30    5.4583   636.4    3.244      63.699
2015    2        2    13  35    5.4538   636.3    3.241      63.637
2015    2        2    13  40    5.4494   636.2    3.238      63.575
2015    2        2    13  46    5.4447   636.2    3.235      63.514
2015    2        2    13  51    5.4402   636.1    3.232      63.453
2015    2        2    13  57    5.4358   636.0    3.229      63.391
2015    2        2    14   2    5.4313   636.0    3.227      63.330
2015    2        2    14   7    5.4269   635.9    3.224      63.269
2015    2        2    14  13    5.4224   635.8    3.221      63.208
2015    2        2    14  18    5.4180   635.7    3.218      63.148
2015    2        2    14  23    5.4136   635.7    3.216      63.087
2015    2        2    14  29    5.4092   635.6    3.213      63.027
2015    2        2    14  34    5.4049   635.5    3.210      62.967
2015    2        2    14  40    5.4005   635.4    3.208      62.908
2015    2        2    14  45    5.3961   635.4    3.205      62.849
2015    2        2    14  50    5.3918   635.3    3.203      62.790
2015    2        2    14  56    5.3875   635.2    3.200      62.731
2015    2        2    15   1    5.3831   635.1    3.198      62.673
2015    2        2    15   7    5.3788   635.1    3.196      62.615
2015    2        2    15  12    5.3746   635.0    3.193      62.558
2015    2        2    15  17    5.3702   634.9    3.191      62.501
2015    2        2    15  23    5.3659   634.8    3.189      62.444
2015    2        2    15  28    5.3616   634.8    3.186      62.388
2015    2        2    15  34    5.3573   634.7    3.184      62.333
2015    2        2    15  39    5.3530   634.6    3.182      62.278
2015    2        2    15  44    5.3487   634.5    3.180      62.223
2015    2        2    15  50    5.3444   634.4    3.178      62.169
2015    2        2    15  55    5.3402   634.4    3.176      62.116
2015    2        2    16   0    5.3359   634.3    3.174      62.063
2015    2        2    16   6    5.3316   634.2    3.172      62.010
2015    2        2    16  11    5.3273   634.1    3.170      61.958
2015    2        2    16  17    5.3231   634.0    3.169      61.907
2015    2        2    16  22    5.3188   633.9    3.167      61.855
2015    2        2    16  27    5.3145   633.9    3.165      61.805
2015    2        2    16  33    5.3103   633.8    3.163      61.755
2015    2        2    16  38    5.3061   633.7    3.162      61.705
2015    2        2    16  44    5.3018   633.6    3.160      61.655
2015    2        2    16  49    5.2975   633.5    3.158      61.606
2015    2        2    16  54    5.2932   633.4    3.157      61.557
2015    2        2    17   0    5.2890   633.3    3.155      61.508
2015    2        2    17   5    5.2847   633.2    3.154      61.460
2015    2        2    17  11    5.2805   633.1    3.152      61.411
2015    2        2    17  16    5.2762   633.0    3.151      61.362
2015    2        2    17  21    5.2719   632.9    3.149      61.314
2015    2        2    17  27    5.2676   632.8    3.148      61.265
2015    2        2    17  32    5.2634   632.7    3.146      61.217
2015    2        2    17  37    5.2591   632.6    3.145      61.168
2015    2        2    17  43    5.2549   632.5    3.143      61.119
2015    2        2    17  48    5.2507   632.4    3.142      61.071
2015    2        2    17  54    5.2464   632.3    3.140      61.022
2015    2        2    17  59    5.2422   632.2    3.139      60.973
2015    2        2    18   4    5.2379   632.1    3.138      60.925
2015    2        2    18  10    5.2338   632.0    3.137      60.876
2015    2        2    18  15    5.2296   631.9    3.135      60.828
2015    2        2    18  21    5.2254   631.8    3.134      60.780
2015    2        2    18  26    5.2213   631.6    3.133      60.732
2015    2        2    18  31    5.2172   631.5    3.132      60.685
2015    2        2    18  37    5.2131   631.4    3.131      60.638
2015    2        2    18  42    5.2091   631.3    3.130      60.592
2015    2        2    18  48    5.2051   631.1    3.129      60.546
2015    2        2    18  53    5.2011   631.0    3.129      60.501
2015    2        2    18  58    5.1971   630.9    3.128      60.456
2015    2        2    19   4    5.1932   630.8    3.127      60.412
2015    2        2    19   9    5.1893   630.6    3.127      60.368
2015    2        2    19  14    5.1855   630.5    3.127      60.325
2015    2        2    19  20    5.1816   630.4    3.126      60.283
2015    2        2    19  25    5.1778   630.3    3.126      60.241
2015    2        2    19  31    5.1740   630.1    3.126      60.200
2015    2        2    19  36    5.1702   630.0    3.125      60.159
2015    2        2    19  41    5.1665   629.9    3.125      60.119
2015    2        2    19  47    5.1627   629.7    3.125      60.080
2015    2        2    19  52    5.1590   629.6    3.125      60.041
2015    2        2    19  58    5.1553   629.5    3.125      60.003
2015    2        2    20   3    5.1516   629.3    3.125      59.966
2015    2        2    20   8    5.1481   629.2    3.125      59.928
2015    2        2    20  14    5.1443   629.1    3.125      59.891
2015    2        2    20  19    5.1406   628.9    3.125      59.854
2015    2        2    20  25    5.1370   628.8    3.124      59.816
2015    2        2    20  30    5.1333   628.7    3.124      59.778
2015    2        2    20  35    5.1297   628.5    3.124      59.740
2015    2        2    20  41    5.1260   628.4    3.123      59.702
2015    2        2    20  46    5.1224   628.3    3.123      59.663
2015    2        2    20  51    5.1188   628.1    3.122      59.623
2015    2        2    20  57    5.1152   628.0    3.122      59.583
2015    2        2    21   2    5.1116   627.8    3.121      59.541
2015    2        2    21   8    5.1080   627.7    3.120      59.499
2015    2        2    21  13    5.1044   627.6    3.119      59.456
2015    2        2    21  18    5.1008   627.4    3.119      59.413
2015    2        2    21  24    5.0973   627.3    3.118      59.368
2015    2        2    21  29    5.0937   627.1    3.117      59.323
2015    2        2    21  35    5.0902   627.0    3.116      59.278
2015    2        2    21  40    5.0866   626.9    3.115      59.231
2015    2        2    21  45    5.0830   626.7    3.113      59.184
2015    2        2    21  51    5.0795   626.6    3.112      59.136
2015    2        2    21  56    5.0759   626.4    3.111      59.087
2015    2        2    22   1    5.0726   626.3    3.110      59.038
2015    2        2    22   7    5.0689   626.1    3.109      58.988
2015    2        2    22  12    5.0654   626.0    3.107      58.938
2015    2        2    22  18    5.0619   625.8    3.106      58.886
2015    2        2    22  23    5.0583   625.7    3.104      58.835
2015    2        2    22  28    5.0549   625.5    3.103      58.783
2015    2        2    22  34    5.0514   625.4    3.102      58.730
2015    2        2    22  39    5.0479   625.2    3.100      58.677
2015    2        2    22  45    5.0444   625.1    3.099      58.624
2015    2        2    22  50    5.0410   624.9    3.097      58.570
2015    2        2    22  55    5.0376   624.7    3.095      58.516
2015    2        2    23   1    5.0343   624.6    3.094      58.461
2015    2        2    23   6    5.0307   624.4    3.092      58.407
2015    2        2    23  12    5.0274   624.3    3.091      58.352
2015    2        2    23  17    5.0240   624.1    3.089      58.297
2015    2        2    23  22    5.0206   623.9    3.087      58.241
2015    2        2    23  28    5.0173   623.8    3.086      58.186
2015    2        2    23  33    5.0139   623.6    3.084      58.130
2015    2        2    23  38    5.0106   623.5    3.082      58.074
2015    2        2    23  44    5.0073   623.3    3.081      58.018
2015    2        2    23  49    5.0040   623.1    3.079      57.962
2015    2        2    23  55    5.0007   623.0    3.077      57.906
2015    2        3     0   0    4.9974   622.8    3.076      57.849
2015    2        3     0   5    4.9941   622.6    3.074      57.793
2015    2        3     0  11    4.9909   622.5    3.072      57.736
2015    2        3     0  16    4.9876   622.3    3.071      57.680
2015    2        3     0  22    4.9843   622.1    3.069      57.623
2015    2        3     0  27    4.9810   621.9    3.067      57.566
2015    2        3     0  32    4.9778   621.8    3.066      57.509
2015    2        3     0  38    4.9745   621.6    3.064      57.452
2015    2        3     0  43    4.9713   621.4    3.063      57.395
2015    2        3     0  49    4.9682   621.3    3.061      57.337
2015    2        3     0  54    4.9647   621.1    3.059      57.280
2015    2        3     0  59    4.9615   620.9    3.058      57.222
2015    2        3     1   5    4.9582   620.7    3.056      57.165
2015    2        3     1  10    4.9550   620.5    3.055      57.108
2015    2        3     1  15    4.9517   620.4    3.053      57.050
2015    2        3     1  21    4.9485   620.2    3.052      56.993
2015    2        3     1  26    4.9452   620.0    3.051      56.936
2015    2        3     1  32    4.9420   619.8    3.049      56.879
2015    2        3     1  37    4.9388   619.6    3.048      56.823
2015    2        3     1  42    4.9356   619.4    3.047      56.767
2015    2        3     1  48    4.9324   619.3    3.046      56.712
2015    2        3     1  53    4.9292   619.1    3.045      56.657
2015    2        3     1  59    4.9260   618.9    3.044      56.603
2015    2        3     2   4    4.9229   618.7    3.043      56.549
2015    2        3     2   9    4.9197   618.5    3.042      56.496
2015    2        3     2  15    4.9166   618.3    3.041      56.445
2015    2        3     2  20    4.9135   618.1    3.041      56.394
2015    2        3     2  26    4.9104   617.9    3.040      56.344
2015    2        3     2  31    4.9073   617.7    3.040      56.295
2015    2        3     2  36    4.9042   617.6    3.040      56.247
2015    2        3     2  42    4.9012   617.4    3.040      56.199
2015    2        3     2  47    4.8981   617.2    3.040      56.153
2015    2        3     2  52    4.8951   617.0    3.040      56.107
2015    2        3     2  58    4.8920   616.8    3.040      56.062
2015    2        3     3   3    4.8890   616.6    3.040      56.018
2015    2        3     3   9    4.8859   616.4    3.040      55.975
2015    2        3     3  14    4.8829   616.3    3.040      55.933
2015    2        3     3  19    4.8798   616.1    3.041      55.892
2015    2        3     3  25    4.8768   615.9    3.041      55.852
2015    2        3     3  30    4.8737   615.7    3.042      55.812
2015    2        3     3  36    4.8706   615.5    3.042      55.772
2015    2        3     3  41    4.8675   615.3    3.042      55.732
2015    2        3     3  46    4.8644   615.1    3.043      55.692
2015    2        3     3  52    4.8613   615.0    3.043      55.653
2015    2        3     3  57    4.8582   614.8    3.044      55.613
2015    2        3     4   3    4.8550   614.6    3.044      55.573
2015    2        3     4   8    4.8519   614.4    3.044      55.533
2015    2        3     4  13    4.8487   614.2    3.045      55.493
2015    2        3     4  19    4.8456   614.0    3.045      55.451
2015    2        3     4  24    4.8424   613.8    3.045      55.410
2015    2        3     4  29    4.8393   613.6    3.046      55.368
2015    2        3     4  35    4.8361   613.4    3.046      55.325
2015    2        3     4  40    4.8330   613.1    3.046      55.283
2015    2        3     4  46    4.8298   612.9    3.046      55.240
2015    2        3     4  51    4.8267   612.7    3.047      55.197
2015    2        3     4  56    4.8235   612.5    3.047      55.153
2015    2        3     5   2    4.8203   612.3    3.047      55.110
2015    2        3     5   7    4.8172   612.1    3.048      55.066
2015    2        3     5  13    4.8141   611.9    3.048      55.023
2015    2        3     5  18    4.8110   611.6    3.048      54.979
2015    2        3     5  23    4.8079   611.4    3.049      54.936
2015    2        3     5  29    4.8048   611.2    3.049      54.892
2015    2        3     5  34    4.8017   611.0    3.049      54.849
2015    2        3     5  39    4.7986   610.7    3.050      54.806
2015    2        3     5  45    4.7956   610.5    3.050      54.763
2015    2        3     5  50    4.7926   610.3    3.050      54.720
2015    2        3     5  56    4.7896   610.1    3.051      54.678
2015    2        3     6   1    4.7866   609.8    3.051      54.635
2015    2        3     6   6    4.7837   609.6    3.052      54.593
2015    2        3     6  12    4.7807   609.4    3.052      54.551
2015    2        3     6  17    4.7778   609.1    3.052      54.509
2015    2        3     6  23    4.7749   608.9    3.053      54.468
2015    2        3     6  28    4.7720   608.7    3.053      54.426
2015    2        3     6  33    4.7692   608.4    3.053      54.384
2015    2        3     6  39    4.7663   608.2    3.054      54.342
2015    2        3     6  44    4.7635   608.0    3.054      54.299
2015    2        3     6  50    4.7607   607.7    3.054      54.257
2015    2        3     6  55    4.7579   607.5    3.054      54.213
2015    2        3     7   0    4.7552   607.3    3.055      54.170
2015    2        3     7   6    4.7524   607.0    3.055      54.126
2015    2        3     7  11    4.7497   606.8    3.055      54.081
2015    2        3     7  16    4.7470   606.6    3.055      54.036
2015    2        3     7  22    4.7442   606.3    3.055      53.991
2015    2        3     7  27    4.7415   606.1    3.055      53.945
2015    2        3     7  33    4.7388   605.9    3.055      53.898
2015    2        3     7  38    4.7361   605.6    3.055      53.851
2015    2        3     7  43    4.7334   605.4    3.054      53.803
2015    2        3     7  49    4.7307   605.2    3.054      53.755
2015    2        3     7  54    4.7280   604.9    3.054      53.706
2015    2        3     8   0    4.7253   604.7    3.054      53.657
2015    2        3     8   5    4.7226   604.5    3.053      53.608
2015    2        3     8  10    4.7200   604.2    3.053      53.558
2015    2        3     8  16    4.7173   604.0    3.053      53.507
2015    2        3     8  21    4.7146   603.8    3.052      53.456
2015    2        3     8  27    4.7119   603.5    3.052      53.405
2015    2        3     8  32    4.7092   603.3    3.051      53.353
2015    2        3     8  37    4.7064   603.1    3.051      53.300
2015    2        3     8  43    4.7037   602.9    3.050      53.248
2015    2        3     8  48    4.7010   602.6    3.049      53.194
2015    2        3     8  53    4.6983   602.4    3.049      53.141
2015    2        3     8  59    4.6956   602.2    3.048      53.087
2015    2        3     9   4    4.6929   601.9    3.047      53.032
2015    2        3     9  10    4.6902   601.7    3.047      52.978
2015    2        3     9  15    4.6875   601.5    3.046      52.923
2015    2        3     9  20    4.6847   601.2    3.045      52.867
2015    2        3     9  26    4.6820   601.0    3.044      52.812
2015    2        3     9  31    4.6793   600.8    3.044      52.756
2015    2        3     9  37    4.6766   600.5    3.043      52.700
2015    2        3     9  42    4.6738   600.3    3.042      52.643
2015    2        3     9  47    4.6711   600.1    3.041      52.587
2015    2        3     9  53    4.6684   599.8    3.040      52.530
2015    2        3     9  58    4.6657   599.6    3.040      52.473
2015    2        3    10   4    4.6630   599.3    3.039      52.416
2015    2        3    10   9    4.6602   599.1    3.038      52.359
2015    2        3    10  14    4.6575   598.9    3.037      52.302
2015    2        3    10  20    4.6548   598.6    3.037      52.244
2015    2        3    10  25    4.6521   598.4    3.036      52.187
2015    2        3    10  30    4.6493   598.2    3.035      52.129
2015    2        3    10  36    4.6466   597.9    3.034      52.071
2015    2        3    10  41    4.6438   597.7    3.034      52.013
2015    2        3    10  47    4.6411   597.4    3.033      51.955
2015    2        3    10  52    4.6384   597.2    3.032      51.897
2015    2        3    10  57    4.6356   596.9    3.032      51.838
2015    2        3    11   3    4.6329   596.7    3.031      51.780
2015    2        3    11   8    4.6301   596.4    3.030      51.721
2015    2        3    11  14    4.6273   596.2    3.030      51.663
2015    2        3    11  19    4.6246   595.9    3.029      51.604
2015    2        3    11  24    4.6218   595.7    3.029      51.546
2015    2        3    11  30    4.6191   595.4    3.028      51.487
2015    2        3    11  35    4.6163   595.2    3.028      51.429
2015    2        3    11  41    4.6135   594.9    3.027      51.370
2015    2        3    11  46    4.6108   594.7    3.027      51.312
2015    2        3    11  51    4.6080   594.4    3.027      51.254
2015    2        3    11  57    4.6052   594.1    3.026      51.196
2015    2        3    12   2    4.6026   593.9    3.026      51.139
2015    2        3    12   7    4.5997   593.6    3.026      51.081
2015    2        3    12  13    4.5970   593.3    3.026      51.024
2015    2        3    12  18    4.5944   593.0    3.025      50.967
2015    2        3    12  24    4.5916   592.8    3.025      50.911
2015    2        3    12  29    4.5888   592.5    3.025      50.855
2015    2        3    12  34    4.5862   592.2    3.025      50.799
2015    2        3    12  40    4.5835   591.9    3.026      50.744
2015    2        3    12  45    4.5808   591.6    3.026      50.690
2015    2        3    12  51    4.5782   591.4    3.026      50.636
2015    2        3    12  56    4.5756   591.1    3.026      50.583
2015    2        3    13   1    4.5730   590.8    3.027      50.531
2015    2        3    13   7    4.5705   590.5    3.027      50.479
2015    2        3    13  12    4.5679   590.2    3.028      50.428
2015    2        3    13  17    4.5654   589.9    3.028      50.378
2015    2        3    13  23    4.5629   589.6    3.029      50.329
2015    2        3    13  28    4.5604   589.3    3.030      50.281
2015    2        3    13  34    4.5580   589.0    3.031      50.233
2015    2        3    13  39    4.5556   588.7    3.032      50.187
2015    2        3    13  44    4.5531   588.4    3.033      50.141
2015    2        3    13  50    4.5508   588.2    3.034      50.095
2015    2        3    13  55    4.5484   587.9    3.035      50.051
2015    2        3    14   1    4.5461   587.6    3.036      50.007
2015    2        3    14   6    4.5438   587.3    3.038      49.963
2015    2        3    14  11    4.5415   587.0    3.039      49.920
2015    2        3    14  17    4.5392   586.7    3.040      49.877
2015    2        3    14  22    4.5369   586.4    3.042      49.835
2015    2        3    14  28    4.5347   586.1    3.043      49.793
2015    2        3    14  33    4.5324   585.8    3.044      49.751
2015    2        3    14  38    4.5302   585.5    3.046      49.709
2015    2        3    14  44    4.5280   585.2    3.047      49.668
2015    2        3    14  49    4.5257   584.9    3.049      49.627
2015    2        3    14  54    4.5235   584.6    3.050      49.585
2015    2        3    15   0    4.5213   584.4    3.052      49.544
2015    2        3    15   5    4.5191   584.1    3.053      49.503
2015    2        3    15  11    4.5168   583.8    3.055      49.462
2015    2        3    15  16    4.5146   583.5    3.056      49.421
2015    2        3    15  21    4.5124   583.2    3.058      49.379
2015    2        3    15  27    4.5101   582.9    3.059      49.338
2015    2        3    15  32    4.5079   582.6    3.061      49.296
2015    2        3    15  38    4.5056   582.3    3.062      49.254
2015    2        3    15  43    4.5034   582.1    3.063      49.212
2015    2        3    15  48    4.5011   581.8    3.065      49.169
2015    2        3    15  54    4.4988   581.5    3.066      49.126
2015    2        3    15  59    4.4966   581.2    3.067      49.083
2015    2        3    16   5    4.4943   580.9    3.068      49.039
2015    2        3    16  10    4.4920   580.6    3.069      48.996
2015    2        3    16  15    4.4897   580.3    3.070      48.951
2015    2        3    16  21    4.4874   580.1    3.071      48.907
2015    2        3    16  26    4.4852   579.8    3.072      48.862
2015    2        3    16  31    4.4829   579.5    3.073      48.816
2015    2        3    16  37    4.4806   579.2    3.074      48.771
2015    2        3    16  42    4.4784   578.9    3.075      48.725
2015    2        3    16  48    4.4761   578.6    3.076      48.679
2015    2        3    16  53    4.4739   578.3    3.077      48.632
2015    2        3    16  58    4.4716   578.0    3.078      48.586
2015    2        3    17   4    4.4694   577.7    3.079      48.539
2015    2        3    17   9    4.4672   577.4    3.080      48.492
2015    2        3    17  15    4.4650   577.1    3.080      48.444
2015    2        3    17  20    4.4628   576.8    3.081      48.397
2015    2        3    17  25    4.4606   576.6    3.082      48.350
2015    2        3    17  31    4.4584   576.3    3.083      48.303
2015    2        3    17  36    4.4563   576.0    3.084      48.255
2015    2        3    17  42    4.4541   575.7    3.085      48.208
2015    2        3    17  47    4.4520   575.4    3.086      48.161
2015    2        3    17  52    4.4498   575.1    3.087      48.114
2015    2        3    17  58    4.4477   574.8    3.088      48.066
2015    2        3    18   3    4.4456   574.5    3.089      48.019
2015    2        3    18   8    4.4434   574.2    3.090      47.972
2015    2        3    18  14    4.4413   573.9    3.091      47.924
2015    2        3    18  19    4.4391   573.6    3.092      47.877
2015    2        3    18  25    4.4370   573.3    3.093      47.829
2015    2        3    18  30    4.4348   573.0    3.094      47.781
2015    2        3    18  35    4.4327   572.7    3.094      47.733
2015    2        3    18  41    4.4306   572.4    3.095      47.685
2015    2        3    18  46    4.4284   572.1    3.096      47.637
2015    2        3    18  52    4.4262   571.8    3.097      47.589
2015    2        3    18  57    4.4241   571.5    3.098      47.540
2015    2        3    19   2    4.4219   571.2    3.099      47.491
2015    2        3    19   8    4.4197   570.9    3.100      47.442
2015    2        3    19  13    4.4176   570.6    3.100      47.392
2015    2        3    19  18    4.4156   570.3    3.101      47.343
2015    2        3    19  24    4.4133   570.0    3.102      47.293
2015    2        3    19  29    4.4112   569.7    3.102      47.242
2015    2        3    19  35    4.4090   569.4    3.103      47.191
2015    2        3    19  40    4.4069   569.1    3.103      47.140
2015    2        3    19  45    4.4048   568.8    3.104      47.089
2015    2        3    19  51    4.4027   568.5    3.105      47.037
2015    2        3    19  56    4.4006   568.1    3.105      46.985
2015    2        3    20   2    4.3986   567.8    3.106      46.932
2015    2        3    20   7    4.3965   567.5    3.106      46.880
2015    2        3    20  12    4.3945   567.2    3.107      46.827
2015    2        3    20  18    4.3925   566.9    3.107      46.774
2015    2        3    20  23    4.3904   566.5    3.108      46.720
2015    2        3    20  29    4.3884   566.2    3.108      46.667
2015    2        3    20  34    4.3865   565.9    3.109      46.614
2015    2        3    20  39    4.3845   565.6    3.110      46.560
2015    2        3    20  45    4.3826   565.3    3.110      46.507
2015    2        3    20  50    4.3806   564.9    3.111      46.454
2015    2        3    20  55    4.3787   564.6    3.112      46.401
2015    2        3    21   1    4.3768   564.3    3.113      46.349
2015    2        3    21   6    4.3749   564.0    3.114      46.297
2015    2        3    21  12    4.3731   563.6    3.114      46.245
2015    2        3    21  17    4.3712   563.3    3.115      46.193
2015    2        3    21  22    4.3694   563.0    3.116      46.142
2015    2        3    21  28    4.3676   562.6    3.118      46.092
2015    2        3    21  33    4.3657   562.3    3.119      46.042
2015    2        3    21  39    4.3640   562.0    3.120      45.992
2015    2        3    21  44    4.3621   561.7    3.121      45.942
2015    2        3    21  49    4.3604   561.3    3.122      45.893
2015    2        3    21  55    4.3586   561.0    3.124      45.844
2015    2        3    22   0    4.3568   560.7    3.125      45.795
2015    2        3    22   6    4.3550   560.4    3.126      45.747
2015    2        3    22  11    4.3533   560.0    3.128      45.699
2015    2        3    22  16    4.3515   559.7    3.129      45.651
2015    2        3    22  22    4.3498   559.4    3.131      45.603
2015    2        3    22  27    4.3480   559.0    3.132      45.555
2015    2        3    22  32    4.3463   558.7    3.134      45.507
2015    2        3    22  38    4.3445   558.4    3.135      45.459
2015    2        3    22  43    4.3428   558.0    3.137      45.411
2015    2        3    22  49    4.3410   557.7    3.139      45.363
2015    2        3    22  54    4.3393   557.4    3.140      45.315
2015    2        3    22  59    4.3376   557.0    3.142      45.267
2015    2        3    23   5    4.3359   556.7    3.144      45.220
2015    2        3    23  10    4.3342   556.4    3.145      45.172
2015    2        3    23  16    4.3325   556.0    3.147      45.124
2015    2        3    23  21    4.3308   555.7    3.149      45.077
2015    2        3    23  26    4.3291   555.3    3.151      45.029
2015    2        3    23  32    4.3275   555.0    3.153      44.982
2015    2        3    23  37    4.3259   554.6    3.154      44.935
2015    2        3    23  43    4.3243   554.3    3.156      44.888
2015    2        3    23  48    4.3227   554.0    3.158      44.842
2015    2        3    23  53    4.3211   553.6    3.160      44.796
2015    2        3    23  59    4.3196   553.3    3.163      44.750
2015    2        4     0   4    4.3181   552.9    3.165      44.705
2015    2        4     0   9    4.3166   552.6    3.167      44.661
2015    2        4     0  15    4.3151   552.2    3.169      44.617
2015    2        4     0  20    4.3137   551.9    3.172      44.573
2015    2        4     0  26    4.3123   551.5    3.174      44.531
2015    2        4     0  31    4.3109   551.2    3.177      44.489
2015    2        4     0  36    4.3096   550.8    3.179      44.447
2015    2        4     0  42    4.3082   550.5    3.182      44.407
2015    2        4     0  47    4.3069   550.2    3.185      44.367
2015    2        4     0  53    4.3057   549.8    3.188      44.328
2015    2        4     0  58    4.3044   549.5    3.191      44.290
2015    2        4     1   3    4.3032   549.1    3.194      44.252
2015    2        4     1   9    4.3019   548.8    3.197      44.215
2015    2        4     1  14    4.3007   548.4    3.200      44.179
2015    2        4     1  19    4.2995   548.1    3.204      44.144
2015    2        4     1  25    4.2983   547.8    3.207      44.108
2015    2        4     1  30    4.2971   547.4    3.210      44.074
2015    2        4     1  36    4.2959   547.1    3.214      44.040
2015    2        4     1  41    4.2947   546.8    3.217      44.006
2015    2        4     1  46    4.2935   546.4    3.221      43.973
2015    2        4     1  52    4.2923   546.1    3.224      43.940
2015    2        4     1  57    4.2911   545.8    3.228      43.907
2015    2        4     2   3    4.2900   545.4    3.231      43.874
2015    2        4     2   8    4.2888   545.1    3.235      43.842
2015    2        4     2  13    4.2876   544.8    3.238      43.809
2015    2        4     2  19    4.2865   544.4    3.242      43.777
2015    2        4     2  24    4.2854   544.1    3.245      43.745
2015    2        4     2  30    4.2843   543.8    3.249      43.712
2015    2        4     2  35    4.2832   543.4    3.252      43.680
2015    2        4     2  40    4.2821   543.1    3.256      43.648
2015    2        4     2  46    4.2810   542.8    3.259      43.615
2015    2        4     2  51    4.2801   542.4    3.263      43.583
2015    2        4     2  56    4.2789   542.1    3.266      43.550
2015    2        4     3   2    4.2779   541.7    3.270      43.518
2015    2        4     3   7    4.2770   541.4    3.273      43.485
2015    2        4     3  13    4.2760   541.1    3.276      43.452
2015    2        4     3  18    4.2751   540.7    3.280      43.419
2015    2        4     3  23    4.2741   540.4    3.283      43.386
2015    2        4     3  29    4.2732   540.1    3.287      43.353
2015    2        4     3  34    4.2724   539.8    3.290      43.320
2015    2        4     3  40    4.2715   539.4    3.294      43.287
2015    2        4     3  45    4.2707   539.1    3.297      43.253
2015    2        4     3  50    4.2699   538.8    3.300      43.219
2015    2        4     3  56    4.2689   538.4    3.304      43.185
2015    2        4     4   1    4.2681   538.1    3.307      43.151
2015    2        4     4   7    4.2674   537.8    3.310      43.117
2015    2        4     4  12    4.2665   537.5    3.313      43.082
2015    2        4     4  17    4.2656   537.1    3.317      43.047
2015    2        4     4  23    4.2648   536.8    3.320      43.011
2015    2        4     4  28    4.2640   536.5    3.323      42.976
2015    2        4     4  33    4.2632   536.2    3.326      42.940
2015    2        4     4  39    4.2624   535.8    3.329      42.904
2015    2        4     4  44    4.2616   535.5    3.332      42.867
2015    2        4     4  50    4.2608   535.2    3.335      42.830
2015    2        4     4  55    4.2601   534.9    3.338      42.793
2015    2        4     5   0    4.2593   534.5    3.341      42.756
2015    2        4     5   6    4.2585   534.2    3.344      42.718
2015    2        4     5  11    4.2577   533.9    3.346      42.679
2015    2        4     5  17    4.2570   533.6    3.349      42.641
2015    2        4     5  22    4.2562   533.2    3.352      42.602
2015    2        4     5  27    4.2555   532.9    3.355      42.563
2015    2        4     5  33    4.2548   532.6    3.358      42.523
2015    2        4     5  38    4.2541   532.2    3.360      42.484
2015    2        4     5  44    4.2534   531.9    3.363      42.444
2015    2        4     5  49    4.2527   531.6    3.366      42.404
2015    2        4     5  54    4.2520   531.3    3.368      42.363
2015    2        4     6   0    4.2514   530.9    3.371      42.323
2015    2        4     6   5    4.2507   530.6    3.374      42.282
2015    2        4     6  10    4.2501   530.3    3.377      42.242
2015    2        4     6  16    4.2496   529.9    3.379      42.201
2015    2        4     6  21    4.2489   529.6    3.382      42.160
2015    2        4     6  27    4.2483   529.3    3.385      42.120
2015    2        4     6  32    4.2477   529.0    3.387      42.079
2015    2        4     6  37    4.2472   528.6    3.390      42.039
2015    2        4     6  43    4.2467   528.3    3.393      41.999
2015    2        4     6  48    4.2462   528.0    3.396      41.959
2015    2        4     6  54    4.2457   527.6    3.399      41.919
2015    2        4     6  59    4.2453   527.3    3.402      41.879
2015    2        4     7   4    4.2448   527.0    3.405      41.840
2015    2        4     7  10    4.2444   526.7    3.408      41.801
2015    2        4     7  15    4.2440   526.3    3.411      41.763
2015    2        4     7  20    4.2436   526.0    3.414      41.724
2015    2        4     7  26    4.2433   525.7    3.417      41.687
2015    2        4     7  31    4.2430   525.3    3.420      41.649
2015    2        4     7  37    4.2427   525.0    3.423      41.612
2015    2        4     7  42    4.2424   524.7    3.427      41.576
2015    2        4     7  47    4.2421   524.4    3.430      41.540
2015    2        4     7  53    4.2419   524.0    3.434      41.505
2015    2        4     7  58    4.2417   523.7    3.437      41.470
2015    2        4     8   4    4.2415   523.4    3.441      41.435
2015    2        4     8   9    4.2413   523.1    3.444      41.402
2015    2        4     8  14    4.2412   522.7    3.448      41.368
2015    2        4     8  20    4.2411   522.4    3.452      41.336
2015    2        4     8  25    4.2410   522.1    3.456      41.304
2015    2        4     8  31    4.2409   521.8    3.460      41.272
2015    2        4     8  36    4.2408   521.4    3.464      41.241
2015    2        4     8  41    4.2408   521.1    3.468      41.210
2015    2        4     8  47    4.2408   520.8    3.472      41.180
2015    2        4     8  52    4.2408   520.5    3.476      41.151
2015    2        4     8  57    4.2408   520.2    3.480      41.121
2015    2        4     9   3    4.2409   519.8    3.484      41.093
2015    2        4     9   8    4.2410   519.5    3.489      41.065
2015    2        4     9  14    4.2411   519.2    3.493      41.037
2015    2        4     9  19    4.2412   518.9    3.498      41.009
2015    2        4     9  24    4.2414   518.6    3.502      40.982
2015    2        4     9  30    4.2416   518.3    3.507      40.956
2015    2        4     9  35    4.2417   518.0    3.511      40.930
2015    2        4     9  41    4.2419   517.7    3.516      40.904
2015    2        4     9  46    4.2421   517.3    3.521      40.879
2015    2        4     9  51    4.2423   517.0    3.525      40.853
2015    2        4     9  57    4.2426   516.7    3.530      40.829
2015    2        4    10   2    4.2430   516.4    3.535      40.804
2015    2        4    10   7    4.2433   516.1    3.540      40.780
2015    2        4    10  13    4.2436   515.8    3.545      40.757
2015    2        4    10  18    4.2439   515.5    3.550      40.733
2015    2        4    10  24    4.2442   515.2    3.555      40.710
2015    2        4    10  29    4.2446   514.9    3.560      40.688
2015    2        4    10  34    4.2450   514.6    3.565      40.665
2015    2        4    10  40    4.2454   514.3    3.570      40.643
2015    2        4    10  45    4.2458   514.0    3.575      40.621
2015    2        4    10  51    4.2462   513.7    3.580      40.599
2015    2        4    10  56    4.2466   513.4    3.585      40.577
2015    2        4    11   1    4.2470   513.2    3.590      40.556
2015    2        4    11   7    4.2475   512.9    3.595      40.534
2015    2        4    11  12    4.2479   512.6    3.600      40.513
2015    2        4    11  18    4.2484   512.3    3.605      40.492
2015    2        4    11  23    4.2488   512.0    3.610      40.471
2015    2        4    11  28    4.2492   511.7    3.615      40.450
2015    2        4    11  34    4.2497   511.4    3.620      40.428
2015    2        4    11  39    4.2501   511.1    3.625      40.407
2015    2        4    11  44    4.2507   510.9    3.630      40.386
2015    2        4    11  50    4.2511   510.6    3.635      40.365
2015    2        4    11  55    4.2515   510.3    3.640      40.344
2015    2        4    12   1    4.2520   510.0    3.645      40.323
2015    2        4    12   6    4.2526   509.7    3.650      40.302
2015    2        4    12  11    4.2529   509.4    3.654      40.281
2015    2        4    12  17    4.2535   509.2    3.659      40.260
2015    2        4    12  22    4.2539   508.9    3.664      40.239
2015    2        4    12  28    4.2543   508.6    3.669      40.218
2015    2        4    12  33    4.2548   508.3    3.674      40.197
2015    2        4    12  38    4.2553   508.0    3.678      40.175
2015    2        4    12  44    4.2558   507.8    3.683      40.154
2015    2        4    12  49    4.2563   507.5    3.688      40.133
2015    2        4    12  55    4.2569   507.2    3.692      40.111
2015    2        4    13   0    4.2574   506.9    3.697      40.090
2015    2        4    13   5    4.2579   506.7    3.701      40.068
2015    2        4    13  11    4.2584   506.4    3.706      40.046
2015    2        4    13  16    4.2589   506.1    3.710      40.025
2015    2        4    13  21    4.2595   505.8    3.715      40.003
2015    2        4    13  27    4.2600   505.6    3.719      39.981
2015    2        4    13  32    4.2606   505.3    3.724      39.959
2015    2        4    13  38    4.2611   505.0    3.728      39.936
2015    2        4    13  43    4.2617   504.7    3.732      39.914
2015    2        4    13  48    4.2622   504.5    3.737      39.892
2015    2        4    13  54    4.2628   504.2    3.741      39.869
2015    2        4    13  59    4.2633   503.9    3.745      39.846
2015    2        4    14   5    4.2639   503.6    3.749      39.824
2015    2        4    14  10    4.2645   503.4    3.754      39.801
2015    2        4    14  15    4.2651   503.1    3.758      39.778
2015    2        4    14  21    4.2656   502.8    3.762      39.754
2015    2        4    14  26    4.2662   502.6    3.766      39.731
2015    2        4    14  32    4.2668   502.3    3.770      39.708
2015    2        4    14  37    4.2674   502.0    3.774      39.684
2015    2        4    14  42    4.2681   501.7    3.778      39.661
2015    2        4    14  48    4.2687   501.5    3.782      39.638
2015    2        4    14  53    4.2693   501.2    3.786      39.614
2015    2        4    14  58    4.2699   500.9    3.790      39.591
2015    2        4    15   4    4.2706   500.7    3.794      39.567
2015    2        4    15   9    4.2713   500.4    3.798      39.544
2015    2        4    15  15    4.2719   500.1    3.803      39.520
2015    2        4    15  20    4.2726   499.9    3.807      39.497
2015    2        4    15  25    4.2733   499.6    3.811      39.474
2015    2        4    15  31    4.2740   499.3    3.815      39.451
2015    2        4    15  36    4.2747   499.0    3.819      39.428
2015    2        4    15  42    4.2755   498.8    3.823      39.405
2015    2        4    15  47    4.2762   498.5    3.827      39.383
2015    2        4    15  52    4.2770   498.2    3.831      39.360
2015    2        4    15  58    4.2778   498.0    3.835      39.338
2015    2        4    16   3    4.2785   497.7    3.839      39.316
2015    2        4    16   9    4.2793   497.4    3.843      39.294
2015    2        4    16  14    4.2801   497.2    3.848      39.273
2015    2        4    16  19    4.2810   496.9    3.852      39.252
2015    2        4    16  25    4.2818   496.6    3.856      39.230
2015    2        4    16  30    4.2827   496.4    3.860      39.210
2015    2        4    16  35    4.2835   496.1    3.865      39.189
2015    2        4    16  41    4.2844   495.9    3.869      39.169
2015    2        4    16  46    4.2853   495.6    3.873      39.149
2015    2        4    16  52    4.2862   495.3    3.878      39.129
2015    2        4    16  57    4.2871   495.1    3.882      39.109
2015    2        4    17   2    4.2881   494.8    3.886      39.090
2015    2        4    17   8    4.2890   494.6    3.891      39.071
2015    2        4    17  13    4.2900   494.3    3.895      39.052
2015    2        4    17  19    4.2909   494.1    3.900      39.033
2015    2        4    17  24    4.2919   493.8    3.904      39.015
2015    2        4    17  29    4.2928   493.5    3.909      38.997
2015    2        4    17  35    4.2938   493.3    3.913      38.979
2015    2        4    17  40    4.2948   493.0    3.918      38.961
2015    2        4    17  45    4.2958   492.8    3.922      38.944
2015    2        4    17  51    4.2968   492.5    3.927      38.926
2015    2        4    17  56    4.2977   492.3    3.932      38.909
2015    2        4    18   2    4.2987   492.0    3.936      38.892
2015    2        4    18   7    4.2997   491.8    3.941      38.876
2015    2        4    18  12    4.3007   491.5    3.946      38.859
2015    2        4    18  18    4.3017   491.3    3.950      38.843
2015    2        4    18  23    4.3027   491.0    3.955      38.827
2015    2        4    18  29    4.3038   490.8    3.960      38.811
2015    2        4    18  34    4.3048   490.5    3.965      38.795
2015    2        4    18  39    4.3058   490.3    3.969      38.779
2015    2        4    18  45    4.3068   490.1    3.974      38.764
2015    2        4    18  50    4.3078   489.8    3.979      38.749
2015    2        4    18  56    4.3088   489.6    3.984      38.734
2015    2        4    19   1    4.3098   489.3    3.989      38.719
2015    2        4    19   6    4.3108   489.1    3.993      38.705
2015    2        4    19  12    4.3118   488.8    3.998      38.690
2015    2        4    19  17    4.3128   488.6    4.003      38.676
2015    2        4    19  22    4.3138   488.4    4.008      38.662
2015    2        4    19  28    4.3147   488.1    4.013      38.648
2015    2        4    19  33    4.3157   487.9    4.018      38.634
2015    2        4    19  39    4.3167   487.6    4.023      38.621
2015    2        4    19  44    4.3177   487.4    4.027      38.607
2015    2        4    19  49    4.3187   487.2    4.032      38.594
2015    2        4    19  55    4.3196   486.9    4.037      38.581
2015    2        4    20   0    4.3206   486.7    4.042      38.568
2015    2        4    20   6    4.3215   486.5    4.047      38.554
2015    2        4    20  11    4.3225   486.2    4.052      38.541
2015    2        4    20  16    4.3234   486.0    4.057      38.529
2015    2        4    20  22    4.3243   485.8    4.061      38.516
2015    2        4    20  27    4.3253   485.5    4.066      38.503
2015    2        4    20  33    4.3262   485.3    4.071      38.490
2015    2        4    20  38    4.3271   485.1    4.076      38.477
2015    2        4    20  43    4.3280   484.8    4.081      38.465
2015    2        4    20  49    4.3290   484.6    4.085      38.452
2015    2        4    20  54    4.3299   484.4    4.090      38.439
2015    2        4    20  59    4.3308   484.1    4.095      38.426
2015    2        4    21   5    4.3317   483.9    4.100      38.413
2015    2        4    21  10    4.3326   483.7    4.104      38.400
2015    2        4    21  16    4.3335   483.4    4.109      38.387
2015    2        4    21  21    4.3344   483.2    4.114      38.374
2015    2        4    21  26    4.3353   483.0    4.118      38.361
2015    2        4    21  32    4.3362   482.8    4.123      38.348
2015    2        4    21  37    4.3371   482.5    4.127      38.334
2015    2        4    21  43    4.3380   482.3    4.132      38.321
2015    2        4    21  48    4.3389   482.1    4.136      38.308
2015    2        4    21  53    4.3398   481.8    4.141      38.294
2015    2        4    21  59    4.3407   481.6    4.145      38.280
2015    2        4    22   4    4.3416   481.4    4.150      38.266
2015    2        4    22   9    4.3425   481.1    4.154      38.252
2015    2        4    22  15    4.3434   480.9    4.159      38.238
2015    2        4    22  20    4.3442   480.7    4.163      38.224
2015    2        4    22  26    4.3452   480.5    4.167      38.210
2015    2        4    22  31    4.3461   480.2    4.172      38.195
2015    2        4    22  36    4.3470   480.0    4.176      38.180
2015    2        4    22  42    4.3479   479.8    4.180      38.166
2015    2        4    22  47    4.3488   479.5    4.184      38.151
2015    2        4    22  53    4.3497   479.3    4.189      38.136
2015    2        4    22  58    4.3506   479.1    4.193      38.121
2015    2        4    23   3    4.3515   478.9    4.197      38.105
2015    2        4    23   9    4.3525   478.6    4.201      38.090
2015    2        4    23  14    4.3534   478.4    4.206      38.075
2015    2        4    23  20    4.3544   478.2    4.210      38.059
2015    2        4    23  25    4.3553   478.0    4.214      38.044
2015    2        4    23  30    4.3563   477.7    4.218      38.028
2015    2        4    23  36    4.3572   477.5    4.222      38.012
2015    2        4    23  41    4.3582   477.3    4.226      37.997
2015    2        4    23  46    4.3591   477.1    4.230      37.981
2015    2        4    23  52    4.3601   476.8    4.234      37.965
2015    2        4    23  57    4.3611   476.6    4.238      37.949
2015    2        5     0   3    4.3621   476.4    4.243      37.933
2015    2        5     0   8    4.3631   476.2    4.247      37.917
2015    2        5     0  13    4.3641   475.9    4.251      37.901
2015    2        5     0  19    4.3651   475.7    4.255      37.885
2015    2        5     0  24    4.3662   475.5    4.259      37.869
2015    2        5     0  30    4.3672   475.3    4.263      37.853
2015    2        5     0  35    4.3682   475.0    4.267      37.837
2015    2        5     0  40    4.3692   474.8    4.271      37.822
2015    2        5     0  46    4.3703   474.6    4.275      37.806
2015    2        5     0  51    4.3713   474.4    4.279      37.790
2015    2        5     0  57    4.3724   474.1    4.283      37.774
2015    2        5     1   2    4.3734   473.9    4.287      37.758
2015    2        5     1   7    4.3745   473.7    4.291      37.742
2015    2        5     1  13    4.3756   473.5    4.295      37.727
2015    2        5     1  18    4.3766   473.3    4.299      37.711
2015    2        5     1  23    4.3777   473.1    4.303      37.695
2015    2        5     1  29    4.3788   472.8    4.308      37.680
2015    2        5     1  34    4.3799   472.6    4.312      37.664
2015    2        5     1  40    4.3809   472.4    4.316      37.649
2015    2        5     1  45    4.3820   472.2    4.320      37.634
2015    2        5     1  50    4.3831   472.0    4.324      37.618
2015    2        5     1  56    4.3842   471.7    4.328      37.603
2015    2        5     2   1    4.3853   471.5    4.332      37.588
2015    2        5     2   7    4.3864   471.3    4.336      37.573
2015    2        5     2  12    4.3875   471.1    4.341      37.559
2015    2        5     2  17    4.3886   470.9    4.345      37.544
2015    2        5     2  23    4.3896   470.7    4.349      37.529
2015    2        5     2  28    4.3907   470.5    4.353      37.515
2015    2        5     2  33    4.3918   470.2    4.357      37.501
2015    2        5     2  39    4.3929   470.0    4.362      37.487
2015    2        5     2  44    4.3940   469.8    4.366      37.472
2015    2        5     2  50    4.3951   469.6    4.370      37.459
2015    2        5     2  55    4.3962   469.4    4.374      37.445
2015    2        5     3   0    4.3973   469.2    4.379      37.431
2015    2        5     3   6    4.3983   469.0    4.383      37.418
2015    2        5     3  11    4.3994   468.8    4.387      37.404
2015    2        5     3  17    4.4005   468.5    4.392      37.391
2015    2        5     3  22    4.4016   468.3    4.396      37.378
2015    2        5     3  27    4.4027   468.1    4.400      37.365
2015    2        5     3  33    4.4038   467.9    4.405      37.352
2015    2        5     3  38    4.4048   467.7    4.409      37.340
2015    2        5     3  44    4.4059   467.5    4.413      37.327
2015    2        5     3  49    4.4070   467.3    4.418      37.315
2015    2        5     3  54    4.4081   467.1    4.422      37.302
2015    2        5     4   0    4.4091   466.9    4.426      37.290
2015    2        5     4   5    4.4102   466.7    4.431      37.278
2015    2        5     4  10    4.4113   466.5    4.435      37.266
2015    2        5     4  16    4.4124   466.3    4.440      37.254
2015    2        5     4  21    4.4135   466.1    4.444      37.242
2015    2        5     4  27    4.4145   465.9    4.449      37.230
2015    2        5     4  32    4.4157   465.6    4.453      37.219
2015    2        5     4  37    4.4167   465.4    4.458      37.207
2015    2        5     4  43    4.4178   465.2    4.462      37.196
2015    2        5     4  48    4.4189   465.0    4.466      37.184
2015    2        5     4  54    4.4200   464.8    4.471      37.172
2015    2        5     4  59    4.4211   464.6    4.475      37.161
2015    2        5     5   4    4.4222   464.4    4.480      37.150
2015    2        5     5  10    4.4233   464.2    4.484      37.139
2015    2        5     5  15    4.4244   464.0    4.489      37.127
2015    2        5     5  21    4.4255   463.8    4.493      37.116
2015    2        5     5  26    4.4266   463.6    4.498      37.105
2015    2        5     5  31    4.4277   463.4    4.502      37.094
2015    2        5     5  37    4.4289   463.2    4.507      37.082
2015    2        5     5  42    4.4300   463.0    4.511      37.071
2015    2        5     5  47    4.4311   462.8    4.516      37.060
2015    2        5     5  53    4.4323   462.6    4.520      37.049
2015    2        5     5  58    4.4334   462.4    4.525      37.038
2015    2        5     6   4    4.4345   462.2    4.530      37.027
2015    2        5     6   9    4.4357   462.0    4.534      37.016
2015    2        5     6  14    4.4369   461.8    4.539      37.004
2015    2        5     6  20    4.4380   461.6    4.543      36.993
2015    2        5     6  25    4.4392   461.4    4.548      36.982
2015    2        5     6  31    4.4404   461.2    4.552      36.971
2015    2        5     6  36    4.4416   461.0    4.557      36.959
2015    2        5     6  41    4.4428   460.8    4.561      36.948
2015    2        5     6  47    4.4439   460.6    4.566      36.937
2015    2        5     6  52    4.4451   460.4    4.570      36.925
2015    2        5     6  58    4.4463   460.2    4.575      36.913
2015    2        5     7   3    4.4475   460.0    4.579      36.902
2015    2        5     7   8    4.4487   459.8    4.584      36.890
2015    2        5     7  14    4.4500   459.6    4.588      36.879
2015    2        5     7  19    4.4512   459.4    4.592      36.867
2015    2        5     7  24    4.4524   459.2    4.597      36.855
2015    2        5     7  30    4.4536   459.0    4.601      36.843
2015    2        5     7  35    4.4548   458.8    4.606      36.831
2015    2        5     7  41    4.4560   458.7    4.610      36.818
2015    2        5     7  46    4.4573   458.5    4.614      36.806
2015    2        5     7  51    4.4585   458.3    4.619      36.794
2015    2        5     7  57    4.4597   458.1    4.623      36.781
2015    2        5     8   2    4.4610   457.9    4.627      36.769
2015    2        5     8   8    4.4622   457.7    4.632      36.756
2015    2        5     8  13    4.4634   457.5    4.636      36.743
2015    2        5     8  18    4.4647   457.3    4.640      36.730
2015    2        5     8  24    4.4659   457.1    4.645      36.717
2015    2        5     8  29    4.4672   456.9    4.649      36.704
2015    2        5     8  34    4.4684   456.7    4.653      36.691
2015    2        5     8  40    4.4697   456.5    4.658      36.678
2015    2        5     8  45    4.4709   456.3    4.662      36.665
2015    2        5     8  51    4.4722   456.1    4.666      36.652
2015    2        5     8  56    4.4735   455.9    4.670      36.639
2015    2        5     9   1    4.4747   455.8    4.675      36.625
2015    2        5     9   7    4.4760   455.6    4.679      36.612
2015    2        5     9  12    4.4773   455.4    4.683      36.599
2015    2        5     9  18    4.4786   455.2    4.687      36.585
2015    2        5     9  23    4.4798   455.0    4.691      36.572
2015    2        5     9  28    4.4811   454.8    4.696      36.559
2015    2        5     9  34    4.4824   454.6    4.700      36.545
2015    2        5     9  39    4.4837   454.4    4.704      36.532
2015    2        5     9  45    4.4850   454.2    4.708      36.518
2015    2        5     9  50    4.4863   454.0    4.713      36.505
2015    2        5     9  55    4.4877   453.9    4.717      36.492
2015    2        5    10   1    4.4890   453.7    4.721      36.478
2015    2        5    10   6    4.4903   453.5    4.725      36.465
2015    2        5    10  11    4.4916   453.3    4.730      36.452
2015    2        5    10  17    4.4930   453.1    4.734      36.439
2015    2        5    10  22    4.4943   452.9    4.738      36.426
2015    2        5    10  28    4.4957   452.7    4.743      36.413
2015    2        5    10  33    4.4970   452.5    4.747      36.400
2015    2        5    10  38    4.4984   452.4    4.751      36.387
2015    2        5    10  44    4.4997   452.2    4.756      36.374
2015    2        5    10  49    4.5011   452.0    4.760      36.362
2015    2        5    10  55    4.5025   451.8    4.764      36.349
2015    2        5    11   0    4.5039   451.6    4.769      36.336
2015    2        5    11   5    4.5053   451.4    4.773      36.324
2015    2        5    11  11    4.5067   451.2    4.778      36.312
2015    2        5    11  16    4.5081   451.0    4.782      36.299
2015    2        5    11  22    4.5095   450.9    4.786      36.287
2015    2        5    11  27    4.5110   450.7    4.791      36.275
2015    2        5    11  32    4.5124   450.5    4.795      36.263
2015    2        5    11  38    4.5139   450.3    4.800      36.251
2015    2        5    11  43    4.5153   450.1    4.804      36.240
2015    2        5    11  48    4.5168   449.9    4.809      36.228
2015    2        5    11  54    4.5183   449.8    4.813      36.217
2015    2        5    11  59    4.5198   449.6    4.818      36.205
2015    2        5    12   5    4.5213   449.4    4.823      36.194
2015    2        5    12  10    4.5228   449.2    4.827      36.183
2015    2        5    12  15    4.5243   449.0    4.832      36.172
2015    2        5    12  21    4.5259   448.9    4.836      36.161
2015    2        5    12  26    4.5274   448.7    4.841      36.150
2015    2        5    12  32    4.5290   448.5    4.846      36.140
2015    2        5    12  37    4.5305   448.3    4.850      36.129
2015    2        5    12  42    4.5321   448.1    4.855      36.119
2015    2        5    12  48    4.5337   448.0    4.860      36.109
2015    2        5    12  53    4.5353   447.8    4.864      36.099
2015    2        5    12  58    4.5369   447.6    4.869      36.089
2015    2        5    13   4    4.5385   447.4    4.874      36.079
2015    2        5    13   9    4.5402   447.3    4.879      36.070
2015    2        5    13  15    4.5418   447.1    4.883      36.060
2015    2        5    13  20    4.5435   446.9    4.888      36.051
2015    2        5    13  25    4.5452   446.7    4.893      36.041
2015    2        5    13  31    4.5469   446.6    4.898      36.032
2015    2        5    13  36    4.5486   446.4    4.903      36.023
2015    2        5    13  42    4.5503   446.2    4.907      36.014
2015    2        5    13  47    4.5520   446.0    4.912      36.006
2015    2        5    13  52    4.5537   445.9    4.917      35.997
2015    2        5    13  58    4.5554   445.7    4.922      35.988
2015    2        5    14   3    4.5572   445.5    4.927      35.980
2015    2        5    14   9    4.5589   445.4    4.932      35.971
2015    2        5    14  14    4.5607   445.2    4.937      35.963
2015    2        5    14  19    4.5625   445.0    4.941      35.955
2015    2        5    14  25    4.5643   444.9    4.946      35.946
2015    2        5    14  30    4.5660   444.7    4.951      35.938
2015    2        5    14  35    4.5678   444.5    4.956      35.930
2015    2        5    14  41    4.5696   444.4    4.961      35.922
2015    2        5    14  46    4.5714   444.2    4.966      35.914
2015    2        5    14  52    4.5732   444.0    4.971      35.906
2015    2        5    14  57    4.5750   443.9    4.976      35.898
2015    2        5    15   2    4.5768   443.7    4.981      35.890
2015    2        5    15   8    4.5786   443.5    4.986      35.883
2015    2        5    15  13    4.5805   443.4    4.991      35.875
2015    2        5    15  19    4.5823   443.2    4.996      35.867
2015    2        5    15  24    4.5841   443.0    5.001      35.860
2015    2        5    15  29    4.5860   442.9    5.006      35.852
2015    2        5    15  35    4.5878   442.7    5.011      35.845
2015    2        5    15  40    4.5897   442.6    5.016      35.837
2015    2        5    15  46    4.5915   442.4    5.021      35.830
2015    2        5    15  51    4.5934   442.2    5.026      35.822
2015    2        5    15  56    4.5952   442.1    5.031      35.815
2015    2        5    16   2    4.5971   441.9    5.036      35.808
2015    2        5    16   7    4.5990   441.8    5.041      35.801
2015    2        5    16  12    4.6008   441.6    5.046      35.794
2015    2        5    16  18    4.6027   441.4    5.051      35.787
2015    2        5    16  23    4.6046   441.3    5.056      35.780
2015    2        5    16  29    4.6065   441.1    5.062      35.773
2015    2        5    16  34    4.6084   441.0    5.067      35.767
2015    2        5    16  39    4.6103   440.8    5.072      35.760
2015    2        5    16  45    4.6122   440.6    5.077      35.754
2015    2        5    16  50    4.6141   440.5    5.082      35.747
2015    2        5    16  56    4.6160   440.3    5.088      35.741
2015    2        5    17   1    4.6179   440.2    5.093      35.734
2015    2        5    17   6    4.6198   440.0    5.098      35.728
2015    2        5    17  12    4.6218   439.9    5.103      35.722
2015    2        5    17  17    4.6237   439.7    5.109      35.715
2015    2        5    17  22    4.6257   439.5    5.114      35.709
2015    2        5    17  28    4.6276   439.4    5.119      35.703
2015    2        5    17  33    4.6296   439.2    5.125      35.697
2015    2        5    17  39    4.6315   439.1    5.130      35.691
2015    2        5    17  44    4.6335   438.9    5.135      35.685
2015    2        5    17  49    4.6354   438.8    5.141      35.679
2015    2        5    17  55    4.6374   438.6    5.146      35.673
2015    2        5    18   0    4.6395   438.5    5.152      35.667
2015    2        5    18   6    4.6414   438.3    5.157      35.661
2015    2        5    18  11    4.6434   438.2    5.162      35.655
2015    2        5    18  16    4.6454   438.0    5.168      35.649
2015    2        5    18  22    4.6474   437.9    5.173      35.643
2015    2        5    18  27    4.6495   437.7    5.178      35.637
2015    2        5    18  33    4.6514   437.6    5.184      35.631
2015    2        5    18  38    4.6535   437.4    5.189      35.625
2015    2        5    18  43    4.6555   437.3    5.194      35.619
2015    2        5    18  49    4.6575   437.1    5.200      35.613
2015    2        5    18  54    4.6596   437.0    5.205      35.607
2015    2        5    18  59    4.6616   436.8    5.210      35.601
2015    2        5    19   5    4.6637   436.7    5.216      35.595
2015    2        5    19  10    4.6658   436.5    5.221      35.589
2015    2        5    19  16    4.6679   436.4    5.226      35.583
2015    2        5    19  21    4.6700   436.2    5.231      35.577
2015    2        5    19  26    4.6721   436.1    5.236      35.570
2015    2        5    19  32    4.6742   435.9    5.242      35.564
2015    2        5    19  37    4.6763   435.8    5.247      35.558
2015    2        5    19  43    4.6784   435.6    5.252      35.551
2015    2        5    19  48    4.6806   435.5    5.257      35.545
2015    2        5    19  53    4.6827   435.3    5.262      35.539
2015    2        5    19  59    4.6849   435.2    5.267      35.533
2015    2        5    20   4    4.6870   435.0    5.272      35.526
2015    2        5    20  10    4.6892   434.9    5.277      35.520
2015    2        5    20  15    4.6914   434.7    5.283      35.514
2015    2        5    20  20    4.6936   434.6    5.288      35.507
2015    2        5    20  26    4.6958   434.4    5.293      35.501
2015    2        5    20  31    4.6981   434.3    5.298      35.495
2015    2        5    20  36    4.7004   434.1    5.303      35.489
2015    2        5    20  42    4.7026   434.0    5.308      35.482
2015    2        5    20  47    4.7049   433.9    5.313      35.476
2015    2        5    20  53    4.7071   433.7    5.318      35.470
2015    2        5    20  58    4.7095   433.6    5.323      35.464
2015    2        5    21   3    4.7118   433.4    5.328      35.458
2015    2        5    21   9    4.7141   433.3    5.333      35.453
2015    2        5    21  14    4.7164   433.1    5.338      35.447
2015    2        5    21  20    4.7188   433.0    5.343      35.441
2015    2        5    21  25    4.7211   432.9    5.348      35.435
2015    2        5    21  30    4.7235   432.7    5.353      35.430
2015    2        5    21  36    4.7259   432.6    5.358      35.425
2015    2        5    21  41    4.7283   432.4    5.364      35.419
2015    2        5    21  47    4.7307   432.3    5.369      35.414
2015    2        5    21  52    4.7332   432.2    5.374      35.410
2015    2        5    21  57    4.7356   432.0    5.379      35.405
2015    2        5    22   3    4.7381   431.9    5.384      35.400
2015    2        5    22   8    4.7406   431.7    5.389      35.395
2015    2        5    22  13    4.7430   431.6    5.395      35.391
2015    2        5    22  19    4.7455   431.5    5.400      35.387
2015    2        5    22  24    4.7481   431.3    5.405      35.383
2015    2        5    22  30    4.7505   431.2    5.411      35.379
2015    2        5    22  35    4.7531   431.0    5.416      35.375
2015    2        5    22  40    4.7556   430.9    5.421      35.371
2015    2        5    22  46    4.7582   430.8    5.427      35.368
2015    2        5    22  51    4.7607   430.6    5.432      35.364
2015    2        5    22  57    4.7633   430.5    5.438      35.361
2015    2        5    23   2    4.7659   430.4    5.444      35.358
2015    2        5    23   7    4.7684   430.2    5.449      35.355
2015    2        5    23  13    4.7710   430.1    5.455      35.353
2015    2        5    23  18    4.7736   430.0    5.460      35.350
2015    2        5    23  23    4.7762   429.8    5.466      35.348
2015    2        5    23  29    4.7789   429.7    5.472      35.346
2015    2        5    23  34    4.7815   429.6    5.478      35.343
2015    2        5    23  40    4.7841   429.4    5.483      35.341
2015    2        5    23  45    4.7867   429.3    5.489      35.340
2015    2        5    23  50    4.7894   429.2    5.495      35.338
2015    2        5    23  56    4.7921   429.0    5.501      35.336
2015    2        6     0   1    4.7947   428.9    5.507      35.335
2015    2        6     0   7    4.7975   428.8    5.513      35.334
2015    2        6     0  12    4.8001   428.7    5.519      35.333
2015    2        6     0  17    4.8028   428.5    5.525      35.332
2015    2        6     0  23    4.8055   428.4    5.532      35.331
2015    2        6     0  28    4.8082   428.3    5.538      35.330
2015    2        6     0  34    4.8109   428.1    5.544      35.330
2015    2        6     0  39    4.8136   428.0    5.550      35.330
2015    2        6     0  44    4.8163   427.9    5.557      35.329
2015    2        6     0  50    4.8191   427.8    5.563      35.329
2015    2        6     0  55    4.8218   427.6    5.569      35.329
2015    2        6     1   0    4.8246   427.5    5.576      35.330
2015    2        6     1   6    4.8274   427.4    5.582      35.330
2015    2        6     1  11    4.8302   427.3    5.589      35.330
2015    2        6     1  17    4.8330   427.1    5.596      35.331
2015    2        6     1  22    4.8358   427.0    5.602      35.332
2015    2        6     1  27    4.8386   426.9    5.609      35.333
2015    2        6     1  33    4.8414   426.8    5.615      35.334
2015    2        6     1  38    4.8442   426.6    5.622      35.335
2015    2        6     1  44    4.8471   426.5    5.629      35.336
2015    2        6     1  49    4.8500   426.4    5.636      35.337
2015    2        6     1  54    4.8529   426.3    5.642      35.339
2015    2        6     2   0    4.8557   426.2    5.649      35.340
2015    2        6     2   5    4.8587   426.0    5.656      35.342
2015    2        6     2  11    4.8616   425.9    5.663      35.344
2015    2        6     2  16    4.8645   425.8    5.670      35.346
2015    2        6     2  21    4.8674   425.7    5.677      35.348
2015    2        6     2  27    4.8704   425.6    5.683      35.350
2015    2        6     2  32    4.8734   425.5    5.690      35.352
2015    2        6     2  37    4.8764   425.3    5.697      35.354
2015    2        6     2  43    4.8793   425.2    5.704      35.356
2015    2        6     2  48    4.8825   425.1    5.711      35.358
2015    2        6     2  54    4.8855   425.0    5.718      35.361
2015    2        6     2  59    4.8884   424.9    5.725      35.363
2015    2        6     3   4    4.8915   424.8    5.732      35.365
2015    2        6     3  10    4.8945   424.6    5.739      35.368
2015    2        6     3  15    4.8976   424.5    5.745      35.370
2015    2        6     3  21    4.9007   424.4    5.752      35.373
2015    2        6     3  26    4.9039   424.3    5.759      35.375
2015    2        6     3  31    4.9069   424.2    5.766      35.377
2015    2        6     3  37    4.9101   424.1    5.773      35.380
2015    2        6     3  42    4.9132   424.0    5.780      35.382
2015    2        6     3  47    4.9164   423.8    5.786      35.384
2015    2        6     3  53    4.9196   423.7    5.793      35.386
2015    2        6     3  58    4.9228   423.6    5.800      35.389
2015    2        6     4   4    4.9260   423.5    5.807      35.391
2015    2        6     4   9    4.9292   423.4    5.813      35.393
2015    2        6     4  14    4.9324   423.3    5.820      35.395
2015    2        6     4  20    4.9356   423.2    5.827      35.397
2015    2        6     4  25    4.9389   423.1    5.833      35.399
2015    2        6     4  31    4.9422   423.0    5.840      35.401
2015    2        6     4  36    4.9455   422.8    5.847      35.403
2015    2        6     4  41    4.9488   422.7    5.853      35.405
2015    2        6     4  47    4.9521   422.6    5.860      35.407
2015    2        6     4  52    4.9554   422.5    5.866      35.408
2015    2        6     4  58    4.9588   422.4    5.873      35.410
2015    2        6     5   3    4.9621   422.3    5.879      35.412
2015    2        6     5   8    4.9655   422.2    5.886      35.414
2015    2        6     5  14    4.9690   422.1    5.892      35.416
2015    2        6     5  19    4.9723   422.0    5.899      35.417
2015    2        6     5  24    4.9759   421.9    5.905      35.419
2015    2        6     5  30    4.9792   421.8    5.912      35.421
2015    2        6     5  35    4.9827   421.7    5.918      35.423
2015    2        6     5  41    4.9861   421.6    5.925      35.425
2015    2        6     5  46    4.9896   421.4    5.931      35.427
2015    2        6     5  51    4.9931   421.3    5.937      35.429
2015    2        6     5  57    4.9967   421.2    5.944      35.431
2015    2        6     6   2    5.0002   421.1    5.951      35.433
2015    2        6     6   8    5.0038   421.0    5.957      35.435
2015    2        6     6  13    5.0073   420.9    5.964      35.438
2015    2        6     6  18    5.0109   420.8    5.970      35.440
2015    2        6     6  24    5.0145   420.7    5.977      35.443
2015    2        6     6  29    5.0181   420.6    5.984      35.445
2015    2        6     6  35    5.0217   420.5    5.990      35.448
2015    2        6     6  40    5.0254   420.4    5.997      35.451
2015    2        6     6  45    5.0290   420.3    6.004      35.454
2015    2        6     6  51    5.0326   420.2    6.011      35.457
2015    2        6     6  56    5.0363   420.1    6.017      35.460
2015    2        6     7   1    5.0400   420.0    6.024      35.463
2015    2        6     7   7    5.0437   419.9    6.031      35.467
2015    2        6     7  12    5.0474   419.8    6.038      35.470
2015    2        6     7  18    5.0511   419.7    6.045      35.474
2015    2        6     7  23    5.0548   419.6    6.052      35.478
2015    2        6     7  28    5.0585   419.5    6.060      35.482
2015    2        6     7  34    5.0622   419.5    6.067      35.486
2015    2        6     7  39    5.0660   419.4    6.074      35.491
2015    2        6     7  45    5.0697   419.3    6.081      35.495
2015    2        6     7  50    5.0735   419.2    6.089      35.500
2015    2        6     7  55    5.0773   419.1    6.096      35.505
2015    2        6     8   1    5.0811   419.0    6.104      35.509
2015    2        6     8   6    5.0849   418.9    6.111      35.514
2015    2        6     8  12    5.0887   418.8    6.119      35.520
2015    2        6     8  17    5.0925   418.7    6.126      35.525
2015    2        6     8  22    5.0963   418.6    6.134      35.531
2015    2        6     8  28    5.1003   418.5    6.142      35.536
2015    2        6     8  33    5.1040   418.5    6.150      35.542
2015    2        6     8  38    5.1079   418.4    6.157      35.548
2015    2        6     8  44    5.1117   418.3    6.165      35.554
2015    2        6     8  49    5.1156   418.2    6.173      35.560
2015    2        6     8  55    5.1195   418.1    6.181      35.566
2015    2        6     9   0    5.1235   418.0    6.189      35.573
2015    2        6     9   5    5.1274   418.0    6.197      35.579
2015    2        6     9  11    5.1313   417.9    6.205      35.586
2015    2        6     9  16    5.1353   417.8    6.214      35.593
2015    2        6     9  22    5.1393   417.7    6.222      35.600
2015    2        6     9  27    5.1433   417.6    6.230      35.607
2015    2        6     9  32    5.1472   417.5    6.238      35.614
2015    2        6     9  38    5.1513   417.5    6.247      35.621
2015    2        6     9  43    5.1553   417.4    6.255      35.628
2015    2        6     9  48    5.1593   417.3    6.263      35.636
2015    2        6     9  54    5.1634   417.2    6.272      35.643
2015    2        6     9  59    5.1675   417.2    6.280      35.651
2015    2        6    10   5    5.1716   417.1    6.288      35.659
2015    2        6    10  10    5.1757   417.0    6.297      35.667
2015    2        6    10  15    5.1798   416.9    6.305      35.676
2015    2        6    10  21    5.1839   416.9    6.313      35.684
2015    2        6    10  26    5.1881   416.8    6.322      35.693
2015    2        6    10  32    5.1922   416.7    6.330      35.702
2015    2        6    10  37    5.1964   416.6    6.338      35.711
2015    2        6    10  42    5.2006   416.6    6.346      35.720
2015    2        6    10  48    5.2048   416.5    6.354      35.729
2015    2        6    10  53    5.2090   416.4    6.362      35.738
2015    2        6    10  59    5.2132   416.4    6.370      35.748
2015    2        6    11   4    5.2174   416.3    6.378      35.757
2015    2        6    11   9    5.2217   416.2    6.386      35.766
2015    2        6    11  15    5.2259   416.2    6.394      35.775
2015    2        6    11  20    5.2302   416.1    6.402      35.784
2015    2        6    11  25    5.2345   416.0    6.410      35.793
2015    2        6    11  31    5.2388   416.0    6.417      35.801
2015    2        6    11  36    5.2431   415.9    6.425      35.810
2015    2        6    11  42    5.2474   415.8    6.433      35.819
2015    2        6    11  47    5.2517   415.8    6.440      35.827
2015    2        6    11  52    5.2561   415.7    6.448      35.835
2015    2        6    11  58    5.2604   415.6    6.455      35.843
2015    2        6    12   3    5.2648   415.6    6.463      35.851
2015    2        6    12   9    5.2692   415.5    6.470      35.859
2015    2        6    12  14    5.2736   415.4    6.477      35.866
2015    2        6    12  19    5.2780   415.4    6.485      35.874
2015    2        6    12  25    5.2824   415.3    6.492      35.881
2015    2        6    12  30    5.2869   415.3    6.499      35.888
2015    2        6    12  36    5.2913   415.2    6.507      35.895
2015    2        6    12  41    5.2958   415.1    6.514      35.902
2015    2        6    12  46    5.3003   415.1    6.521      35.909
2015    2        6    12  52    5.3048   415.0    6.528      35.916
2015    2        6    12  57    5.3093   415.0    6.535      35.922
2015    2        6    13   2    5.3139   414.9    6.542      35.929
2015    2        6    13   8    5.3185   414.8    6.549      35.935
2015    2        6    13  13    5.3230   414.8    6.556      35.942
2015    2        6    13  19    5.3276   414.7    6.564      35.948
2015    2        6    13  24    5.3322   414.7    6.571      35.955
2015    2        6    13  29    5.3370   414.6    6.578      35.961
2015    2        6    13  35    5.3415   414.5    6.585      35.967
2015    2        6    13  40    5.3462   414.5    6.592      35.973
2015    2        6    13  46    5.3509   414.4    6.599      35.980
2015    2        6    13  51    5.3556   414.4    6.606      35.986
2015    2        6    13  56    5.3603   414.3    6.613      35.992
2015    2        6    14   2    5.3650   414.3    6.621      35.999
2015    2        6    14   7    5.3698   414.2    6.628      36.005
2015    2        6    14  12    5.3745   414.2    6.635      36.012
2015    2        6    14  18    5.3793   414.1    6.643      36.018
2015    2        6    14  23    5.3841   414.1    6.650      36.025
2015    2        6    14  29    5.3889   414.0    6.658      36.032
2015    2        6    14  34    5.3937   414.0    6.665      36.039
2015    2        6    14  39    5.3986   413.9    6.673      36.046
2015    2        6    14  45    5.4035   413.9    6.680      36.053
2015    2        6    14  50    5.4084   413.8    6.688      36.061
2015    2        6    14  56    5.4132   413.8    6.696      36.069
2015    2        6    15   1    5.4182   413.7    6.704      36.076
2015    2        6    15   6    5.4231   413.7    6.712      36.084
2015    2        6    15  12    5.4282   413.6    6.720      36.093
2015    2        6    15  17    5.4330   413.6    6.728      36.101
2015    2        6    15  23    5.4380   413.5    6.737      36.109
2015    2        6    15  28    5.4430   413.5    6.745      36.118
2015    2        6    15  33    5.4480   413.4    6.754      36.128
2015    2        6    15  39    5.4531   413.4    6.762      36.137
2015    2        6    15  44    5.4581   413.4    6.771      36.147
2015    2        6    15  49    5.4632   413.3    6.780      36.157
2015    2        6    15  55    5.4683   413.3    6.789      36.167
2015    2        6    16   0    5.4733   413.2    6.798      36.178
2015    2        6    16   6    5.4784   413.2    6.807      36.189
2015    2        6    16  11    5.4835   413.2    6.817      36.201
2015    2        6    16  16    5.4886   413.1    6.826      36.213
2015    2        6    16  22    5.4936   413.1    6.836      36.227
2015    2        6    16  27    5.4987   413.0    6.845      36.240
2015    2        6    16  33    5.5038   413.0    6.855      36.254
2015    2        6    16  38    5.5088   413.0    6.864      36.269
2015    2        6    16  43    5.5139   412.9    6.874      36.284
2015    2        6    16  49    5.5189   412.9    6.883      36.299
2015    2        6    16  54    5.5240   412.9    6.892      36.314
2015    2        6    17   0    5.5290   412.9    6.902      36.330
2015    2        6    17   5    5.5340   412.8    6.911      36.345
2015    2        6    17  10    5.5390   412.8    6.920      36.361
2015    2        6    17  16    5.5440   412.8    6.929      36.377
2015    2        6    17  21    5.5490   412.7    6.938      36.393
2015    2        6    17  26    5.5540   412.7    6.947      36.409
2015    2        6    17  32    5.5590   412.7    6.956      36.425
2015    2        6    17  37    5.5640   412.7    6.965      36.441
2015    2        6    17  43    5.5689   412.7    6.973      36.457
2015    2        6    17  48    5.5739   412.6    6.982      36.472
2015    2        6    17  53    5.5789   412.6    6.990      36.488
2015    2        6    17  59    5.5838   412.6    6.998      36.503
2015    2        6    18   4    5.5888   412.6    7.006      36.518
2015    2        6    18  10    5.5937   412.6    7.014      36.533
2015    2        6    18  15    5.5986   412.5    7.022      36.548
2015    2        6    18  20    5.6036   412.5    7.030      36.562
2015    2        6    18  26    5.6085   412.5    7.037      36.577
2015    2        6    18  31    5.6134   412.5    7.045      36.591
2015    2        6    18  36    5.6183   412.5    7.052      36.605
2015    2        6    18  42    5.6232   412.4    7.060      36.619
2015    2        6    18  47    5.6281   412.4    7.067      36.632
2015    2        6    18  53    5.6330   412.4    7.074      36.646
2015    2        6    18  58    5.6379   412.4    7.081      36.659
2015    2        6    19   3    5.6428   412.4    7.088      36.672
2015    2        6    19   9    5.6477   412.4    7.095      36.684
2015    2        6    19  14    5.6526   412.4    7.101      36.696
2015    2        6    19  20    5.6575   412.3    7.108      36.708
2015    2        6    19  25    5.6623   412.3    7.115      36.720
2015    2        6    19  30    5.6672   412.3    7.121      36.731
2015    2        6    19  36    5.6721   412.3    7.128      36.742
2015    2        6    19  41    5.6770   412.3    7.134      36.753
2015    2        6    19  47    5.6819   412.3    7.140      36.763
2015    2        6    19  52    5.6868   412.3    7.146      36.773
2015    2        6    19  57    5.6917   412.2    7.153      36.783
2015    2        6    20   3    5.6966   412.2    7.159      36.793
2015    2        6    20   8    5.7015   412.2    7.165      36.803
2015    2        6    20  13    5.7064   412.2    7.171      36.812
2015    2        6    20  19    5.7113   412.2    7.177      36.821
2015    2        6    20  24    5.7162   412.2    7.183      36.830
2015    2        6    20  30    5.7212   412.2    7.189      36.838
2015    2        6    20  35    5.7261   412.2    7.195      36.847
2015    2        6    20  40    5.7311   412.1    7.201      36.855
2015    2        6    20  46    5.7361   412.1    7.207      36.864
2015    2        6    20  51    5.7411   412.1    7.212      36.872
2015    2        6    20  57    5.7461   412.1    7.218      36.880
2015    2        6    21   2    5.7511   412.1    7.224      36.888
2015    2        6    21   7    5.7562   412.1    7.230      36.896
2015    2        6    21  13    5.7613   412.1    7.236      36.904
2015    2        6    21  18    5.7664   412.1    7.242      36.912
2015    2        6    21  24    5.7716   412.1    7.248      36.920
2015    2        6    21  29    5.7768   412.0    7.254      36.928
2015    2        6    21  34    5.7819   412.0    7.260      36.936
2015    2        6    21  40    5.7872   412.0    7.266      36.945
2015    2        6    21  45    5.7924   412.0    7.273      36.954
2015    2        6    21  50    5.7978   412.0    7.279      36.962
2015    2        6    21  56    5.8031   412.0    7.286      36.972
2015    2        6    22   1    5.8085   412.0    7.292      36.981
2015    2        6    22   7    5.8139   412.0    7.299      36.991
2015    2        6    22  12    5.8194   412.0    7.306      37.001
2015    2        6    22  17    5.8249   412.0    7.313      37.012
2015    2        6    22  23    5.8304   412.0    7.320      37.023
2015    2        6    22  28    5.8360   412.0    7.328      37.034
2015    2        6    22  34    5.8416   411.9    7.335      37.046
2015    2        6    22  39    5.8473   411.9    7.343      37.059
2015    2        6    22  44    5.8530   411.9    7.351      37.072
2015    2        6    22  50    5.8587   411.9    7.359      37.086
2015    2        6    22  55    5.8645   411.9    7.368      37.100
2015    2        6    23   1    5.8704   411.9    7.377      37.115
2015    2        6    23   6    5.8762   411.9    7.386      37.130
2015    2        6    23  11    5.8821   411.9    7.395      37.147
2015    2        6    23  17    5.8880   411.9    7.405      37.165
2015    2        6    23  22    5.8939   411.9    7.414      37.184
2015    2        6    23  27    5.8998   411.9    7.424      37.204
2015    2        6    23  33    5.9056   412.0    7.434      37.226
2015    2        6    23  38    5.9115   412.0    7.444      37.248
2015    2        6    23  44    5.9174   412.0    7.454      37.272
2015    2        6    23  49    5.9232   412.0    7.464      37.297
2015    2        6    23  54    5.9290   412.0    7.474      37.323
2015    2        7     0   0    5.9348   412.0    7.484      37.350
